* Sea-Bird SBE19plus  Data File:
* FileName = C:\DATA\061719_FCR_0004.hex
* Software version 2.8.0.119 SB_Terminal.dll
* Temperature SN = 7809
* Conductivity SN = 7809
* System UpLoad Time = Jun 17 2019 17:01:19
* <ApplicationData>
* <Seaterm232>
* <SoftwareVersion>2.8.0.119</SoftwareVersion>
* <BuildDate>07-Nov-2018</BuildDate>
* </Seaterm232>
* </ApplicationData>
* cast   4 17 Jun 2019 10:51:51 samples 3378 to 4015, avg = 1, stop = mag switch
# nquan = 16
# nvalues = 585                         
# units = specified
# name 0 = depFM: Depth [fresh water, m]
# name 1 = dz/dtM: Descent Rate [m/s]
# name 2 = sbeox0Mg/L: Oxygen, SBE 43 [mg/l]
# name 3 = sbeox0PS: Oxygen, SBE 43 [% saturation]
# name 4 = specc: Specific Conductance [uS/cm]
# name 5 = c0uS/cm: Conductivity [uS/cm]
# name 6 = flECO-AFL: Fluorescence, WET Labs ECO-AFL/FL [mg/m^3]
# name 7 = ph: pH
# name 8 = orp: Oxidation Reduction Potential [mV]
# name 9 = par/sat/log: PAR/Logarithmic, Satlantic
# name 10 = turbWETntu0: Turbidity, WET Labs ECO [NTU]
# name 11 = prdM: Pressure, Strain Gauge [db]
# name 12 = prdE: Pressure, Strain Gauge [psi]
# name 13 = tv290C: Temperature [ITS-90, deg C]
# name 14 = density00: Density [density, kg/m^3]
# name 15 = flag:  0.000e+00
# span 0 =     -0.573,      2.313       
# span 1 =     -0.014,      0.096       
# span 2 =     5.3585,    10.0985       
# span 3 =     63.722,    112.636       
# span 4 =     -0.231,     37.062       
# span 5 =  -0.233805,  34.078960       
# span 6 =    -1.2222,    13.3547       
# span 7 =      6.589,     10.135       
# span 8 = -1240.7455,   347.5446       
# span 9 = 7.4153e+01, 2.1758e+03       
# span 10 =    -1.6223,    51.8379      
# span 11 =     -0.562,      2.269      
# span 12 =     -0.815,      3.291      
# span 13 =    20.3087,    25.5257      
# span 14 =   996.9126,   998.1689      
# span 15 = 0.0000e+00, 0.0000e+00      
# interval = seconds: 0.25
# start_time = Jun 17 2019 10:51:51 [Instrument's time stamp, header]
# bad_flag = -9.990e-29
# <Sensors count="9" >
#   <sensor Channel="1" >
#     <!-- Count, Temperature -->
#     <TemperatureSensor SensorID="58" >
#       <SerialNumber>7809</SerialNumber>
#       <CalibrationDate>24-Mar-19</CalibrationDate>
#       <A0>1.21792325e-003</A0>
#       <A1>2.81669265e-004</A1>
#       <A2>-1.60333336e-006</A2>
#       <A3>1.98414625e-007</A3>
#       <Slope>1.00000000</Slope>
#       <Offset>0.0000</Offset>
#     </TemperatureSensor>
#   </sensor>
#   <sensor Channel="2" >
#     <!-- Frequency 0, Conductivity -->
#     <ConductivitySensor SensorID="3" >
#       <SerialNumber>7809</SerialNumber>
#       <CalibrationDate>24-Mar-19</CalibrationDate>
#       <UseG_J>1</UseG_J>
#       <!-- Cell const and series R are applicable only for wide range sensors. -->
#       <SeriesR>0.0000</SeriesR>
#       <CellConst>2000.0000</CellConst>
#       <ConductivityType>0</ConductivityType>
#       <Coefficients equation="0" >
#         <A>0.00000000e+000</A>
#         <B>0.00000000e+000</B>
#         <C>0.00000000e+000</C>
#         <D>0.00000000e+000</D>
#         <M>0.0</M>
#         <CPcor>-9.57000000e-008</CPcor>
#       </Coefficients>
#       <Coefficients equation="1" >
#         <G>-1.00589325e+000</G>
#         <H>1.26816302e-001</H>
#         <I>-1.51560448e-004</I>
#         <J>2.67137274e-005</J>
#         <CPcor>-9.57000000e-008</CPcor>
#         <CTcor>3.2500e-006</CTcor>
#         <!-- WBOTC not applicable unless ConductivityType = 1. -->
#         <WBOTC>0.00000000e+000</WBOTC>
#       </Coefficients>
#       <Slope>1.00000000</Slope>
#       <Offset>0.00000</Offset>
#     </ConductivitySensor>
#   </sensor>
#   <sensor Channel="3" >
#     <!-- Count, Pressure, Strain Gauge -->
#     <PressureSensor SensorID="46" >
#       <SerialNumber>7809</SerialNumber>
#       <CalibrationDate>11-Mar-19</CalibrationDate>
#       <PA0>4.56561833e-002</PA0>
#       <PA1>4.85095118e-004</PA1>
#       <PA2>-2.88327090e-012</PA2>
#       <PTEMPA0>-5.48784562e+001</PTEMPA0>
#       <PTEMPA1>5.53756816e+001</PTEMPA1>
#       <PTEMPA2>-5.86727098e-001</PTEMPA2>
#       <PTCA0>5.25246745e+005</PTCA0>
#       <PTCA1>1.22304214e+001</PTCA1>
#       <PTCA2>-3.56745036e-001</PTCA2>
#       <PTCB0>2.51668750e+001</PTCB0>
#       <PTCB1>3.75000000e-004</PTCB1>
#       <PTCB2>0.00000000e+000</PTCB2>
#       <Offset>0.000000</Offset>
#     </PressureSensor>
#   </sensor>
#   <sensor Channel="4" >
#     <!-- A/D voltage 0, Oxygen, SBE 43 -->
#     <OxygenSensor SensorID="38" >
#       <SerialNumber>0434</SerialNumber>
#       <CalibrationDate>13-Apr-19</CalibrationDate>
#       <Use2007Equation>1</Use2007Equation>
#       <CalibrationCoefficients equation="0" >
#         <!-- Coefficients for Owens-Millard equation. -->
#         <Boc>0.0000</Boc>
#         <Soc>0.0000e+000</Soc>
#         <offset>0.0000</offset>
#         <Pcor>0.00e+000</Pcor>
#         <Tcor>0.0000</Tcor>
#         <Tau>0.0</Tau>
#       </CalibrationCoefficients>
#       <CalibrationCoefficients equation="1" >
#         <!-- Coefficients for Sea-Bird equation - SBE calibration in 2007 and later. -->
#         <Soc>4.2007e-001</Soc>
#         <offset>-0.6109</offset>
#         <A>-4.3656e-003</A>
#         <B> 1.7017e-004</B>
#         <C>-2.5341e-006</C>
#         <D0> 2.5826e+000</D0>
#         <D1> 1.92634e-004</D1>
#         <D2>-4.64803e-002</D2>
#         <E> 3.6000e-002</E>
#         <Tau20> 1.1800</Tau20>
#         <H1>-3.3000e-002</H1>
#         <H2> 5.0000e+003</H2>
#         <H3> 1.4500e+003</H3>
#       </CalibrationCoefficients>
#     </OxygenSensor>
#   </sensor>
#   <sensor Channel="5" >
#     <!-- A/D voltage 1, PAR/Logarithmic, Satlantic -->
#     <PARLog_SatlanticSensor SensorID="76" >
#       <SerialNumber>1122</SerialNumber>
#       <CalibrationDate>08-May-2019</CalibrationDate>
#       <a0>9.7456e-001</a0>
#       <a1>8.1640e-001</a1>
#       <Im>1.3589e+000</Im>
#       <Multiplier>1.0000e+000</Multiplier>
#     </PARLog_SatlanticSensor>
#   </sensor>
#   <sensor Channel="6" >
#     <!-- A/D voltage 2, pH -->
#     <pH_Sensor SensorID="43" >
#       <SerialNumber>0363</SerialNumber>
#       <CalibrationDate>15-Apr-19</CalibrationDate>
#       <Slope>4.5952</Slope>
#       <Offset>2.5370</Offset>
#     </pH_Sensor>
#   </sensor>
#   <sensor Channel="7" >
#     <!-- A/D voltage 3, Oxidation Reduction Potential -->
#     <OxidationReductionPotentialSensor SensorID="41" >
#       <SerialNumber>0363</SerialNumber>
#       <CalibrationDate>15-Apr-19</CalibrationDate>
#       <B>2.499480</B>
#       <M>-0.496195</M>
#       <Offset>0.0</Offset>
#     </OxidationReductionPotentialSensor>
#   </sensor>
#   <sensor Channel="8" >
#     <!-- A/D voltage 4, Fluorometer, WET Labs ECO-AFL/FL -->
#     <FluoroWetlabECO_AFL_FL_Sensor SensorID="20" >
#       <SerialNumber>FLNTURT-2496</SerialNumber>
#       <CalibrationDate>08-May-2019</CalibrationDate>
#       <ScaleFactor>5.00000000e+001</ScaleFactor>
#       <!-- Dark output -->
#       <Vblank>0.0550</Vblank>
#     </FluoroWetlabECO_AFL_FL_Sensor>
#   </sensor>
#   <sensor Channel="9" >
#     <!-- A/D voltage 5, Turbidity Meter, WET Labs, ECO-NTU -->
#     <TurbidityMeter SensorID="67" >
#       <SerialNumber>FLNTURT-2496</SerialNumber>
#       <CalibrationDate>08-May-2019</CalibrationDate>
#       <ScaleFactor>189.000000</ScaleFactor>
#       <!-- Dark output -->
#       <DarkVoltage>0.071000</DarkVoltage>
#     </TurbidityMeter>
#   </sensor>
# </Sensors>
# datcnv_date = Jun 17 2019 17:05:34, 7.26.7.129 [datcnv_vars = 15]
# datcnv_in = C:\DATA\061719_FCR_0004.hex C:\DATA\SBE19plusV2_7809.xmlcon
# datcnv_skipover = 0
# datcnv_ox_hysteresis_correction = yes
# datcnv_ox_tau_correction = yes
# filter_date = Jun 17 2019 17:06:38, 7.26.7.129
# filter_in = C:\DATA\061719_FCR_0004.cnv
# filter_low_pass_tc_A = 0.030
# filter_low_pass_tc_B = 0.150
# filter_low_pass_A_vars = prdM prdE tv290C density00
# filter_low_pass_B_vars = depFM dz/dtM sbeox0Mg/L sbeox0PS specc c0uS/cm flECO-AFL ph orp par/sat/log turbWETntu0
# alignctd_date = Jun 17 2019 17:07:04, 7.26.7.129
# alignctd_in = C:\DATA\061719_FCR_0004.cnv
# alignctd_adv = dz/dtM 1.000, sbeox0Mg/L 1.000, sbeox0PS 1.000, specc 1.000, c0uS/cm 1.000, flECO-AFL 1.000, ph 1.000, orp 1.000, turbWETntu0 1.000                                                                                 
# file_type = ascii
*END*
     -0.572 7.2580e-30     7.8173     95.519      0.703   0.710036    -0.0893      7.304 -1240.7455 1.5118e+02     0.2333     -0.561     -0.814    25.5257   996.9169 0.0000e+00
     -0.572 7.9838e-29     7.8177     95.521      0.709   0.716450    -0.0808      7.270 -1240.7455 1.6476e+02     0.2252     -0.561     -0.814    25.5246   996.9171 0.0000e+00
     -0.573 8.7822e-28     7.8182     95.526      0.675   0.682385    -0.0826      7.195 -1240.7455 1.8384e+02     0.2128     -0.562     -0.815    25.5230   996.9177 0.0000e+00
     -0.573 9.6604e-27     7.8191     95.536      0.671   0.678313    -0.0846      7.108 -1240.7455 1.9949e+02     0.2465     -0.562     -0.815    25.5219   996.9178 0.0000e+00
     -0.572 1.0626e-25     7.8200     95.546      0.660   0.667212    -0.0786      7.068 -1240.7455 2.0614e+02     0.2725     -0.561     -0.814    25.5208   996.9184 0.0000e+00
     -0.572 1.1689e-24     7.8200     95.546      0.354   0.358083    -0.0801      7.086 -1240.7455 2.0821e+02     0.2317     -0.561     -0.814    25.5198   996.9182 0.0000e+00
     -0.572 1.2858e-23     7.8202     95.544      0.170   0.171854    -0.0860      7.130 -1240.7455 2.0996e+02     0.1792     -0.562     -0.815    25.5187   996.9192 0.0000e+00
     -0.572 1.4144e-22     7.8208     95.542      0.250   0.252813    -0.0804      7.173 -1240.7455 2.1206e+02     0.0973     -0.561     -0.814    25.5176   996.9182 0.0000e+00
     -0.572 1.5558e-21     7.8218     95.540      0.383   0.386516    -0.0816      7.207 -1240.7455 2.0850e+02    -0.0702     -0.561     -0.814    25.5176   996.9204 0.0000e+00
     -0.572 1.7114e-20     7.8237     95.545      0.265   0.267701    -0.1002      7.256 -1240.7455 1.9142e+02    -0.2084     -0.562     -0.815    25.5186   996.9166 0.0000e+00
     -0.572 1.8825e-19     7.8264     95.558     -0.231  -0.233805    -0.1063      7.314 -1240.7455 1.7052e+02    -0.2625     -0.561     -0.814    25.5186   996.9126 0.0000e+00
     -0.572 2.0708e-18     7.8284     95.566      0.151   0.151661    -0.0944      7.318 -1240.7455 1.5962e+02    -0.2652     -0.561     -0.814    25.5139   996.9166 0.0000e+00
     -0.572 2.2779e-17     7.8294     95.564      0.866   0.873945    -0.0953      7.277 -1240.7455 1.5651e+02    -0.2736     -0.561     -0.814    25.5041   996.9170 0.0000e+00
     -0.572 2.5057e-16     7.8311     95.568      1.014   1.023377    -0.0997      7.231 -1240.7455 1.5628e+02    -0.2657     -0.562     -0.815    25.4927   996.9223 0.0000e+00
     -0.572 2.7562e-15     7.8334     95.578      1.062   1.071399    -0.0948      7.202 -1240.7455 1.5542e+02    -0.2024     -0.561     -0.814    25.4817   996.9223 0.0000e+00
     -0.572 3.0318e-14     7.8352     95.583      1.065   1.074404    -0.0887      7.214 -1240.7455 1.5128e+02    -0.1312     -0.561     -0.814    25.4715   996.9289 0.0000e+00
     -0.572 3.3350e-13     7.8368     95.587      1.051   1.059721    -0.0865      7.248 -1240.7455 1.4578e+02    -0.0601     -0.561     -0.814    25.4621   996.9348 0.0000e+00
     -0.572 3.6685e-12     7.8379     95.589      1.012   1.020588    -0.0948      7.271 -1240.7455 1.3899e+02    -0.0307     -0.561     -0.813    25.4522   996.9353 0.0000e+00
     -0.572 4.0354e-11     7.8388     95.590      0.973   0.981404    -0.0938      7.277 -1240.7455 1.3371e+02    -0.0059     -0.561     -0.813    25.4419   996.9393 0.0000e+00
     -0.572 4.4389e-10     7.8398     95.594      0.958   0.966105    -0.0827      7.271 -1240.7455 1.3674e+02    -0.0221     -0.561     -0.813    25.4323   996.9410 0.0000e+00
     -0.572 4.8828e-09     7.8402     95.591      0.954   0.962334    -0.0897      7.260 -1240.7452 1.5513e+02    -0.1608     -0.561     -0.813    25.4232   996.9438 0.0000e+00
     -0.572 5.3711e-08     7.8388     95.567      0.928   0.935809    -0.1009      7.227 -1240.7422 2.6634e+02    -0.2412     -0.561     -0.813    25.4158   996.9454 0.0000e+00
     -0.572 5.9082e-07     7.8374     95.545      0.892   0.898830    -0.0970      6.963 -1240.7097 5.8903e+02    -0.2075     -0.561     -0.813    25.4106   996.9470 0.0000e+00
     -0.572      0.000     7.8377     95.546      0.888   0.895387    -0.0945      6.589 -1240.3522 7.5707e+02    -0.2448     -0.561     -0.813    25.4063   996.9479 0.0000e+00
     -0.572      0.000     7.8380     95.548      0.888   0.894183    -0.0790      6.642 -1236.4195 4.8769e+02    -0.6268     -0.561     -0.813    25.4021   996.9491 0.0000e+00
     -0.572      0.001     7.8380     95.545      0.878   0.884263    -0.0404      7.017 -1193.1600 2.6047e+02    -1.2538     -0.561     -0.813    25.3984   996.9501 0.0000e+00
     -0.572      0.004     7.8427     95.551      0.896   0.902172    -0.0176      7.331  -717.3047 2.4589e+02    -1.5990     -0.562     -0.814    25.3953   996.9509 0.0000e+00
     -0.572      0.010     7.8595     95.573      1.234   1.237435    -0.0292      7.573    64.7465 2.4752e+02    -1.6223     -0.561     -0.814    25.3940   996.9513 0.0000e+00
     -0.572      0.022     7.8868     95.604      5.327   5.318050    -0.1202      7.833   347.5446 2.8310e+02    -1.3384     -0.562     -0.814    25.3929   996.9516 0.0000e+00
     -0.569      0.038     7.9141     95.629     14.985  14.935581    -0.2674      8.165   274.2140 3.4363e+02    -0.7879     -0.560     -0.812    25.3946   996.9511 0.0000e+00
     -0.559      0.058     7.9355     95.645     25.094  24.968245    -0.3350      8.520   263.5833 3.5546e+02    -0.4729     -0.549     -0.798    25.3943   996.9513 0.0000e+00
     -0.543      0.076     7.9513     95.658     31.264  31.057848    -0.3480      8.829   265.6425 3.5584e+02    -0.4130     -0.537     -0.779    25.2915   996.9777 0.0000e+00
     -0.517      0.090     7.9630     95.664     33.384  33.117949    -0.5724      9.070   271.4071 4.5733e+02    -0.0637     -0.511     -0.741    25.0823   997.0323 0.0000e+00
     -0.484      0.096     7.9726     95.662     33.564  33.252803    -0.9932      9.238   276.5829 7.0408e+02     0.5713     -0.473     -0.686    24.8980   997.0826 0.0000e+00
     -0.452      0.094     7.9821     95.659     33.552  33.195983    -1.2222      9.327   277.8898 8.6231e+02     1.0049     -0.442     -0.641    24.7596   997.1211 0.0000e+00
     -0.425      0.089     7.9930     95.663     33.532  33.128960    -1.2081      9.383   277.9155 7.2787e+02     2.1967     -0.415     -0.602    24.6639   997.1474 0.0000e+00
     -0.405      0.084     8.0043     95.661     33.531  33.076979    -0.8316      9.484   278.8740 5.4416e+02    14.8827     -0.393     -0.570    24.5956   997.1651 0.0000e+00
     -0.393      0.079     8.0137     95.643     33.515  33.011630    -0.1463      9.624   278.5518 4.5867e+02    38.1143     -0.385     -0.558    24.5290   997.1818 0.0000e+00
     -0.380      0.077     8.0221     95.630     33.519  32.973370     0.2279      9.749   279.0956 4.5713e+02    50.7983     -0.378     -0.548    24.4672   997.1974 0.0000e+00
     -0.360      0.078     8.0306     95.635     33.578  32.995081     0.2773      9.839   281.8352 8.0421e+02    51.8379     -0.354     -0.513    24.3971   997.2150 0.0000e+00
     -0.335      0.079     8.0396     95.654     33.638  33.020241     0.3036      9.905   283.8000 1.4524e+03    50.7494     -0.327     -0.474    24.3152   997.2357 0.0000e+00
     -0.310      0.075     8.0506     95.709     33.670  33.023687     0.4153      9.955   285.2140 1.8084e+03    38.2264     -0.304     -0.441    24.2389   997.2547 0.0000e+00
     -0.287      0.065     8.0641     95.809     33.707  33.036706     0.6218     10.000   286.7134 1.6177e+03    15.2899     -0.280     -0.405    24.1780   997.2700 0.0000e+00
     -0.269      0.050     8.0769     95.914     33.739  33.050699     0.7378     10.049   287.3880 1.0857e+03     2.7674     -0.259     -0.377    24.1243   997.2834 0.0000e+00
     -0.259      0.036     8.0861     95.989     33.768  33.065926     0.7601     10.092   287.1761 6.1517e+02     1.6517     -0.250     -0.363    24.0746   997.2958 0.0000e+00
     -0.257      0.028     8.0919     96.039     33.803  33.093875     0.7879     10.121   286.5609 5.4627e+02     1.5706     -0.249     -0.361    24.0308   997.3067 0.0000e+00
     -0.259      0.024     8.0979     96.114     33.844  33.134778     0.8046     10.133   286.4024 6.4365e+02     1.5571     -0.255     -0.370    23.9967   997.3150 0.0000e+00
     -0.259      0.024     8.1038     96.219     33.876  33.179710     0.8061     10.132   287.2381 5.7691e+02     1.5873     -0.258     -0.373    23.9733   997.3208 0.0000e+00
     -0.249      0.024     8.1059     96.320     33.861  33.192934     0.8142     10.132   288.6640 6.9073e+02     1.6406     -0.248     -0.359    23.9515   997.3262 0.0000e+00
     -0.234      0.022     8.1058     96.405     33.802  33.167785     0.8165     10.135   289.6190 1.2102e+03     1.7097     -0.230     -0.332    23.9412   997.3289 0.0000e+00
     -0.222      0.018     8.1048     96.459     33.738  33.129530     0.8072     10.133   289.8371 1.6698e+03     1.8004     -0.214     -0.310    23.9413   997.3289 0.0000e+00
     -0.217      0.013     8.1030     96.475     33.705  33.111191     0.8066     10.125   290.0959 1.8805e+03     1.8523     -0.211     -0.305    23.9541   997.3258 0.0000e+00
     -0.221      0.008     8.1010     96.465     33.725  33.136466     0.8088     10.113   290.4253 2.0170e+03     1.8781     -0.216     -0.313    24.0060   997.3130 0.0000e+00
     -0.227      0.003     8.0988     96.446     33.768  33.181284     0.8077     10.100   290.4637 2.1045e+03     1.9158     -0.224     -0.325    24.0625   997.2989 0.0000e+00
     -0.230      0.002     8.0952     96.426     33.787  33.208855     0.8107     10.088   290.5607 2.1277e+03     1.9147     -0.229     -0.332    24.0979   997.2902 0.0000e+00
     -0.226      0.004     8.0897     96.407     33.777  33.215989     0.8100     10.074   291.0819 2.1014e+03     1.8654     -0.223     -0.324    24.1178   997.2853 0.0000e+00
     -0.220      0.006     8.0845     96.392     33.747  33.204099     0.8075     10.053   291.9470 2.0489e+03     1.8441     -0.214     -0.311    24.1234   997.2839 0.0000e+00
     -0.216      0.006     8.0815     96.381     33.725  33.192047     0.8073     10.028   292.7606 2.0155e+03     1.8856     -0.210     -0.305    24.1207   997.2847 0.0000e+00
     -0.215      0.002     8.0800     96.368     33.729  33.197202     0.8073     10.010   293.0904 2.0124e+03     1.9420     -0.211     -0.304    24.1305   997.2822 0.0000e+00
     -0.215     -0.002     8.0799     96.354     33.740  33.202972     0.8076      9.999   293.0093 2.0091e+03     1.9358     -0.211     -0.306    24.1649   997.2736 0.0000e+00
     -0.217     -0.005     8.0793     96.321     33.745  33.198351     0.8027      9.992   292.8978 2.0035e+03     1.8760     -0.212     -0.309    24.1948   997.2661 0.0000e+00
     -0.221     -0.006     8.0758     96.249     33.762  33.204776     0.8079      9.985   293.0331 2.0068e+03     1.8410     -0.217     -0.315    24.2080   997.2629 0.0000e+00
     -0.225     -0.005     8.0716     96.170     33.786  33.217181     0.8180      9.977   293.4406 2.0255e+03     1.8407     -0.222     -0.322    24.2093   997.2625 0.0000e+00
     -0.227     -0.002     8.0696     96.119     33.801  33.221393     0.8130      9.967   293.7804 2.0560e+03     1.8402     -0.223     -0.324    24.2012   997.2645 0.0000e+00
     -0.225      0.000     8.0699     96.096     33.846  33.255690     0.7991      9.955   293.7864 2.0750e+03     1.8340     -0.221     -0.320    24.1857   997.2684 0.0000e+00
     -0.223      0.003     8.0712     96.079     33.919  33.314538     0.7886      9.944   293.4264 2.0764e+03     1.8312     -0.219     -0.317    24.1675   997.2730 0.0000e+00
     -0.221      0.006     8.0727     96.061     33.980  33.361745     0.7902      9.935   292.4394 2.0751e+03     1.8402     -0.216     -0.315    24.1515   997.2770 0.0000e+00
     -0.220      0.010     8.0771     96.079     34.014  33.382211     0.8016      9.926   290.9736 2.0824e+03     1.8444     -0.216     -0.314    24.1374   997.2805 0.0000e+00
     -0.219      0.015     8.0833     96.126     34.014  33.371590     0.8131      9.915   290.0719 2.0956e+03     1.8497     -0.217     -0.314    24.1231   997.2841 0.0000e+00
     -0.216      0.020     8.0883     96.167     34.009  33.360233     0.8172      9.900   289.8825 2.1065e+03     1.8710     -0.213     -0.309    24.1044   997.2888 0.0000e+00
     -0.211      0.025     8.0914     96.199     34.023  33.371807     0.8250      9.876   289.7174 2.1139e+03     1.8720     -0.207     -0.302    24.0832   997.2940 0.0000e+00
     -0.202      0.027     8.0916     96.206     34.034  33.384604     0.8461      9.851   289.7955 2.1145e+03     1.8624     -0.200     -0.289    24.0641   997.2988 0.0000e+00
     -0.191      0.024     8.0856     96.136     34.037  33.388036     0.8656      9.836   290.3106 2.1068e+03     1.8863     -0.186     -0.270    24.0473   997.3030 0.0000e+00
     -0.180      0.019     8.0583     95.802     34.067  33.413311     0.8692      9.828   290.9548 2.1003e+03     1.8983     -0.175     -0.254    24.0365   997.3057 0.0000e+00
     -0.175      0.011     7.9918     94.991     34.099  33.436345     0.8640      9.821   291.5617 2.1047e+03     1.8769     -0.169     -0.245    24.0351   997.3061 0.0000e+00
     -0.176      0.003     7.8998     93.871     34.085  33.412679     0.8626      9.816   291.9700 2.1182e+03     1.8565     -0.171     -0.248    24.0397   997.3049 0.0000e+00
     -0.181     -0.003     7.8283     92.996     34.063  33.381003     0.8612      9.813   292.2783 2.1299e+03     1.8484     -0.178     -0.258    24.0432   997.3040 0.0000e+00
     -0.185     -0.005     7.8116     92.776     34.061  33.370648     0.8652      9.808   292.6220 2.1352e+03     1.8440     -0.183     -0.264    24.0379   997.3052 0.0000e+00
     -0.187     -0.005     7.8401     93.094     34.049  33.350930     0.8756      9.801   292.9415 2.1381e+03     1.8366     -0.185     -0.268    24.0243   997.3087 0.0000e+00
     -0.187     -0.002     7.8773     93.516     34.039  33.332970     0.8736      9.792   293.2165 2.1398e+03     1.8568     -0.184     -0.267    24.0087   997.3126 0.0000e+00
     -0.186      0.002     7.8926     93.679     34.057  33.343865     0.8671      9.785   293.4518 2.1388e+03     1.8596     -0.182     -0.265    23.9928   997.3165 0.0000e+00
     -0.185      0.004     7.8734     93.436     34.075  33.355723     0.8667      9.776   293.8083 2.1334e+03     1.8371     -0.182     -0.264    23.9796   997.3197 0.0000e+00
     -0.184      0.004     7.8164     92.746     34.074  33.349415     0.8513      9.766   294.2566 2.1269e+03     1.8464     -0.180     -0.262    23.9694   997.3222 0.0000e+00
     -0.181      0.003     7.7184     91.569     34.061  33.331049     0.8207      9.755   294.3986 2.1235e+03     1.8409     -0.177     -0.257    23.9578   997.3251 0.0000e+00
     -0.180      0.002     7.5829     89.950     34.059  33.324042     0.8084      9.745   294.4921 2.1220e+03     1.8372     -0.175     -0.253    23.9464   997.3279 0.0000e+00
     -0.180      0.001     7.4244     88.062     34.066  33.328148     0.8153      9.736   294.7849 2.1220e+03     1.8662     -0.176     -0.254    23.9386   997.3298 0.0000e+00
     -0.182      0.000     7.2638     86.155     34.056  33.317234     0.8168      9.728   294.7557 2.1231e+03     1.8642     -0.179     -0.260    23.9316   997.3316 0.0000e+00
     -0.183     -0.000     7.1212     84.466     34.056  33.319004     0.8278      9.719   294.5685 2.1227e+03     1.8465     -0.180     -0.262    23.9224   997.3338 0.0000e+00
     -0.182      0.000     7.0051     83.094     34.085  33.349542     0.8611      9.711   294.6732 2.1213e+03     1.8487     -0.179     -0.260    23.9143   997.3357 0.0000e+00
     -0.182      0.001     6.9182     82.064     34.105  33.369157     0.8808      9.703   294.9029 2.1201e+03     1.8577     -0.178     -0.259    23.9092   997.3370 0.0000e+00
     -0.182      0.001     6.8697     81.486     34.103  33.365792     0.8758      9.698   295.1086 2.1186e+03     1.8902     -0.177     -0.258    23.9081   997.3373 0.0000e+00
     -0.182      0.000     6.8627     81.400     34.111  33.372314     0.8693      9.696   295.3533 2.1200e+03     1.9141     -0.178     -0.258    23.9114   997.3364 0.0000e+00
     -0.181     -0.001     6.8882     81.702     34.124  33.384551     0.8718      9.693   295.5389 2.1299e+03     1.8847     -0.177     -0.258    23.9155   997.3355 0.0000e+00
     -0.181     -0.001     6.9345     82.259     34.122  33.386817     0.8799      9.688   295.6322 2.1486e+03     1.8613     -0.177     -0.256    23.9160   997.3354 0.0000e+00
     -0.182     -0.001     6.9886     82.922     34.126  33.399722     0.8803      9.683   295.7925 2.1667e+03     1.8605     -0.178     -0.258    23.9136   997.3360 0.0000e+00
     -0.184      0.000     7.0388     83.538     34.131  33.413672     0.8683      9.676   295.7561 2.1750e+03     1.8435     -0.180     -0.263    23.9112   997.3366 0.0000e+00
     -0.184      0.001     7.0770     84.002     34.142  33.428568     0.8561      9.666   295.4510 2.1758e+03     1.8525     -0.181     -0.264    23.9088   997.3371 0.0000e+00
     -0.183      0.003     7.1003     84.277     34.167  33.452912     0.8550      9.657   295.3726 2.1742e+03     1.9026     -0.180     -0.261    23.9124   997.3362 0.0000e+00
     -0.181      0.006     7.1094     84.381     34.171  33.454170     0.8635      9.647   295.5824 2.1722e+03     1.8922     -0.177     -0.257    23.9295   997.3321 0.0000e+00
     -0.179      0.008     7.1080     84.361     34.161  33.443777     0.8719      9.633   295.7508 2.1685e+03     1.7591     -0.175     -0.254    23.9465   997.3279 0.0000e+00
     -0.177      0.008     7.1001     84.269     34.171  33.454172     0.8700      9.619   295.8599 2.1622e+03     1.6050     -0.174     -0.252    23.9515   997.3267 0.0000e+00
     -0.174      0.007     7.0847     84.092     34.167  33.452933     0.8661      9.608   296.0406 2.1580e+03     1.5694     -0.170     -0.248    23.9507   997.3269 0.0000e+00
     -0.172      0.004     7.0598     83.799     34.141  33.428799     0.8684      9.600   296.1295 2.1583e+03     1.6237     -0.167     -0.243    23.9465   997.3280 0.0000e+00
     -0.171      0.002     7.0301     83.443     34.130  33.416221     0.8715      9.592   295.9877 2.1612e+03     1.7040     -0.166     -0.241    23.9427   997.3289 0.0000e+00
     -0.171      0.001     7.0000     83.081     34.144  33.427768     0.8776      9.584   295.7890 2.1653e+03     1.7861     -0.167     -0.242    23.9446   997.3284 0.0000e+00
     -0.172      0.000     6.9676     82.697     34.158  33.441493     0.8818      9.576   295.7064 2.1688e+03     1.8303     -0.169     -0.245    23.9504   997.3270 0.0000e+00
     -0.174      0.000     6.9274     82.227     34.168  33.455243     0.8792      9.569   295.7629 2.1690e+03     1.8454     -0.170     -0.247    23.9528   997.3264 0.0000e+00
     -0.174      0.000     6.8766     81.632     34.176  33.467095     0.8719      9.563   295.8702 2.1678e+03     1.8375     -0.170     -0.247    23.9487   997.3274 0.0000e+00
     -0.173      0.001     6.8181     80.942     34.165  33.457874     0.8634      9.558   295.9708 2.1670e+03     1.7672     -0.169     -0.246    23.9430   997.3289 0.0000e+00
     -0.171      0.002     6.7588     80.236     34.180  33.470681     0.8632      9.553   296.1188 2.1658e+03     1.6503     -0.168     -0.243    23.9433   997.3287 0.0000e+00
     -0.170      0.002     6.7040     79.581     34.206  33.495016     0.8691      9.548   296.2838 2.1652e+03     1.6052     -0.166     -0.241    23.9509   997.3269 0.0000e+00
     -0.170      0.001     6.6513     78.954     34.211  33.498259     0.8739      9.542   296.4173 2.1655e+03     1.6154     -0.166     -0.241    23.9572   997.3254 0.0000e+00
     -0.170      0.000     6.5972     78.313     34.222  33.509893     0.8776      9.536   296.6998 2.1668e+03     1.6754     -0.166     -0.241    23.9597   997.3246 0.0000e+00
     -0.171 4.2995e-07     6.5452     77.699     34.219  33.508758     0.8788      9.530   297.1191 2.1686e+03     1.8057     -0.167     -0.243    23.9579   997.3251 0.0000e+00
     -0.171      0.000     6.4988     77.152     34.192  33.484529     0.8718      9.523   297.3565 2.1684e+03     1.8792     -0.168     -0.244    23.9532   997.3263 0.0000e+00
     -0.171      0.000     6.4559     76.645     34.177  33.470798     0.8627      9.518   297.4195 2.1658e+03     1.8768     -0.168     -0.244    23.9516   997.3267 0.0000e+00
     -0.170      0.001     6.4162     76.172     34.177  33.469663     0.8638      9.513   297.4504 2.1638e+03     1.8743     -0.167     -0.242    23.9536   997.3262 0.0000e+00
     -0.169      0.001     6.3800     75.741     34.179  33.470809     0.8678      9.508   297.4715 2.1641e+03     1.8825     -0.166     -0.240    23.9563   997.3255 0.0000e+00
     -0.169      0.001     6.3460     75.335     34.194  33.484645     0.8668      9.502   297.5885 2.1646e+03     1.8770     -0.166     -0.240    23.9588   997.3249 0.0000e+00
     -0.170      0.001     6.3142     74.957     34.220  33.510028     0.8699      9.497   297.8325 2.1642e+03     1.8737     -0.166     -0.241    23.9605   997.3245 0.0000e+00
     -0.170      0.001     6.2860     74.626     34.233  33.523866     0.8881      9.492   298.0133 2.1642e+03     1.8755     -0.166     -0.241    23.9601   997.3246 0.0000e+00
     -0.169      0.001     6.2590     74.312     34.230  33.525029     0.9131      9.488   297.8819 2.1621e+03     1.8649     -0.167     -0.242    23.9581   997.3251 0.0000e+00
     -0.168      0.002     6.2307     73.985     34.225  33.524103     0.9288      9.483   297.7067 2.1588e+03     1.8440     -0.165     -0.240    23.9559   997.3256 0.0000e+00
     -0.167      0.002     6.2003     73.631     34.210  33.512670     0.9307      9.479   297.7868 2.1591e+03     1.8202     -0.164     -0.238    23.9549   997.3259 0.0000e+00
     -0.167      0.002     6.1663     73.232     34.209  33.513729     0.9104      9.476   297.8179 2.1617e+03     1.8063     -0.164     -0.238    23.9577   997.3252 0.0000e+00
     -0.167      0.002     6.1301     72.806     34.230  33.536910     0.8829      9.472   297.6534 2.1626e+03     1.8401     -0.164     -0.238    23.9638   997.3237 0.0000e+00
     -0.167      0.002     6.0942     72.385     34.230  33.539104     0.8749      9.468   297.5183 2.1614e+03     1.9016     -0.163     -0.237    23.9702   997.3221 0.0000e+00
     -0.167      0.001     6.0596     71.978     34.228  33.540258     0.8757      9.463   297.5618 2.1597e+03     1.8939     -0.163     -0.237    23.9754   997.3208 0.0000e+00
     -0.166      0.001     6.0255     71.578     34.237  33.550869     0.8749      9.459   297.6627 2.1591e+03     1.8125     -0.163     -0.237    23.9793   997.3199 0.0000e+00
     -0.165      0.001     5.9902     71.164     34.223  33.540484     0.8733      9.454   297.7061 2.1604e+03     1.7696     -0.162     -0.235    23.9822   997.3192 0.0000e+00
     -0.165      0.000     5.9545     70.746     34.222  33.541621     0.8653      9.450   297.6556 2.1613e+03     1.8340     -0.161     -0.234    23.9854   997.3184 0.0000e+00
     -0.165 2.2029e-08     5.9204     70.345     34.242  33.564612     0.8648      9.446   297.5682 2.1602e+03     1.9020     -0.162     -0.235    23.9890   997.3175 0.0000e+00
     -0.166 2.4232e-07     5.8877     69.961     34.240  33.564621     0.8758      9.442   297.6820 2.1590e+03     1.9037     -0.163     -0.236    23.9927   997.3166 0.0000e+00
     -0.166 6.1487e-07     5.8561     69.589     34.215  33.541735     0.8775      9.439   297.9133 2.1595e+03     1.8885     -0.162     -0.235    23.9970   997.3155 0.0000e+00
     -0.166      0.000     5.8260     69.236     34.213  33.541745     0.8681      9.435   297.9553 2.1603e+03     1.8817     -0.163     -0.236    24.0011   997.3145 0.0000e+00
     -0.166      0.000     5.7970     68.896     34.234  33.564751     0.8666      9.431   297.8453 2.1607e+03     1.8864     -0.163     -0.236    24.0046   997.3137 0.0000e+00
     -0.166      0.001     5.7670     68.543     34.233  33.566052     0.8766      9.427   297.8745 2.1616e+03     1.8802     -0.163     -0.236    24.0075   997.3130 0.0000e+00
     -0.165      0.001     5.7373     68.195     34.222  33.557479     0.8755      9.423   298.0496 2.1622e+03     1.8066     -0.162     -0.235    24.0104   997.3122 0.0000e+00
     -0.165      0.001     5.7107     67.881     34.251  33.588023     0.8625      9.419   298.0698 2.1603e+03     1.6842     -0.162     -0.235    24.0137   997.3114 0.0000e+00
     -0.165      0.001     5.6857     67.588     34.279  33.618047     0.8570      9.416   297.9463 2.1565e+03     1.6140     -0.162     -0.234    24.0169   997.3107 0.0000e+00
     -0.165      0.001     5.6615     67.304     34.262  33.603184     0.8618      9.413   298.0198 2.1537e+03     1.6128     -0.161     -0.234    24.0206   997.3097 0.0000e+00
     -0.165      0.001     5.6369     67.017     34.256  33.598710     0.8683      9.408   298.2702 2.1533e+03     1.6696     -0.162     -0.234    24.0239   997.3089 0.0000e+00
     -0.165      0.001     5.6118     66.722     34.282  33.627423     0.8667      9.404   298.3067 2.1516e+03     1.7436     -0.162     -0.234    24.0266   997.3082 0.0000e+00
     -0.164      0.002     5.5876     66.439     34.286  33.633038     0.8678      9.400   298.0313 2.1452e+03     1.7862     -0.161     -0.234    24.0291   997.3076 0.0000e+00
     -0.163      0.003     5.5652     66.176     34.253  33.603137     0.8818      9.397   297.7792 2.1397e+03     1.8246     -0.160     -0.232    24.0322   997.3069 0.0000e+00
     -0.163      0.003     5.5441     65.928     34.231  33.583214     0.8978      9.395   297.8402 2.1401e+03     1.8469     -0.160     -0.232    24.0358   997.3060 0.0000e+00
     -0.162      0.002     5.5242     65.693     34.229  33.582538     0.9126      9.393   298.0799 2.1434e+03     1.8598     -0.159     -0.231    24.0392   997.3052 0.0000e+00
     -0.160      0.002     5.5061     65.482     34.240  33.594960     0.9229      9.390   298.1829 2.1463e+03     1.8832     -0.157     -0.228    24.0426   997.3043 0.0000e+00
     -0.160      0.001     5.4882     65.273     34.250  33.606483     0.9269      9.387   297.8807 2.1456e+03     1.9002     -0.157     -0.227    24.0456   997.3036 0.0000e+00
     -0.160      0.001     5.4700     65.061     34.235  33.594942     0.9264      9.385   297.0931 2.1433e+03     1.9007     -0.157     -0.228    24.0477   997.3031 0.0000e+00
     -0.161      0.002     5.4537     64.871     34.220  33.582354     0.9072      9.383   296.2311 2.1446e+03     1.8892     -0.158     -0.230    24.0493   997.3026 0.0000e+00
     -0.161      0.003     5.4390     64.699     34.217  33.581209     0.8773      9.381   295.3742 2.1498e+03     1.8925     -0.158     -0.230    24.0526   997.3019 0.0000e+00
     -0.160      0.006     5.4244     64.527     34.215  33.581094     0.8686      9.379   294.0457 2.1551e+03     1.8754     -0.157     -0.228    24.0566   997.3009 0.0000e+00
     -0.158      0.010     5.4102     64.362     34.213  33.580968     0.8804      9.379   292.4724 2.1328e+03     1.8457     -0.154     -0.225    24.0597   997.3001 0.0000e+00
     -0.155      0.015     5.3977     64.215     34.211  33.579685     0.9158      9.382   291.2361 1.8649e+03     1.8613     -0.152     -0.221    24.0627   997.2994 0.0000e+00
     -0.151      0.020     5.3859     64.075     34.196  33.565586     0.9675      9.386   290.3689 1.4647e+03     1.8670     -0.150     -0.216    24.0655   997.2987 0.0000e+00
     -0.146      0.023     5.3731     63.919     34.169  33.537428     0.9930      9.390   289.7300 1.1502e+03     1.8491     -0.144     -0.209    24.0683   997.2980 0.0000e+00
     -0.138      0.023     5.3626     63.787     34.129  33.493076     0.9988      9.385   289.4482 1.1197e+03     1.8417     -0.136     -0.196    24.0702   997.2976 0.0000e+00
     -0.128      0.021     5.3585     63.722     34.054  33.410095     0.9861      9.371   289.3709 1.6283e+03     1.8432     -0.126     -0.182    24.0724   997.2971 0.0000e+00
     -0.121      0.017     5.3622     63.743     33.951  33.295648     0.9518      9.362   289.0539 2.0227e+03     1.8347     -0.117     -0.169    24.0741   997.2967 0.0000e+00
     -0.118      0.015     5.3891     64.037     33.856  33.188135     0.9391      9.364   288.4544 1.8578e+03     1.8041     -0.113     -0.164    24.0706   997.2976 0.0000e+00
     -0.119      0.018     5.4559     64.808     33.805  33.125535     0.9458      9.366   287.5434 1.3506e+03     1.8011     -0.116     -0.169    24.0642   997.2991 0.0000e+00
     -0.121      0.026     5.5615     66.039     33.801  33.109895     0.9460      9.364   283.6309 8.5765e+02     1.8310     -0.119     -0.173    24.0526   997.3020 0.0000e+00
     -0.118      0.036     5.7065     67.733     33.833  33.125942     0.9411      9.359   276.8559 8.4346e+02     1.8384     -0.120     -0.174    24.0303   997.3075 0.0000e+00
     -0.105      0.047     5.9019     70.021     33.852  33.129147     0.9303      9.352   272.8242 1.2120e+03     1.8246     -0.107     -0.155    24.0065   997.3133 0.0000e+00
     -0.084      0.058     6.1482     72.916     33.821  33.085164     0.9195      9.345   271.8802 1.5229e+03     1.8278     -0.083     -0.120    23.9893   997.3176 0.0000e+00
     -0.063      0.068     6.4252     76.180     33.784  33.038362     0.9058      9.337   271.2928 1.6147e+03     1.8445     -0.061     -0.088    23.9732   997.3216 0.0000e+00
     -0.046      0.073     6.7023     79.442     33.764  33.007476     0.8862      9.325   270.8836 1.5258e+03     1.8629     -0.044     -0.065    23.9498   997.3276 0.0000e+00
     -0.030      0.074     6.9514     82.353     33.739  32.965554     0.8736      9.313   270.4607 1.1658e+03     1.8534     -0.030     -0.045    23.9239   997.3341 0.0000e+00
     -0.011      0.073     7.1504     84.624     33.722  32.912228     0.8660      9.300   270.3097 6.2993e+02     1.8285     -0.013     -0.018    23.9048   997.3387 0.0000e+00
      0.009      0.070     7.2947     86.207     33.732  32.870351     0.8635      9.285   272.9302 2.8926e+02     1.8238      0.010      0.015    23.8911   997.3422 0.0000e+00
      0.029      0.064     7.4106     87.448     33.756  32.839905     0.8695      9.278   279.8601 1.9432e+02     1.8298      0.030      0.042    23.8767   997.3459 0.0000e+00
      0.047      0.054     7.5273     88.707     33.762  32.797879     0.8770      9.278   286.4726 1.6232e+02     1.8343      0.045      0.065    23.8594   997.3503 0.0000e+00
      0.064      0.043     7.6461     89.992     33.752  32.742907     0.8768      9.280   288.6093 1.3946e+02     1.8130      0.066      0.095    23.8056   997.3634 0.0000e+00
      0.074      0.034     7.7558     91.172     33.735  32.682865     0.8753      9.280   288.3152 1.2479e+02     1.8016      0.079      0.113    23.7133   997.3860 0.0000e+00
      0.074      0.029     7.8451     92.119     33.736  32.642991     0.8948      9.280   287.9923 1.1888e+02     1.7631      0.074      0.107    23.6357   997.4049 0.0000e+00
      0.072      0.028     7.8991     92.672     33.701  32.578035     0.9213      9.279   287.9750 1.1555e+02     1.6743      0.068      0.099    23.5668   997.4216 0.0000e+00
      0.075      0.027     7.9145     92.784     33.550  32.405117     0.9272      9.275   287.7615 1.1011e+02     1.6453      0.072      0.103    23.4976   997.4384 0.0000e+00
      0.087      0.027     7.9229     92.766     33.450  32.265620     0.9224      9.269   284.6370 1.0281e+02     1.6419      0.083      0.119    23.4345   997.4536 0.0000e+00
      0.105      0.025     7.9850     93.333     33.470  32.223974     0.9236      9.260   281.7725 9.6199e+01     1.6662      0.106      0.152    23.3705   997.4691 0.0000e+00
      0.117      0.018     8.1425     95.036     33.518  32.218775     0.9333      9.250   284.5316 9.2565e+01     1.7759      0.120      0.174    23.3201   997.4813 0.0000e+00
      0.119      0.008     8.3825     97.752     33.599  32.266147     0.9348      9.240   287.5395 8.8527e+01     1.8539      0.117      0.170    23.3023   997.4856 0.0000e+00
      0.115     -0.003     8.6621    100.987     33.567  32.225567     0.9253      9.230   287.8545 8.6047e+01     1.8544      0.114      0.165    23.2393   997.5005 0.0000e+00
      0.109     -0.011     8.9550    104.376     33.454  32.108870     0.9134      9.219   287.9970 8.8457e+01     1.7825      0.108      0.158    23.1206   997.5289 0.0000e+00
      0.100     -0.014     9.2358    107.552     33.437  32.060885     0.8952      9.208   288.0571 9.2619e+01     1.6728      0.098      0.143    23.0493   997.5458 0.0000e+00
      0.093     -0.011     9.4596    110.057     33.435  32.026093     0.8878      9.197   288.1514 9.4774e+01     1.6428      0.089      0.130    22.9945   997.5588 0.0000e+00
      0.092     -0.006     9.6015    111.655     33.431  32.005440     0.8853      9.187   288.3630 9.3181e+01     1.6481      0.090      0.130    22.9919   997.5593 0.0000e+00
      0.095     -0.001     9.6613    112.306     33.441  32.001519     0.8816      9.178   288.5507 9.0580e+01     1.6712      0.093      0.135    23.0105   997.5549 0.0000e+00
      0.098      0.003     9.6514    112.134     33.436  31.978669     0.9041      9.170   288.6132 8.8993e+01     1.7587      0.096      0.140    22.9337   997.5731 0.0000e+00
      0.100      0.005     9.5983    111.469     33.457  31.982967     0.9397      9.162   288.6032 8.7151e+01     1.8217      0.099      0.143    22.8729   997.5874 0.0000e+00
      0.102      0.004     9.5281    110.645     33.467  31.990003     0.9567      9.154   288.5162 8.6095e+01     1.8426      0.100      0.145    22.8654   997.5892 0.0000e+00
      0.102      0.002     9.4624    109.907     33.469  32.000283     0.9536      9.148   288.4207 8.6154e+01     1.8477      0.101      0.147    22.8456   997.5939 0.0000e+00
      0.102     -0.001     9.4135    109.363     33.506  32.043814     0.9720      9.143   288.4807 8.6831e+01     1.7843      0.099      0.143    22.8155   997.6010 0.0000e+00
      0.102     -0.003     9.3767    108.952     33.531  32.072136     1.0221      9.139   288.5537 8.8981e+01     1.6997      0.099      0.143    22.7833   997.6085 0.0000e+00
      0.102     -0.003     9.3420    108.568     33.541  32.088896     1.0488      9.134   288.6154 9.1571e+01     1.6772      0.101      0.146    22.7814   997.6090 0.0000e+00
      0.100     -0.001     9.3067    108.195     33.560  32.119556     1.0438      9.129   288.7107 9.2992e+01     1.6757      0.099      0.143    22.8034   997.6038 0.0000e+00
      0.096      0.002     9.2764    107.896     33.549  32.125561     1.0131      9.124   288.6732 9.2301e+01     1.7137      0.093      0.136    22.8138   997.6013 0.0000e+00
      0.095      0.004     9.2579    107.726     33.505  32.098080     0.9637      9.118   288.6784 9.0430e+01     1.8091      0.091      0.133    22.8194   997.6001 0.0000e+00
      0.099      0.006     9.2516    107.674     33.504  32.104595     0.9411      9.113   288.8598 8.8954e+01     1.8785      0.096      0.139    22.8260   997.5984 0.0000e+00
      0.104      0.008     9.2530    107.702     33.538  32.140881     0.9381      9.108   289.0593 8.7976e+01     1.8970      0.103      0.149    22.8427   997.5946 0.0000e+00
      0.108      0.010     9.2580    107.768     33.551  32.156068     0.9285      9.103   289.3700 8.7046e+01     1.8035      0.107      0.155    22.8761   997.5868 0.0000e+00
      0.110      0.010     9.2647    107.846     33.556  32.161304     0.9203      9.097   289.7780 8.5647e+01     1.6334      0.107      0.156    22.9006   997.5809 0.0000e+00
      0.110      0.007     9.2744    107.944     33.540  32.140733     0.9248      9.092   289.9476 8.4727e+01     1.5775      0.107      0.156    22.9075   997.5793 0.0000e+00
      0.112      0.001     9.2853    108.045     33.504  32.097713     0.9403      9.087   289.7858 8.5181e+01     1.6190      0.108      0.158    22.9105   997.5786 0.0000e+00
      0.115     -0.004     9.2906    108.073     33.503  32.085343     0.9600      9.083   289.5425 8.6278e+01     1.6108      0.113      0.165    22.9172   997.5771 0.0000e+00
      0.117     -0.009     9.2867    108.003     33.479  32.054618     0.9812      9.079   289.4142 8.8579e+01     1.5768      0.117      0.170    22.9188   997.5767 0.0000e+00
      0.112     -0.012     9.2782    107.891     33.405  31.980041     0.9963      9.075   289.4394 9.2785e+01     1.6010      0.112      0.162    22.9085   997.5792 0.0000e+00
      0.103     -0.012     9.2728    107.777     33.386  31.945128     1.0045      9.070   289.6754 9.6637e+01     1.6412      0.100      0.145    22.8978   997.5816 0.0000e+00
      0.095     -0.011     9.2682    107.636     33.421  31.949755     1.0025      9.064   290.0309 9.7775e+01     1.7024      0.090      0.131    22.8776   997.5863 0.0000e+00
      0.092     -0.007     9.2571    107.454     33.463  31.972482     0.9981      9.058   290.2963 9.6099e+01     1.7840      0.088      0.128    22.8598   997.5905 0.0000e+00
      0.094     -0.002     9.2434    107.296     33.523  32.029525     1.0033      9.052   290.4748 9.3447e+01     1.8093      0.092      0.133    22.8709   997.5879 0.0000e+00
      0.098      0.003     9.2349    107.225     33.553  32.068332     1.0047      9.046   290.6411 9.2620e+01     1.8108      0.096      0.140    22.8477   997.5933 0.0000e+00
      0.101      0.005     9.2331    107.249     33.530  32.060964     0.9980      9.040   290.8440 9.3449e+01     1.8027      0.099      0.144    22.7813   997.6089 0.0000e+00
      0.101      0.005     9.2343    107.318     33.518  32.067376     0.9913      9.034   291.0353 9.4195e+01     1.7435      0.100      0.145    22.7566   997.6148 0.0000e+00
      0.101      0.004     9.2354    107.390     33.513  32.082422     0.9843      9.028   291.1477 9.4420e+01     1.6530      0.099      0.144    22.7640   997.6131 0.0000e+00
      0.102      0.002     9.2380    107.464     33.467  32.052537     0.9819      9.022   291.3425 9.3659e+01     1.5930      0.100      0.145    22.7778   997.6099 0.0000e+00
      0.103      0.001     9.2431    107.533     33.434  32.023360     0.9892      9.017   291.5836 9.2431e+01     1.5749      0.101      0.147    22.8020   997.6041 0.0000e+00
      0.104      0.001     9.2502    107.592     33.466  32.046935     0.9942      9.012   291.7400 9.1180e+01     1.6303      0.102      0.148    22.8288   997.5978 0.0000e+00
      0.104      0.001     9.2620    107.681     33.521  32.083733     0.9900      9.009   291.8564 8.9886e+01     1.7718      0.102      0.148    22.8617   997.5901 0.0000e+00
      0.104      0.001     9.2791    107.821     33.545  32.087508     0.9824      9.004   291.8725 8.9889e+01     1.8770      0.101      0.147    22.8890   997.5837 0.0000e+00
      0.104      0.001     9.2947    107.957     33.499  32.029094     0.9803      8.999   291.8483 9.1045e+01     1.8861      0.101      0.146    22.8906   997.5832 0.0000e+00
      0.105      0.001     9.3024    108.022     33.424  31.948559     0.9999      8.994   291.8221 9.1026e+01     1.8487      0.103      0.148    22.8778   997.5863 0.0000e+00
      0.105      0.000     9.3017    107.994     33.420  31.938711     1.0283      8.990   291.8135 9.0274e+01     1.8189      0.103      0.150    22.8546   997.5917 0.0000e+00
      0.105      0.000     9.2946    107.892     33.464  31.973475     1.0383      8.986   291.9161 9.0821e+01     1.8208      0.104      0.151    22.8170   997.6006 0.0000e+00
      0.105     -0.001     9.2840    107.766     33.480  31.988122     1.0424      8.982   292.1174 9.1163e+01     1.8380      0.103      0.149    22.7949   997.6059 0.0000e+00
      0.104     -0.001     9.2738    107.665     33.474  31.988896     1.0509      8.977   292.3539 8.9836e+01     1.7648      0.101      0.147    22.7873   997.6076 0.0000e+00
      0.103     -0.001     9.2686    107.617     33.464  31.982838     1.0550      8.972   292.5386 8.9072e+01     1.6237      0.101      0.147    22.7794   997.6094 0.0000e+00
      0.103     -0.001     9.2690    107.613     33.462  31.978339     1.0570      8.967   292.7159 9.0347e+01     1.5752      0.101      0.146    22.7656   997.6126 0.0000e+00
      0.104     -0.001     9.2720    107.632     33.488  31.997956     1.0583      8.962   292.8628 9.1950e+01     1.5706      0.102      0.148    22.7596   997.6141 0.0000e+00
      0.104      0.000     9.2743    107.661     33.520  32.029637     1.0703      8.958   292.9379 9.2219e+01     1.5681      0.103      0.150    22.7777   997.6098 0.0000e+00
      0.103 1.8602e-08     9.2745    107.694     33.525  32.044106     1.0970      8.954   293.0212 9.1174e+01     1.5771      0.102      0.148    22.7867   997.6078 0.0000e+00
      0.102 2.0462e-07     9.2744    107.734     33.513  32.045988     1.1126      8.951   293.1819 8.9223e+01     1.5487      0.100      0.146    22.7784   997.6097 0.0000e+00
      0.102      0.000     9.2754    107.769     33.512  32.052420     1.1120      8.947   293.3321 8.7673e+01     1.5194      0.100      0.145    22.7668   997.6124 0.0000e+00
      0.103      0.000     9.2792    107.813     33.518  32.058428     1.0990      8.942   293.3750 8.7969e+01     1.5837      0.101      0.147    22.7639   997.6131 0.0000e+00
      0.104      0.001     9.2874    107.904     33.516  32.055168     1.0769      8.938   293.4417 8.9049e+01     1.7364      0.102      0.148    22.7842   997.6083 0.0000e+00
      0.104      0.001     9.2970    108.024     33.536  32.076465     1.0615      8.936   293.6231 8.9114e+01     1.8254      0.102      0.149    22.8095   997.6023 0.0000e+00
      0.104      0.001     9.3036    108.119     33.581  32.125556     1.0516      8.933   293.7606 8.8617e+01     1.8083      0.102      0.149    22.8224   997.5993 0.0000e+00
      0.104      0.000     9.3079    108.192     33.590  32.141066     1.0437      8.929   293.7283 8.9131e+01     1.7913      0.102      0.148    22.8179   997.6004 0.0000e+00
      0.104      0.000     9.3121    108.267     33.576  32.137083     1.0179      8.925   293.6629 8.9766e+01     1.8166      0.101      0.147    22.8105   997.6022 0.0000e+00
      0.104      0.001     9.3139    108.305     33.574  32.140875     0.9735      8.922   293.6583 8.9905e+01     1.8522      0.102      0.148    22.8182   997.6004 0.0000e+00
      0.104      0.002     9.3113    108.265     33.559  32.123463     0.9492      8.918   293.7578 9.0040e+01     1.8610      0.102      0.149    22.8279   997.5981 0.0000e+00
      0.105      0.002     9.3041    108.157     33.561  32.116926     0.9411      8.914   293.9202 8.9766e+01     1.8244      0.103      0.150    22.8371   997.5960 0.0000e+00
      0.105      0.001     9.2921    107.995     33.577  32.125285     0.9537      8.912   293.9012 8.9760e+01     1.8031      0.103      0.150    22.8528   997.5922 0.0000e+00
      0.106      0.001     9.2773    107.806     33.554  32.097603     0.9895      8.911   293.6997 8.9586e+01     1.8336      0.104      0.151    22.8661   997.5890 0.0000e+00
      0.107      0.002     9.2653    107.649     33.496  32.036049     1.0000      8.909   293.5493 8.9441e+01     1.8655      0.106      0.153    22.8590   997.5908 0.0000e+00
      0.106      0.003     9.2625    107.574     33.423  31.952157     0.9855      8.909   293.5452 8.9698e+01     1.8603      0.105      0.152    22.8413   997.5949 0.0000e+00
      0.106      0.004     9.2702    107.572     33.408  31.908211     0.9526      8.906   293.5646 9.0484e+01     1.8364      0.103      0.149    22.8326   997.5970 0.0000e+00
      0.106      0.002     9.2818    107.607     33.485  31.948858     0.8968      8.900   293.5258 9.2088e+01     1.8392      0.103      0.149    22.8232   997.5992 0.0000e+00
      0.110     -0.001     9.2896    107.664     33.549  31.999359     0.8659      8.895   293.3341 9.2763e+01     1.8608      0.108      0.156    22.8191   997.6002 0.0000e+00
      0.113     -0.003     9.2939    107.757     33.546  32.011139     0.8655      8.892   292.9674 9.2258e+01     1.8680      0.114      0.165    22.8073   997.6029 0.0000e+00
      0.112     -0.002     9.2989    107.878     33.475  31.964400     0.8659      8.888   292.5336 9.1834e+01     1.8605      0.113      0.163    22.7541   997.6154 0.0000e+00
      0.104      0.000     9.3087    108.007     33.380  31.878486     0.8621      8.878   289.9812 9.2119e+01     1.8685      0.103      0.149    22.6854   997.6315 0.0000e+00
      0.098      0.005     9.3231    108.118     33.315  31.797316     0.8627      8.866   285.1661 9.1820e+01     1.8995      0.093      0.135    22.6701   997.6351 0.0000e+00
      0.100      0.013     9.3314    108.123     33.290  31.744438     0.8643      8.856   281.9797 8.9110e+01     1.9075      0.094      0.138    22.7036   997.6272 0.0000e+00
      0.109      0.024     9.3283    107.993     33.325  31.746755     0.8558      8.846   280.7950 8.5224e+01     1.8672      0.107      0.156    22.7468   997.6171 0.0000e+00
      0.119      0.036     9.3201    107.805     33.372  31.761835     0.8981      8.834   280.0478 8.3758e+01     1.8382      0.117      0.171    22.7613   997.6138 0.0000e+00
      0.129      0.045     9.3101    107.606     33.373  31.736351     0.9942      8.821   279.6563 8.3927e+01     1.8517      0.124      0.181    22.7215   997.6231 0.0000e+00
      0.141      0.049     9.2984    107.405     33.349  31.692417     1.0475      8.809   279.3311 8.1287e+01     1.8664      0.138      0.200    22.6724   997.6346 0.0000e+00
      0.157      0.049     9.2870    107.235     33.344  31.674812     1.0562      8.799   279.0414 7.6895e+01     1.8522      0.154      0.224    22.6281   997.6450 0.0000e+00
      0.172      0.048     9.2804    107.158     33.319  31.650379     1.0996      8.790   278.7343 7.4673e+01     1.8116      0.170      0.246    22.5791   997.6565 0.0000e+00
      0.185      0.045     9.2866    107.236     33.250  31.587375     1.1821      8.780   278.3717 7.4153e+01     1.8014      0.185      0.267    22.5397   997.6658 0.0000e+00
      0.195      0.040     9.3078    107.462     33.214  31.547610     1.2303      8.768   278.2703 7.4213e+01     1.8269      0.192      0.278    22.5064   997.6735 0.0000e+00
      0.204      0.034     9.3353    107.750     33.228  31.550321     1.2408      8.756   278.1966 7.5918e+01     1.8579      0.199      0.288    22.4812   997.6793 0.0000e+00
      0.213      0.029     9.3598    108.011     33.242  31.556683     1.2573      8.750   277.7384 7.8108e+01     1.9136      0.209      0.304    22.4886   997.6777 0.0000e+00
      0.219      0.027     9.3762    108.184     33.252  31.561058     1.2823      8.749   277.2034 7.9409e+01     1.9769      0.216      0.313    22.5013   997.6747 0.0000e+00
      0.223      0.030     9.3804    108.215     33.235  31.539758     1.3002      8.748   276.8918 8.0578e+01     2.0333      0.219      0.317    22.4865   997.6782 0.0000e+00
      0.228      0.037     9.3696    108.073     33.188  31.489505     1.3082      8.741   276.7236 8.2300e+01     2.0707      0.223      0.324    22.4671   997.6827 0.0000e+00
      0.234      0.045     9.3457    107.781     33.164  31.461097     1.3530      8.731   276.6321 8.6000e+01     2.0680      0.228      0.332    22.4588   997.6846 0.0000e+00
      0.245      0.052     9.3151    107.408     33.159  31.450099     1.4342      8.726   276.5603 9.1299e+01     2.0663      0.235      0.342    22.4535   997.6859 0.0000e+00
      0.265      0.057     9.2824    107.010     33.134  31.419971     1.4761      8.726   276.5436 9.7725e+01     2.0507      0.259      0.375    22.4434   997.6883 0.0000e+00
      0.289      0.059     9.2502    106.621     33.134  31.414096     1.4866      8.727   276.6883 1.0490e+02     2.0107      0.287      0.417    22.4345   997.6905 0.0000e+00
      0.305      0.057     9.2208    106.268     33.169  31.442523     1.5003      8.728   276.9335 1.1170e+02     2.0078      0.301      0.437    22.4283   997.6920 0.0000e+00
      0.316      0.052     9.1956    105.968     33.177  31.446390     1.4946      8.727   277.1857 1.1995e+02     2.0159      0.310      0.450    22.4181   997.6944 0.0000e+00
      0.327      0.043     9.1760    105.740     33.193  31.460840     1.4774      8.723   277.3282 1.2831e+02     2.0100      0.321      0.465    22.4060   997.6973 0.0000e+00
      0.337      0.034     9.1627    105.592     33.222  31.490326     1.4753      8.719   277.2796 1.3602e+02     2.0350      0.331      0.481    22.3984   997.6990 0.0000e+00
      0.347      0.026     9.1546    105.504     33.215  31.485626     1.4688      8.717   277.2001 1.4606e+02     2.0886      0.341      0.494    22.3912   997.7007 0.0000e+00
      0.353      0.020     9.1523    105.482     33.195  31.467472     1.4420      8.717   277.1409 1.5846e+02     2.1012      0.346      0.502    22.3843   997.7023 0.0000e+00
      0.356      0.018     9.1570    105.535     33.189  31.461199     1.4197      8.717   276.9944 1.7326e+02     2.0572      0.350      0.508    22.3848   997.7022 0.0000e+00
      0.357      0.023     9.1678    105.651     33.204  31.473229     1.4250      8.712   276.8922 1.9038e+02     2.0155      0.350      0.508    22.3882   997.7014 0.0000e+00
      0.356      0.033     9.1832    105.813     33.223  31.486005     1.4453      8.703   276.8516 2.1228e+02     2.0222      0.348      0.505    22.3913   997.7008 0.0000e+00
      0.359      0.046     9.2007    105.999     33.231  31.488756     1.4568      8.695   276.7612 2.4273e+02     2.0405      0.347      0.503    22.3941   997.7002 0.0000e+00
      0.374      0.059     9.2167    106.178     33.251  31.506480     1.4697      8.689   276.7461 2.9190e+02     2.0399      0.361      0.523    22.3935   997.7003 0.0000e+00
      0.401      0.069     9.2308    106.337     33.256  31.509939     1.4789      8.683   276.9263 3.7605e+02     2.0470      0.396      0.574    22.3902   997.7013 0.0000e+00
      0.428      0.074     9.2441    106.475     33.216  31.467119     1.4816      8.679   277.1336 4.9542e+02     2.0616      0.422      0.612    22.3810   997.7035 0.0000e+00
      0.449      0.074     9.2550    106.580     33.187  31.432933     1.5195      8.677   277.2746 6.0695e+02     2.0856      0.440      0.639    22.3702   997.7060 0.0000e+00
      0.466      0.070     9.2642    106.667     33.174  31.413867     1.5825      8.673   277.5126 6.4620e+02     2.0751      0.459      0.665    22.3702   997.7062 0.0000e+00
      0.478      0.066     9.2745    106.768     33.127  31.363498     1.6097      8.668   277.7741 6.4075e+02     2.0319      0.469      0.680    22.3721   997.7058 0.0000e+00
      0.489      0.062     9.2840    106.860     33.099  31.331578     1.6058      8.662   277.9407 5.9060e+02     2.0220      0.476      0.692    22.3626   997.7080 0.0000e+00
      0.506      0.059     9.2904    106.918     33.118  31.345183     1.6134      8.657   277.9778 5.0665e+02     2.0544      0.494      0.716    22.3500   997.7109 0.0000e+00
      0.526      0.056     9.2938    106.948     33.113  31.337619     1.6228      8.656   277.9643 4.9474e+02     2.0961      0.518      0.751    22.3420   997.7129 0.0000e+00
      0.544      0.054     9.2908    106.913     33.078  31.303580     1.6160      8.656   278.1228 5.4409e+02     2.0997      0.536      0.777    22.3343   997.7148 0.0000e+00
      0.555      0.053     9.2799    106.793     33.021  31.250896     1.6090      8.655   278.3456 6.5681e+02     2.0979      0.547      0.792    22.3247   997.7170 0.0000e+00
      0.563      0.051     9.2648    106.626     32.906  31.144823     1.6084      8.653   278.5061 7.7589e+02     2.1073      0.552      0.801    22.3160   997.7190 0.0000e+00
      0.572      0.049     9.2469    106.419     32.792  31.036351     1.6076      8.649   278.6870 7.4694e+02     2.0818      0.559      0.811    22.3117   997.7201 0.0000e+00
      0.586      0.048     9.2269    106.172     32.778  31.018101     1.6000      8.644   278.8989 6.8979e+02     2.0521      0.574      0.832    22.3119   997.7200 0.0000e+00
      0.604      0.047     9.2032    105.881     32.819  31.051073     1.5945      8.636   279.0887 7.2705e+02     2.0433      0.592      0.859    22.3139   997.7197 0.0000e+00
      0.619      0.045     9.1710    105.501     32.826  31.054282     1.6190      8.630   279.1751 7.9562e+02     2.1067      0.609      0.882    22.3199   997.7183 0.0000e+00
      0.630      0.041     9.1267    104.988     32.830  31.056889     1.6534      8.625   279.2553 8.6538e+02     2.2602      0.619      0.899    22.3211   997.7180 0.0000e+00
      0.638      0.036     9.0730    104.370     32.857  31.082591     1.6554      8.622   279.4554 8.4236e+02     2.3593      0.627      0.909    22.3097   997.7207 0.0000e+00
      0.644      0.031     9.0165    103.724     32.886  31.111217     1.6434      8.619   279.7022 7.3369e+02     2.3225      0.632      0.916    22.2999   997.7230 0.0000e+00
      0.650      0.028     8.9640    103.126     32.924  31.149187     1.6466      8.616   280.0017 6.2724e+02     2.2730      0.636      0.923    22.2954   997.7241 0.0000e+00
      0.657      0.028     8.9232    102.664     32.934  31.160952     1.6673      8.614   280.2382 5.3285e+02     2.3186      0.645      0.934    22.2932   997.7246 0.0000e+00
      0.664      0.029     8.8978    102.378     32.895  31.126559     1.6864      8.613   280.2382 4.8754e+02     2.3499      0.652      0.945    22.2937   997.7245 0.0000e+00
      0.672      0.031     8.8871    102.257     32.881  31.114077     1.6866      8.612   280.1734 5.0829e+02     2.3239      0.659      0.955    22.2955   997.7241 0.0000e+00
      0.680      0.033     8.8876    102.267     32.904  31.136952     1.6782      8.610   280.2295 5.8944e+02     2.2993      0.666      0.967    22.2989   997.7234 0.0000e+00
      0.689      0.033     8.8941    102.350     32.914  31.149321     1.6718      8.607   280.4000 6.6450e+02     2.2154      0.676      0.981    22.3039   997.7223 0.0000e+00
      0.698      0.033     8.9021    102.447     32.899  31.136715     1.6787      8.605   280.5145 6.9017e+02     2.0969      0.684      0.992    22.3073   997.7216 0.0000e+00
      0.707      0.032     8.9096    102.535     32.872  31.111455     1.6917      8.603   280.5808 6.6610e+02     2.0457      0.693      1.006    22.3070   997.7216 0.0000e+00
      0.716      0.030     8.9188    102.637     32.859  31.097725     1.6909      8.602   280.7720 5.8385e+02     2.0556      0.703      1.020    22.3087   997.7213 0.0000e+00
      0.723      0.026     8.9311    102.773     32.860  31.097611     1.6945      8.599   280.9326 5.2042e+02     2.0846      0.709      1.029    22.3139   997.7202 0.0000e+00
      0.730      0.021     8.9443    102.920     32.875  31.110074     1.7188      8.596   280.9741 5.0637e+02     2.1018      0.715      1.038    22.3176   997.7194 0.0000e+00
      0.736      0.015     8.9543    103.034     32.888  31.121507     1.7327      8.592   281.0160 4.8700e+02     2.1000      0.722      1.048    22.3179   997.7193 0.0000e+00
      0.739      0.010     8.9598    103.095     32.876  31.108929     1.7233      8.588   281.0094 4.5906e+02     2.0955      0.725      1.052    22.3155   997.7199 0.0000e+00
      0.739      0.005     8.9617    103.114     32.851  31.084913     1.6751      8.584   280.9806 4.7456e+02     2.0797      0.725      1.052    22.3125   997.7205 0.0000e+00
      0.738      0.001     8.9622    103.116     32.852  31.084942     1.6011      8.582   281.0117 5.3889e+02     2.0398      0.723      1.050    22.3100   997.7211 0.0000e+00
      0.737      0.000     8.9602    103.095     32.877  31.109276     1.5654      8.580   281.0408 6.4095e+02     2.0396      0.723      1.049    22.3082   997.7215 0.0000e+00
      0.736      0.002     8.9542    103.035     32.891  31.125314     1.5553      8.578   281.0750 7.2456e+02     2.0773      0.722      1.046    22.3080   997.7215 0.0000e+00
      0.736      0.007     8.9472    102.971     32.913  31.151953     1.5397      8.577   281.0803 7.6944e+02     2.0694      0.721      1.045    22.3073   997.7217 0.0000e+00
      0.736      0.013     8.9445    102.961     32.933  31.177553     1.5162      8.575   281.1058 8.1277e+02     2.0755      0.721      1.046    22.3041   997.7224 0.0000e+00
      0.739      0.019     8.9497    103.035     32.932  31.181023     1.4963      8.573   281.2113 8.2599e+02     2.1183      0.723      1.049    22.3035   997.7225 0.0000e+00
      0.746      0.024     8.9602    103.158     32.945  31.193926     1.4987      8.570   281.3226 8.0438e+02     2.1283      0.731      1.060    22.3082   997.7216 0.0000e+00
      0.756      0.027     8.9754    103.327     32.960  31.206649     1.5007      8.566   281.5046 7.4603e+02     2.0975      0.742      1.076    22.3177   997.7194 0.0000e+00
      0.766      0.027     8.9971    103.570     32.964  31.207935     1.5210      8.562   281.6915 7.0128e+02     2.0083      0.752      1.091    22.3306   997.7164 0.0000e+00
      0.774      0.025     9.0213    103.839     32.969  31.209473     1.5798      8.559   281.7760 6.6662e+02     1.9027      0.759      1.101    22.3388   997.7146 0.0000e+00
      0.779      0.021     9.0411    104.055     32.990  31.225240     1.6217      8.557   281.8375 6.1280e+02     1.8697      0.765      1.109    22.3391   997.7147 0.0000e+00
      0.783      0.017     9.0510    104.156     33.044  31.271650     1.6290      8.555   281.9196 5.5180e+02     1.8711      0.769      1.116    22.3354   997.7155 0.0000e+00
      0.786      0.016     9.0504    104.135     33.106  31.326419     1.5980      8.554   281.9936 4.7806e+02     1.8537      0.771      1.118    22.3310   997.7165 0.0000e+00
      0.788      0.016     9.0469    104.085     33.166  31.379791     1.5336      8.552   282.0447 4.8672e+02     1.8557      0.773      1.121    22.3267   997.7175 0.0000e+00
      0.791      0.019     9.0458    104.066     33.267  31.472774     1.4925      8.551   282.1067 5.3504e+02     1.8627      0.775      1.124    22.3209   997.7189 0.0000e+00
      0.795      0.024     9.0458    104.059     33.364  31.562273     1.4824      8.548   282.2277 4.9968e+02     1.8397      0.779      1.130    22.3140   997.7205 0.0000e+00
      0.802      0.028     9.0470    104.070     33.376  31.573523     1.4809      8.544   282.3887 4.5833e+02     1.8728      0.785      1.139    22.3065   997.7223 0.0000e+00
      0.812      0.030     9.0555    104.175     33.344  31.545338     1.4827      8.538   282.5046 4.4518e+02     1.9676      0.796      1.154    22.3011   997.7235 0.0000e+00
      0.823      0.030     9.0783    104.448     33.333  31.538779     1.4866      8.531   282.5966 4.2594e+02     2.0356      0.807      1.171    22.2985   997.7242 0.0000e+00
      0.833      0.027     9.1119    104.838     33.352  31.557676     1.4933      8.525   282.6405 4.2843e+02     2.0733      0.817      1.185    22.2947   997.7252 0.0000e+00
      0.840      0.022     9.1465    105.232     33.381  31.583457     1.5024      8.520   282.5194 4.3482e+02     2.0631      0.826      1.197    22.2911   997.7261 0.0000e+00
      0.845      0.017     9.1747    105.550     33.397  31.596657     1.5188      8.517   282.4227 4.3318e+02     2.0429      0.829      1.203    22.2963   997.7249 0.0000e+00
      0.846      0.012     9.1940    105.766     33.393  31.590367     1.5278      8.516   282.5898 4.1059e+02     2.0583      0.829      1.203    22.3045   997.7230 0.0000e+00
      0.846      0.011     9.2048    105.888     33.373  31.570860     1.5325      8.515   282.8188 3.6523e+02     2.0852      0.831      1.205    22.3058   997.7226 0.0000e+00
      0.846      0.012     9.2088    105.934     33.352  31.551163     1.5499      8.513   282.9548 3.3996e+02     2.1060      0.829      1.203    22.3027   997.7233 0.0000e+00
      0.849      0.014     9.2112    105.963     33.342  31.542578     1.5560      8.511   283.1157 3.1248e+02     2.0803      0.830      1.204    22.2988   997.7243 0.0000e+00
      0.854      0.016     9.2147    106.005     33.329  31.530521     1.5455      8.509   283.2152 2.9056e+02     2.0368      0.837      1.214    22.2960   997.7250 0.0000e+00
      0.861      0.018     9.2190    106.060     33.329  31.532297     1.5447      8.507   283.2120 2.8246e+02     2.0384      0.845      1.226    22.2944   997.7254 0.0000e+00
      0.867      0.019     9.2253    106.138     33.360  31.564062     1.5542      8.507   283.2488 2.4960e+02     2.0665      0.851      1.235    22.2952   997.7252 0.0000e+00
      0.872      0.020     9.2329    106.220     33.397  31.597300     1.5566      8.506   283.3164 2.2196e+02     2.0816      0.855      1.241    22.2960   997.7251 0.0000e+00
      0.874      0.021     9.2385    106.271     33.423  31.616895     1.5480      8.505   283.3405 2.2263e+02     2.0903      0.857      1.243    22.2963   997.7250 0.0000e+00
      0.878      0.025     9.2390    106.267     33.420  31.610606     1.5369      8.502   283.3687 2.3036e+02     2.0739      0.860      1.247    22.2991   997.7244 0.0000e+00
      0.884      0.030     9.2359    106.219     33.396  31.584716     1.5350      8.498   283.4847 2.2900e+02     2.0467      0.866      1.256    22.3045   997.7232 0.0000e+00
      0.892      0.036     9.2335    106.165     33.377  31.557673     1.5426      8.493   283.6252 2.2220e+02     2.0563      0.874      1.268    22.3021   997.7237 0.0000e+00
      0.903      0.041     9.2339    106.125     33.371  31.537447     1.5506      8.488   283.6902 2.1217e+02     2.0590      0.886      1.284    22.2906   997.7264 0.0000e+00
      0.916      0.044     9.2363    106.104     33.381  31.530518     1.5533      8.482   283.6687 1.8898e+02     2.0468      0.898      1.303    22.2876   997.7273 0.0000e+00
      0.929      0.045     9.2428    106.141     33.401  31.537326     1.5497      8.477   283.6234 1.6916e+02     2.0727      0.911      1.322    22.2856   997.7277 0.0000e+00
      0.943      0.044     9.2571    106.280     33.430  31.556292     1.5500      8.472   283.7444 1.6258e+02     2.1102      0.926      1.343    22.2721   997.7309 0.0000e+00
      0.954      0.041     9.2764    106.485     33.450  31.569456     1.5486      8.467   284.0137 1.5888e+02     2.1064      0.937      1.359    22.2483   997.7364 0.0000e+00
      0.963      0.036     9.2958    106.696     33.454  31.569562     1.5412      8.462   284.2117 1.5555e+02     2.0927      0.943      1.368    22.2208   997.7427 0.0000e+00
      0.972      0.030     9.3146    106.905     33.444  31.557574     1.5474      8.458   284.3314 1.5182e+02     2.1091      0.953      1.383    22.2019   997.7472 0.0000e+00
      0.981      0.024     9.3338    107.127     33.436  31.551415     1.5895      8.455   284.3421 1.4786e+02     2.1407      0.964      1.398    22.1906   997.7498 0.0000e+00
      0.987      0.019     9.3560    107.394     33.440  31.558550     1.6512      8.453   284.1689 1.4408e+02     2.1469      0.969      1.405    22.1831   997.7515 0.0000e+00
      0.988      0.015     9.3817    107.700     33.459  31.580392     1.6773      8.453   284.0441 1.4012e+02     2.1183      0.969      1.406    22.1778   997.7527 0.0000e+00
      0.989      0.013     9.4036    107.948     33.507  31.625142     1.6715      8.454   284.1241 1.3675e+02     2.0573      0.970      1.407    22.1734   997.7537 0.0000e+00
      0.991      0.012     9.4139    108.052     33.544  31.655415     1.6678      8.455   284.1900 1.3541e+02     2.0320      0.972      1.410    22.1740   997.7536 0.0000e+00
      0.994      0.014     9.4099    107.998     33.587  31.692586     1.6669      8.455   284.3246 1.3546e+02     2.0738      0.974      1.414    22.1810   997.7520 0.0000e+00
      0.998      0.017     9.3946    107.823     33.655  31.757285     1.6688      8.454   284.5470 1.3559e+02     2.0712      0.979      1.420    22.1900   997.7499 0.0000e+00
      1.003      0.021     9.3743    107.597     33.768  31.866568     1.6736      8.452   284.6425 1.3581e+02     2.0337      0.984      1.427    22.1888   997.7503 0.0000e+00
      1.009      0.025     9.3565    107.393     33.908  31.998594     1.6731      8.449   284.7046 1.3621e+02     2.0133      0.988      1.434    22.1774   997.7529 0.0000e+00
      1.016      0.025     9.3452    107.252     33.936  32.020981     1.6723      8.445   284.6951 1.3592e+02     2.0209      0.995      1.443    22.1719   997.7542 0.0000e+00
      1.024      0.022     9.3406    107.181     33.864  31.946874     1.6803      8.441   284.6141 1.3400e+02     2.0606      1.004      1.456    22.1750   997.7536 0.0000e+00
      1.033      0.015     9.3436    107.204     33.780  31.864058     1.6833      8.439   284.4993 1.3036e+02     2.0676      1.013      1.470    22.1796   997.7526 0.0000e+00
      1.040      0.006     9.3545    107.335     33.690  31.781149     1.6738      8.439   284.3393 1.2591e+02     2.0402      1.023      1.483    22.1811   997.7524 0.0000e+00
      1.040     -0.002     9.3710    107.551     33.602  31.705930     1.6875      8.438   284.2279 1.2184e+02     1.9911      1.023      1.484    22.1751   997.7537 0.0000e+00
      1.033     -0.006     9.3900    107.807     33.532  31.652640     1.7275      8.437   284.2714 1.1850e+02     1.9322      1.012      1.469    22.1630   997.7564 0.0000e+00
      1.023     -0.006     9.4070    108.038     33.511  31.644499     1.7411      8.437   284.5205 1.1639e+02     1.8861      1.001      1.452    22.1552   997.7581 0.0000e+00
      1.018     -0.001     9.4169    108.168     33.533  31.670961     1.7298      8.436   284.8318 1.1592e+02     1.8586      0.996      1.444    22.1580   997.7574 0.0000e+00
      1.019      0.007     9.4178    108.172     33.586  31.718768     1.7303      8.433   285.0232 1.1668e+02     1.9277      0.998      1.447    22.1720   997.7542 0.0000e+00
      1.025      0.016     9.4100    108.064     33.656  31.778331     1.7387      8.428   285.0287 1.1797e+02     2.0658      1.004      1.457    22.1934   997.7493 0.0000e+00
      1.034      0.021     9.3936    107.857     33.706  31.820001     1.7359      8.423   284.9843 1.1889e+02     2.1197      1.015      1.472    22.2134   997.7447 0.0000e+00
      1.044      0.024     9.3713    107.593     33.732  31.841848     1.7217      8.419   285.0033 1.1906e+02     2.0882      1.026      1.487    22.2229   997.7427 0.0000e+00
      1.051      0.024     9.3496    107.347     33.742  31.852104     1.7230      8.417   285.0863 1.1871e+02     2.0782      1.033      1.497    22.2168   997.7442 0.0000e+00
      1.054      0.024     9.3344    107.175     33.771  31.880550     1.7523      8.415   285.2132 1.1799e+02     2.0970      1.035      1.501    22.2056   997.7468 0.0000e+00
      1.057      0.023     9.3265    107.070     33.830  31.931951     1.7803      8.411   285.3323 1.1692e+02     2.0855      1.035      1.502    22.1952   997.7491 0.0000e+00
      1.062      0.022     9.3249    107.023     33.876  31.965922     1.7843      8.408   285.4942 1.1566e+02     2.0706      1.039      1.507    22.1897   997.7504 0.0000e+00
      1.070      0.021     9.3304    107.059     33.895  31.973982     1.7669      8.405   285.7085 1.1386e+02     2.1469      1.049      1.522    22.1952   997.7492 0.0000e+00
      1.079      0.021     9.3434    107.197     33.890  31.965937     1.7429      8.403   285.9442 1.1155e+02     2.2865      1.059      1.536    22.2000   997.7481 0.0000e+00
      1.084      0.021     9.3597    107.383     33.854  31.932103     1.7281      8.403   286.1064 1.0971e+02     2.3492      1.064      1.543    22.1918   997.7500 0.0000e+00
      1.088      0.020     9.3733    107.548     33.798  31.882192     1.7261      8.402   286.2074 1.0845e+02     2.3149      1.067      1.547    22.1745   997.7540 0.0000e+00
      1.091      0.018     9.3849    107.690     33.782  31.870135     1.7276      8.402   286.3914 1.0737e+02     2.2656      1.068      1.550    22.1588   997.7576 0.0000e+00
      1.094      0.016     9.3964    107.819     33.829  31.913241     1.7376      8.403   286.5238 1.0673e+02     2.2441      1.072      1.555    22.1538   997.7588 0.0000e+00
      1.099      0.016     9.4067    107.927     33.881  31.959172     1.7612      8.403   286.6034 1.0687e+02     2.2856      1.077      1.563    22.1552   997.7585 0.0000e+00
      1.104      0.017     9.4147    108.015     33.906  31.981280     1.7791      8.402   286.7520 1.0758e+02     2.3406      1.083      1.571    22.1594   997.7575 0.0000e+00
      1.109      0.017     9.4211    108.093     33.914  31.990166     1.7889      8.401   286.8578 1.0825e+02     2.3191      1.089      1.579    22.1675   997.7557 0.0000e+00
      1.112      0.017     9.4274    108.168     33.927  32.003158     1.7921      8.400   286.8495 1.0871e+02     2.3208      1.091      1.582    22.1651   997.7563 0.0000e+00
      1.116      0.017     9.4342    108.238     33.938  32.011450     1.7926      8.399   286.8248 1.0910e+02     2.4592      1.094      1.587    22.1554   997.7585 0.0000e+00
      1.121      0.017     9.4411    108.293     33.896  31.963504     1.7951      8.396   286.8173 1.0949e+02     2.6163      1.099      1.594    22.1546   997.7587 0.0000e+00
      1.126      0.018     9.4475    108.328     33.808  31.867642     1.7963      8.393   286.8441 1.0980e+02     2.6467      1.104      1.601    22.1595   997.7577 0.0000e+00
      1.131      0.019     9.4547    108.358     33.759  31.804240     1.7983      8.392   286.8910 1.0985e+02     2.5314      1.109      1.608    22.1617   997.7572 0.0000e+00
      1.136      0.020     9.4629    108.398     33.739  31.768012     1.7936      8.392   286.8681 1.0957e+02     2.3696      1.113      1.615    22.1585   997.7579 0.0000e+00
      1.141      0.021     9.4669    108.411     33.660  31.683416     1.7908      8.391   286.8255 1.0892e+02     2.2962      1.119      1.622    22.1475   997.7605 0.0000e+00
      1.145      0.024     9.4630    108.352     33.515  31.542861     1.7994      8.391   286.8059 1.0835e+02     2.2992      1.123      1.628    22.1279   997.7649 0.0000e+00
      1.150      0.027     9.4567    108.240     33.378  31.401167     1.8198      8.392   286.8033 1.0812e+02     2.3075      1.127      1.635    22.1013   997.7710 0.0000e+00
      1.157      0.030     9.4510    108.090     33.302  31.302787     1.8468      8.392   286.8803 1.0796e+02     2.2987      1.134      1.644    22.0700   997.7782 0.0000e+00
      1.166      0.032     9.4420    107.893     33.269  31.241704     1.8570      8.391   287.0489 1.0779e+02     2.2908      1.143      1.657    22.0525   997.7822 0.0000e+00
      1.176      0.033     9.4329    107.718     33.285  31.233676     1.8563      8.390   287.2059 1.0777e+02     2.3103      1.154      1.673    22.0580   997.7808 0.0000e+00
      1.186      0.032     9.4307    107.648     33.338  31.269150     1.8554      8.389   287.3169 1.0785e+02     2.4044      1.164      1.689    22.0453   997.7837 0.0000e+00
      1.195      0.030     9.4364    107.695     33.367  31.289856     1.8467      8.388   287.4439 1.0810e+02     2.5763      1.172      1.700    21.9929   997.7957 0.0000e+00
      1.203      0.026     9.4508    107.868     33.368  31.293658     1.8371      8.387   287.6236 1.0863e+02     2.6840      1.180      1.711    21.9415   997.8073 0.0000e+00
      1.208      0.021     9.4753    108.176     33.381  31.315119     1.8345      8.385   287.7690 1.0933e+02     2.6915      1.186      1.720    21.9094   997.8146 0.0000e+00
      1.213      0.018     9.5067    108.568     33.416  31.358984     1.8412      8.384   287.8255 1.1021e+02     2.6660      1.191      1.726    21.8876   997.8196 0.0000e+00
      1.216      0.016     9.5394    108.972     33.428  31.379845     1.8405      8.382   287.9620 1.1091e+02     2.6050      1.193      1.730    21.8776   997.8219 0.0000e+00
      1.218      0.016     9.5693    109.334     33.418  31.376998     1.8177      8.380   288.1286 1.1138e+02     2.5450      1.194      1.732    21.8839   997.8205 0.0000e+00
      1.222      0.016     9.5955    109.638     33.428  31.388025     1.7989      8.379   288.1190 1.1218e+02     2.5623      1.196      1.736    21.9003   997.8168 0.0000e+00
      1.227      0.016     9.6190    109.894     33.430  31.386257     1.7959      8.377   288.1047 1.1324e+02     2.5845      1.202      1.744    21.9171   997.8131 0.0000e+00
      1.232      0.017     9.6315    110.019     33.403  31.355617     1.8157      8.375   288.2128 1.1414e+02     2.5850      1.209      1.754    21.9320   997.8096 0.0000e+00
      1.237      0.018     9.6290    109.974     33.387  31.334835     1.8560      8.373   288.3082 1.1467e+02     2.6330      1.214      1.761    21.9444   997.8068 0.0000e+00
      1.241      0.018     9.6184    109.844     33.380  31.325338     1.8679      8.372   288.3107 1.1492e+02     2.6414      1.217      1.765    21.9470   997.8064 0.0000e+00
      1.245      0.018     9.6060    109.697     33.360  31.304245     1.8549      8.371   288.3301 1.1533e+02     2.6536      1.221      1.770    21.9384   997.8083 0.0000e+00
      1.249      0.018     9.5894    109.499     33.326  31.270175     1.8557      8.370   288.4559 1.1588e+02     2.7809      1.225      1.777    21.9286   997.8106 0.0000e+00
      1.254      0.018     9.5637    109.193     33.288  31.230676     1.8594      8.370   288.5411 1.1640e+02     2.9023      1.230      1.784    21.9198   997.8125 0.0000e+00
      1.259      0.019     9.5368    108.873     33.267  31.207397     1.8573      8.370   288.5871 1.1693e+02     2.9083      1.235      1.791    21.9155   997.8135 0.0000e+00
      1.264      0.020     9.5151    108.612     33.242  31.179067     1.8561      8.369   288.6675 1.1722e+02     2.8530      1.240      1.798    21.9152   997.8136 0.0000e+00
      1.269      0.020     9.4979    108.393     33.210  31.141967     1.8699      8.369   288.7381 1.1747e+02     2.8568      1.245      1.805    21.9105   997.8147 0.0000e+00
      1.274      0.020     9.4823    108.188     33.217  31.139541     1.8946      8.368   288.8391 1.1818e+02     2.9216      1.250      1.812    21.9036   997.8162 0.0000e+00
      1.280      0.019     9.4628    107.946     33.234  31.149717     1.9032      8.367   288.8556 1.1916e+02     2.9155      1.256      1.821    21.8985   997.8174 0.0000e+00
      1.286      0.017     9.4383    107.664     33.222  31.138084     1.9041      8.366   288.7665 1.2020e+02     2.8811      1.262      1.829    21.8932   997.8187 0.0000e+00
      1.292      0.017     9.4103    107.354     33.206  31.125795     1.9145      8.366   288.7933 1.2117e+02     2.8660      1.268      1.838    21.8826   997.8210 0.0000e+00
      1.295      0.017     9.3825    107.049     33.205  31.128052     1.9256      8.365   288.9212 1.2209e+02     2.7989      1.270      1.842    21.8665   997.8247 0.0000e+00
      1.296      0.018     9.3590    106.787     33.242  31.165372     1.9253      8.364   289.0230 1.2321e+02     2.7246      1.270      1.841    21.8554   997.8271 0.0000e+00
      1.299      0.019     9.3410    106.576     33.345  31.259763     1.9185      8.363   289.0776 1.2452e+02     2.6889      1.273      1.846    21.8557   997.8271 0.0000e+00
      1.305      0.022     9.3273    106.401     33.480  31.380947     1.9130      8.362   289.0652 1.2607e+02     2.6954      1.280      1.857    21.8616   997.8258 0.0000e+00
      1.313      0.027     9.3148    106.229     33.673  31.551823     1.9458      8.360   289.0450 1.2792e+02     2.8031      1.288      1.868    21.8685   997.8243 0.0000e+00
      1.320      0.032     9.3000    106.029     33.884  31.739376     2.0204      8.358   289.0911 1.2997e+02     3.0081      1.294      1.877    21.8732   997.8233 0.0000e+00
      1.328      0.035     9.2807    105.782     33.968  31.808362     2.0607      8.355   289.1070 1.3202e+02     3.1421      1.302      1.888    21.8709   997.8239 0.0000e+00
      1.338      0.035     9.2594    105.521     33.913  31.751348     2.0512      8.350   289.0650 1.3388e+02     3.1446      1.311      1.902    21.8612   997.8262 0.0000e+00
      1.349      0.033     9.2404    105.293     33.846  31.684599     2.0102      8.344   288.9279 1.3543e+02     3.0713      1.323      1.919    21.8457   997.8297 0.0000e+00
      1.360      0.030     9.2263    105.124     33.865  31.699331     1.9553      8.339   288.6532 1.3643e+02     2.9778      1.336      1.936    21.8287   997.8337 0.0000e+00
      1.369      0.026     9.2179    105.024     33.976  31.802547     1.9252      8.336   288.4972 1.3688e+02     2.9309      1.345      1.949    21.8150   997.8369 0.0000e+00
      1.373      0.024     9.2143    104.977     34.101  31.917254     1.9143      8.336   288.5908 1.3723e+02     2.8978      1.347      1.954    21.8060   997.8389 0.0000e+00
      1.374      0.024     9.2145    104.972     34.133  31.944001     1.9366      8.335   288.7514 1.3781e+02     2.8388      1.347      1.954    21.8006   997.8400 0.0000e+00
      1.377      0.026     9.2193    105.023     34.125  31.935561     1.9950      8.335   288.8909 1.3847e+02     2.7756      1.350      1.956    21.7977   997.8407 0.0000e+00
      1.384      0.029     9.2278    105.122     34.199  32.005583     2.0304      8.334   288.9866 1.3952e+02     2.7233      1.356      1.966    21.7958   997.8412 0.0000e+00
      1.396      0.033     9.2380    105.236     34.293  32.092584     2.0357      8.333   289.0482 1.4155e+02     2.6981      1.369      1.984    21.7928   997.8420 0.0000e+00
      1.407      0.035     9.2500    105.359     34.305  32.099068     2.0502      8.332   289.1198 1.4446e+02     2.7002      1.381      2.002    21.7874   997.8433 0.0000e+00
      1.417      0.034     9.2628    105.485     34.295  32.083977     2.0760      8.333   289.1640 1.4791e+02     2.6841      1.389      2.016    21.7849   997.8439 0.0000e+00
      1.427      0.032     9.2752    105.613     34.318  32.100482     2.0869      8.333   289.1520 1.5192e+02     2.6670      1.400      2.031    21.7889   997.8430 0.0000e+00
      1.434      0.028     9.2833    105.702     34.328  32.108249     2.0871      8.333   289.1474 1.5596e+02     2.6900      1.409      2.043    21.7903   997.8427 0.0000e+00
      1.439      0.025     9.2866    105.736     34.335  32.114426     2.0789      8.332   289.1938 1.5967e+02     2.6994      1.411      2.047    21.7811   997.8448 0.0000e+00
      1.444      0.023     9.2913    105.785     34.333  32.111702     2.0569      8.331   289.1969 1.6406e+02     2.6819      1.415      2.052    21.7695   997.8475 0.0000e+00
      1.450      0.021     9.3028    105.909     34.297  32.075322     2.0468      8.331   289.1858 1.6860e+02     2.6755      1.422      2.062    21.7630   997.8490 0.0000e+00
      1.456      0.021     9.3208    106.101     34.280  32.055305     2.0519      8.330   289.2305 1.7183e+02     2.6555      1.428      2.071    21.7616   997.8494 0.0000e+00
      1.461      0.022     9.3414    106.318     34.292  32.060046     2.0487      8.328   289.3074 1.7467e+02     2.6367      1.433      2.079    21.7621   997.8492 0.0000e+00
      1.466      0.022     9.3609    106.521     34.308  32.069180     2.0432      8.327   289.3415 1.7680e+02     2.6446      1.437      2.085    21.7597   997.8498 0.0000e+00
      1.472      0.021     9.3782    106.702     34.349  32.102270     2.0462      8.326   289.2989 1.7742e+02     2.6525      1.443      2.094    21.7557   997.8507 0.0000e+00
      1.479      0.021     9.3952    106.885     34.396  32.142834     2.0504      8.325   289.3084 1.7831e+02     2.6668      1.450      2.104    21.7503   997.8519 0.0000e+00
      1.484      0.021     9.4128    107.083     34.436  32.178883     2.0502      8.323   289.3700 1.7980e+02     2.6853      1.456      2.111    21.7409   997.8541 0.0000e+00
      1.488      0.021     9.4311    107.299     34.478  32.220838     2.0435      8.321   289.3559 1.8190e+02     2.6796      1.459      2.117    21.7306   997.8563 0.0000e+00
      1.493      0.021     9.4502    107.531     34.525  32.269355     2.0395      8.321   289.3956 1.8620e+02     2.6636      1.464      2.123    21.7227   997.8582 0.0000e+00
      1.499      0.022     9.4720    107.781     34.580  32.321295     2.0451      8.321   289.5060 1.9321e+02     2.6896      1.470      2.131    21.7173   997.8595 0.0000e+00
      1.504      0.024     9.4938    108.009     34.608  32.341161     2.0590      8.320   289.4855 2.0033e+02     2.7311      1.476      2.141    21.7151   997.8600 0.0000e+00
      1.509      0.029     9.5067    108.130     34.662  32.382635     2.1209      8.318   289.4928 2.0385e+02     2.6743      1.480      2.148    21.7192   997.8592 0.0000e+00
      1.515      0.033     9.5079    108.120     34.734  32.441978     2.2208      8.317   289.5933 2.0737e+02     2.5594      1.486      2.155    21.7304   997.8566 0.0000e+00
      1.524      0.037     9.5009    108.008     34.590  32.297143     2.2707      8.316   289.6695 2.1258e+02     2.5211      1.494      2.167    21.7346   997.8557 0.0000e+00
      1.536      0.041     9.4860    107.790     34.251  31.964076     2.2726      8.314   289.7255 2.1093e+02     2.5400      1.506      2.184    21.7203   997.8591 0.0000e+00
      1.550      0.043     9.4617    107.457     34.004  31.714724     2.2436      8.312   289.7545 2.0480e+02     2.5578      1.520      2.205    21.7047   997.8625 0.0000e+00
      1.562      0.043     9.4317    107.070     33.998  31.693625     2.1895      8.310   290.0199 2.0330e+02     2.5393      1.532      2.223    21.6976   997.8643 0.0000e+00
      1.573      0.042     9.4130    106.830     34.228  31.899321     2.1564      8.309   290.5240 2.0327e+02     2.5131      1.543      2.239    21.6850   997.8672 0.0000e+00
      1.582      0.040     9.4283    106.973     34.530  32.171107     2.1465      8.308   290.8592 1.9993e+02     2.5362      1.552      2.252    21.6587   997.8730 0.0000e+00
      1.591      0.038     9.4858    107.572     34.771  32.377963     2.1474      8.308   291.0621 1.9475e+02     2.5242      1.560      2.262    21.6272   997.8799 0.0000e+00
      1.601      0.035     9.5713    108.472     34.992  32.560071     2.1496      8.307   291.2562 1.9146e+02     2.4652      1.569      2.276    21.6029   997.8853 0.0000e+00
      1.611      0.033     9.6561    109.370     35.257  32.786425     2.1476      8.305   291.3141 1.8956e+02     2.4788      1.579      2.291    21.5936   997.8875 0.0000e+00
      1.620      0.031     9.7157    109.998     35.594  33.084026     2.1496      8.305   291.3313 1.8601e+02     2.5247      1.590      2.306    21.5862   997.8894 0.0000e+00
      1.627      0.031     9.7375    110.208     35.912  33.366020     2.1474      8.305   291.4641 1.8218e+02     2.5296      1.596      2.315    21.5576   997.8959 0.0000e+00
      1.632      0.032     9.7179    109.947     36.103  33.530556     2.1124      8.304   291.5433 1.8058e+02     2.5376      1.599      2.320    21.5176   997.9048 0.0000e+00
      1.638      0.033     9.6603    109.247     36.210  33.613766     2.0561      8.304   291.5147 1.8290e+02     2.5557      1.605      2.327    21.4881   997.9114 0.0000e+00
      1.647      0.035     9.5712    108.180     36.297  33.673983     2.0297      8.304   291.5485 1.8626e+02     2.5521      1.615      2.342    21.4679   997.9160 0.0000e+00
      1.658      0.037     9.4602    106.864     36.334  33.687428     2.0352      8.303   291.6940 1.8497e+02     2.5267      1.626      2.359    21.4511   997.9199 0.0000e+00
      1.669      0.037     9.3408    105.463     36.313  33.649373     2.0200      8.302   291.8976 1.8089e+02     2.5440      1.637      2.374    21.4346   997.9237 0.0000e+00
      1.679      0.036     9.2275    104.142     36.270  33.594618     1.9671      8.300   292.1167 1.7817e+02     2.6301      1.648      2.390    21.4129   997.9285 0.0000e+00
      1.688      0.035     9.1306    103.003     36.290  33.596538     1.9246      8.300   292.2793 1.7636e+02     2.6828      1.657      2.403    21.3834   997.9351 0.0000e+00
      1.696      0.033     9.0519    102.054     36.397  33.672570     1.9129      8.299   292.4000 1.7421e+02     2.6895      1.664      2.413    21.3500   997.9425 0.0000e+00
      1.703      0.031     8.9912    101.289     36.515  33.752319     1.9299      8.298   292.7151 1.7187e+02     2.7431      1.670      2.422    21.3257   997.9478 0.0000e+00
      1.711      0.030     8.9483    100.724     36.598  33.799179     1.9656      8.297   293.1644 1.6963e+02     2.8391      1.677      2.433    21.3067   997.9521 0.0000e+00
      1.720      0.029     8.9225    100.374     36.618  33.794855     1.9809      8.295   293.3581 1.6731e+02     2.9004      1.687      2.447    21.2864   997.9566 0.0000e+00
      1.727      0.028     8.9102    100.196     36.600  33.763475     1.9679      8.293   293.1656 1.6516e+02     2.8939      1.693      2.456    21.2584   997.9628 0.0000e+00
      1.734      0.027     8.9025    100.083     36.582  33.737065     1.9457      8.291   292.9013 1.6236e+02     2.8923      1.700      2.466    21.2122   997.9730 0.0000e+00
      1.742      0.027     8.8909     99.933     36.581  33.729368     1.9289      8.289   292.6573 1.5824e+02     2.9464      1.709      2.479    21.1647   997.9835 0.0000e+00
      1.748      0.028     8.8754     99.742     36.593  33.733866     1.9217      8.286   292.0226 1.5462e+02     2.9905      1.714      2.487    21.1373   997.9895 0.0000e+00
      1.753      0.030     8.8605     99.563     36.591  33.727981     1.9190      8.284   290.9052 1.5266e+02     2.9672      1.717      2.491    21.1184   997.9936 0.0000e+00
      1.760      0.030     8.8450     99.392     36.584  33.721672     1.9486      8.283   289.9883 1.5156e+02     2.9265      1.724      2.501    21.1043   997.9967 0.0000e+00
      1.770      0.029     8.8275     99.213     36.576  33.721048     2.0118      8.281   289.7988 1.5002e+02     2.9249      1.736      2.518    21.0976   997.9981 0.0000e+00
      1.780      0.028     8.8138     99.086     36.564  33.720446     2.0412      8.278   289.6458 1.4789e+02     2.9158      1.747      2.533    21.0871   998.0004 0.0000e+00
      1.788      0.025     8.8099     99.066     36.548  33.714406     2.0356      8.276   288.9126 1.4655e+02     2.8811      1.755      2.545    21.0790   998.0023 0.0000e+00
      1.793      0.021     8.8179     99.161     36.542  33.711497     2.0302      8.273   288.2471 1.4599e+02     2.8659      1.759      2.551    21.0801   998.0021 0.0000e+00
      1.796      0.020     8.8364     99.360     36.587  33.748739     2.0275      8.271   288.3975 1.4544e+02     2.9287      1.761      2.554    21.0910   997.9998 0.0000e+00
      1.798      0.020     8.8624     99.630     36.702  33.847371     2.0378      8.269   289.0950 1.4556e+02     3.0504      1.763      2.556    21.1073   997.9963 0.0000e+00
      1.801      0.022     8.8942     99.937     36.836  33.952066     2.0328      8.268   289.3676 1.4613e+02     3.0923      1.764      2.560    21.1228   997.9928 0.0000e+00
      1.808      0.025     8.9267    100.225     36.919  33.999156     2.0107      8.265   289.0269 1.4526e+02     3.0746      1.771      2.570    21.1252   997.9923 0.0000e+00
      1.817      0.029     8.9498    100.413     36.989  34.035899     2.0136      8.263   288.8469 1.4317e+02     3.0978      1.782      2.585    21.1174   997.9941 0.0000e+00
      1.826      0.031     8.9545    100.423     37.053  34.078960     2.0331      8.260   289.0837 1.4159e+02     3.1441      1.791      2.597    21.1115   997.9955 0.0000e+00
      1.834      0.032     8.9348    100.180     37.058  34.075522     2.0467      8.259   289.4811 1.4087e+02     3.1766      1.798      2.608    21.0878   998.0007 0.0000e+00
      1.842      0.031     8.8917     99.674     37.048  34.057792     2.0393      8.258   290.0379 1.4058e+02     3.1625      1.806      2.619    21.0385   998.0115 0.0000e+00
      1.851      0.030     8.8339     99.004     37.054  34.054976     1.9953      8.257   290.7404 1.4010e+02     3.1037      1.815      2.632    20.9957   998.0209 0.0000e+00
      1.860      0.028     8.7666     98.236     37.045  34.041453     1.9404      8.255   291.3491 1.3960e+02     3.0231      1.824      2.645    20.9786   998.0246 0.0000e+00
      1.867      0.028     8.6946     97.431     37.022  34.021204     1.9215      8.253   291.7193 1.3931e+02     2.9416      1.831      2.655    20.9723   998.0259 0.0000e+00
      1.872      0.027     8.6328     96.758     36.992  34.000546     1.9230      8.251   291.6894 1.3826e+02     2.9048      1.836      2.663    20.9592   998.0288 0.0000e+00
      1.877      0.027     8.5936     96.339     36.963  33.982081     1.8808      8.250   291.6749 1.3625e+02     2.9073      1.841      2.669    20.9463   998.0316 0.0000e+00
      1.884      0.027     8.5769     96.147     36.972  33.988361     1.8098      8.248   292.2328 1.3460e+02     2.9057      1.847      2.679    20.9384   998.0334 0.0000e+00
      1.892      0.028     8.5789     96.136     37.014  34.012996     1.7833      8.246   292.6704 1.3440e+02     2.9177      1.855      2.692    20.9363   998.0338 0.0000e+00
      1.900      0.028     8.5964     96.281     37.049  34.026076     1.7861      8.245   292.7505 1.3494e+02     2.9220      1.865      2.703    20.9516   998.0306 0.0000e+00
      1.907      0.027     8.6233     96.535     37.062  34.019549     1.7662      8.244   292.9424 1.3476e+02     2.9566      1.871      2.713    20.9685   998.0270 0.0000e+00
      1.915      0.026     8.6508     96.821     37.047  33.997519     1.7420      8.241   293.0972 1.3375e+02     3.0738      1.878      2.724    20.9663   998.0274 0.0000e+00
      1.922      0.026     8.6738     97.093     36.990  33.950090     1.7369      8.239   293.3324 1.3213e+02     3.1602      1.885      2.734    20.9449   998.0322 0.0000e+00
      1.927      0.026     8.6938     97.338     36.916  33.890356     1.7389      8.238   293.8072 1.3056e+02     3.1815      1.891      2.742    20.9148   998.0387 0.0000e+00
      1.932      0.027     8.7128     97.550     36.869  33.846468     1.7398      8.238   294.1920 1.2996e+02     3.1678      1.895      2.747    20.8869   998.0447 0.0000e+00
      1.937      0.030     8.7313     97.731     36.829  33.800229     1.7743      8.237   294.3713 1.2978e+02     3.1915      1.899      2.753    20.8700   998.0484 0.0000e+00
      1.945      0.033     8.7512     97.913     36.749  33.712058     1.8528      8.235   294.5126 1.2897e+02     3.3034      1.907      2.766    20.8835   998.0455 0.0000e+00
      1.955      0.037     8.7789     98.174     36.653  33.605410     1.9083      8.235   294.7817 1.2755e+02     3.4067      1.917      2.781    20.9050   998.0408 0.0000e+00
      1.966      0.039     8.8175     98.564     36.584  33.526147     1.9256      8.234   295.1298 1.2605e+02     3.4574      1.928      2.795    20.9001   998.0419 0.0000e+00
      1.977      0.040     8.8697     99.118     36.514  33.451775     1.9143      8.232   295.3663 1.2448e+02     3.5556      1.938      2.811    20.8859   998.0450 0.0000e+00
      1.989      0.039     8.9393     99.873     36.403  33.340801     1.8756      8.230   295.4895 1.2302e+02     3.7100      1.950      2.829    20.8649   998.0496 0.0000e+00
      1.999      0.037     9.0271    100.829     36.259  33.199761     1.8565      8.229   295.6740 1.2192e+02     3.7832      1.962      2.845    20.8352   998.0560 0.0000e+00
      2.008      0.035     9.1336    101.992     36.138  33.079178     1.8650      8.228   295.9612 1.2099e+02     3.8184      1.970      2.856    20.8133   998.0607 0.0000e+00
      2.015      0.032     9.2513    103.283     36.088  33.025149     1.8915      8.228   296.1230 1.2004e+02     3.9054      1.976      2.866    20.7997   998.0636 0.0000e+00
      2.023      0.030     9.3668    104.563     36.054  32.990720     1.9344      8.227   296.1671 1.1906e+02     3.9831      1.983      2.877    20.7889   998.0659 0.0000e+00
      2.031      0.029     9.4782    105.807     35.973  32.916745     1.9587      8.226   296.2373 1.1818e+02     4.0042      1.992      2.889    20.7768   998.0685 0.0000e+00
      2.038      0.029     9.5886    107.037     35.947  32.892256     1.9685      8.227   296.3695 1.1733e+02     4.0294      1.999      2.899    20.7619   998.0717 0.0000e+00
      2.044      0.030     9.6926    108.181     36.015  32.948466     1.9668      8.228   296.5614 1.1646e+02     4.0589      2.005      2.907    20.7490   998.0745 0.0000e+00
      2.051      0.031     9.7841    109.178     36.038  32.961752     1.9458      8.226   296.6643 1.1542e+02     4.0331      2.011      2.918    20.7435   998.0757 0.0000e+00
      2.059      0.032     9.8638    110.049     36.006  32.925966     1.9311      8.224   296.7535 1.1418e+02     4.0125      2.020      2.929    20.7481   998.0747 0.0000e+00
      2.068      0.033     9.9337    110.821     35.977  32.896537     1.9196      8.223   296.8645 1.1314e+02     4.0397      2.029      2.942    20.7499   998.0744 0.0000e+00
      2.077      0.033     9.9920    111.474     35.936  32.859768     1.9106      8.223   296.8884 1.1224e+02     4.0665      2.037      2.954    20.7376   998.0771 0.0000e+00
      2.087      0.032    10.0344    111.951     35.937  32.862164     1.9099      8.222   296.8694 1.1140e+02     4.0422      2.047      2.968    20.7255   998.0797 0.0000e+00
      2.096      0.031    10.0578    112.208     36.007  32.925510     1.9108      8.221   296.8938 1.1065e+02     4.0083      2.056      2.982    20.7172   998.0815 0.0000e+00
      2.104      0.029    10.0708    112.347     36.081  32.991069     1.9131      8.220   296.9262 1.0979e+02     4.0164      2.063      2.992    20.7112   998.0828 0.0000e+00
      2.110      0.027    10.0865    112.516     36.116  33.020212     1.9030      8.221   296.8307 1.0883e+02     4.0424      2.069      3.000    20.7152   998.0820 0.0000e+00
      2.117      0.027    10.0985    112.636     36.125  33.024018     1.8836      8.221   296.7713 1.0797e+02     4.0601      2.076      3.010    20.7192   998.0811 0.0000e+00
      2.122      0.028    10.0982    112.611     36.146  33.037084     1.8695      8.220   296.8961 1.0727e+02     4.0341      2.081      3.019    20.7153   998.0820 0.0000e+00
      2.128      0.030    10.0873    112.467     36.170  33.051265     1.8537      8.219   297.1350 1.0662e+02     3.9893      2.086      3.026    20.7128   998.0827 0.0000e+00
      2.135      0.033    10.0662    112.208     36.198  33.068546     1.8485      8.218   297.4225 1.0616e+02     4.0099      2.093      3.036    20.7114   998.0830 0.0000e+00
      2.145      0.036    10.0355    111.841     36.262  33.119097     1.8415      8.217   297.5337 1.0552e+02     4.1197      2.102      3.049    20.7042   998.0846 0.0000e+00
      2.156      0.037    10.0008    111.434     36.308  33.154761     1.8118      8.216   297.4471 1.0435e+02     4.2683      2.114      3.067    20.6940   998.0868 0.0000e+00
      2.167      0.036     9.9673    111.053     36.272  33.118975     1.7850      8.215   297.4076 1.0326e+02     4.3312      2.126      3.085    20.6836   998.0891 0.0000e+00
      2.177      0.032     9.9343    110.686     36.215  33.067178     1.7777      8.213   297.3995 1.0245e+02     4.2909      2.135      3.096    20.6732   998.0913 0.0000e+00
      2.186      0.027     9.9041    110.348     36.182  33.036187     1.8009      8.212   297.3500 1.0158e+02     4.2726      2.144      3.109    20.6613   998.0939 0.0000e+00
      2.192      0.021     9.8810    110.082     36.143  32.998108     1.8404      8.211   297.3250 1.0100e+02     4.2734      2.152      3.121    20.6500   998.0964 0.0000e+00
      2.197      0.016     9.8648    109.901     36.132  32.987540     1.8654      8.211   297.3550 1.0095e+02     4.2687      2.155      3.126    20.6468   998.0971 0.0000e+00
      2.198      0.014     9.8568    109.826     36.179  33.035332     1.8697      8.212   297.3687 1.0108e+02     4.2807      2.156      3.127    20.6500   998.0964 0.0000e+00
      2.199      0.014     9.8585    109.856     36.211  33.068268     1.8744      8.212   297.3191 1.0115e+02     4.3531      2.157      3.128    20.6503   998.0964 0.0000e+00
      2.200      0.016     9.8699    109.965     36.148  33.005004     1.9045      8.211   297.2712 1.0121e+02     4.4885      2.157      3.128    20.6430   998.0979 0.0000e+00
      2.203      0.020     9.8892    110.129     36.057  32.905015     1.9310      8.210   297.3055 1.0134e+02     4.5092      2.159      3.131    20.6401   998.0985 0.0000e+00
      2.211      0.024     9.9102    110.299     36.047  32.874678     1.9340      8.210   297.3903 1.0122e+02     4.4387      2.166      3.142    20.6516   998.0960 0.0000e+00
      2.221      0.028     9.9220    110.392     36.080  32.892018     1.9678      8.209   297.4360 1.0062e+02     4.4891      2.179      3.160    20.6620   998.0940 0.0000e+00
      2.230      0.029     9.9170    110.329     36.049  32.860798     2.0440      8.208   297.4273 9.9890e+01     4.6263      2.188      3.173    20.6545   998.0955 0.0000e+00
      2.237      0.029     9.8990    110.119     35.931  32.751047     2.0920      8.207   297.3713 9.9360e+01     4.7211      2.193      3.180    20.6268   998.1014 0.0000e+00
      2.243      0.028     9.8760    109.829     35.826  32.643862     2.0978      8.206   297.3614 9.8953e+01     4.7503      2.199      3.190    20.5897   998.1093 0.0000e+00
      2.250      0.025     9.8520    109.513     35.774  32.580194     2.0967      8.206   297.3935 9.8465e+01     4.7498      2.207      3.201    20.5688   998.1139 0.0000e+00
      2.257      0.023     9.8277    109.191     35.763  32.552363     2.0959      8.205   297.4156 9.7893e+01     4.8136      2.212      3.210    20.5741   998.1127 0.0000e+00
      2.262      0.021     9.7952    108.768     35.795  32.561175     2.0969      8.205   297.4571 9.7461e+01     4.9319      2.218      3.218    20.5763   998.1122 0.0000e+00
      2.267      0.019     9.7494    108.193     35.818  32.559796     2.1007      8.205   297.4642 9.7307e+01     4.9999      2.224      3.225    20.5547   998.1169 0.0000e+00
      2.272      0.017     9.6999    107.592     35.811  32.535651     2.0987      8.204   297.4158 9.7407e+01     5.0129      2.229      3.233    20.5300   998.1221 0.0000e+00
      2.276      0.015     9.6526    107.038     35.808  32.523063     2.1241      8.203   297.4744 9.7533e+01     4.9261      2.232      3.237    20.5090   998.1265 0.0000e+00
      2.278      0.012     9.6048    106.488     35.828  32.534507     2.1910      8.202   297.6559 9.7548e+01     4.7698      2.234      3.240    20.4804   998.1326 0.0000e+00
      2.281      0.010     9.5583    105.943     35.853  32.547087     2.2320      8.202   297.7179 9.7625e+01     4.6958      2.237      3.244    20.4428   998.1405 0.0000e+00
      2.285      0.009     9.5213    105.477     35.875  32.548233     2.2379      8.202   297.6217 9.7798e+01     4.6867      2.241      3.250    20.4175   998.1458 0.0000e+00
      2.287      0.009     9.4973    105.151     35.898  32.548342     2.2870      8.201   297.5242 9.7977e+01     4.6929      2.243      3.253    20.4075   998.1480 0.0000e+00
      2.288      0.009     9.4824    104.960     35.909  32.548374     2.3841      8.199   297.5717 9.8155e+01     4.7044      2.243      3.253    20.4002   998.1496 0.0000e+00
      2.290      0.009     9.4763    104.900     35.906  32.548600     2.4494      8.199   297.6804 9.8173e+01     4.6944      2.245      3.255    20.3916   998.1513 0.0000e+00
      2.293      0.008     9.4837    105.007     35.900  32.551080     2.4785      8.199   297.7191 9.8152e+01     4.7037      2.248      3.261    20.3607   998.1578 0.0000e+00
      2.295      0.008     9.5071    105.299     35.917  32.578371     2.6238      8.198   297.7817 9.8432e+01     4.7836      2.251      3.266    20.3215   998.1662 0.0000e+00
      2.297      0.008     9.5424    105.739     35.949  32.624742     2.8975      8.196   297.7493 9.8954e+01     4.8743      2.253      3.268    20.3087   998.1689 0.0000e+00
      2.299      0.007     9.5822    106.248     35.970  32.667543     3.0649      8.196   297.5003 9.9345e+01     4.9148      2.255      3.270    20.3180   998.1669 0.0000e+00
      2.300      0.006     9.6191    106.733     35.994  32.715148     3.1913      8.195   297.3518 9.9477e+01     5.0117      2.256      3.271    20.3308   998.1642 0.0000e+00
      2.301      0.005     9.6472    107.118     36.012  32.756146     4.3740      8.194   297.4162 9.9869e+01     5.9807      2.257      3.273    20.3454   998.1612 0.0000e+00
      2.303      0.005     9.6662    107.393     36.017  32.782513     6.5356      8.194   297.4187 1.0065e+02     7.7502      2.259      3.276    20.3673   998.1566 0.0000e+00
      2.305      0.005     9.6772    107.572     35.994  32.780131     7.7307      8.194   297.2952 1.0151e+02     8.7415      2.260      3.278    20.4023   998.1492 0.0000e+00
      2.306      0.004     9.6798    107.644     35.920  32.727380     7.9429      8.193   297.1283 1.0246e+02     8.9869      2.261      3.279    20.4420   998.1408 0.0000e+00
      2.307      0.002     9.6762    107.622     35.830  32.652415     8.9459      8.192   297.0354 1.0341e+02    10.4219      2.262      3.281    20.4754   998.1338 0.0000e+00
      2.308     -0.001     9.6700    107.532     35.750  32.571801    10.7540      8.192   297.0324 1.0409e+02    12.9838      2.263      3.283    20.5073   998.1271 0.0000e+00
      2.308     -0.002     9.6650    107.414     35.709  32.514201    11.7360      8.191   297.0056 1.0367e+02    14.3343      2.264      3.283    20.5325   998.1217 0.0000e+00
      2.307     -0.001     9.6611    107.274     35.759  32.527088    11.8280      8.191   296.9694 1.0148e+02    14.4287      2.263      3.282    20.5553   998.1169 0.0000e+00
      2.304      0.000     9.6557    107.108     35.880  32.600648    11.8759      8.190   296.8527 9.8499e+01    14.5185      2.260      3.278    20.5684   998.1140 0.0000e+00
      2.301      0.001     9.6482    106.969     36.017  32.705494    12.2721      8.189   296.7132 9.6607e+01    15.1575      2.255      3.270    20.5562   998.1166 0.0000e+00
      2.302      0.004     9.6399    106.903     36.088  32.779384    12.9938      8.188   296.7454 9.6729e+01    16.2565      2.256      3.273    20.5265   998.1229 0.0000e+00
      2.307      0.005     9.6359    106.891     36.094  32.795991    13.3547      8.188   296.8121 9.8583e+01    16.7946      2.263      3.283    20.4797   998.1329 0.0000e+00
      2.310 -9.990e-29 -9.990e-29 -9.990e-29 -9.990e-29 -9.990e-29 -9.990e-29 -9.990e-29 -9.990e-29 1.0080e+02 -9.990e-29      2.267      3.287    20.4177   998.1460 0.0000e+00
      2.312 -9.990e-29 -9.990e-29 -9.990e-29 -9.990e-29 -9.990e-29 -9.990e-29 -9.990e-29 -9.990e-29 1.0205e+02 -9.990e-29      2.267      3.288    20.3771   998.1545 0.0000e+00
      2.313 -9.990e-29 -9.990e-29 -9.990e-29 -9.990e-29 -9.990e-29 -9.990e-29 -9.990e-29 -9.990e-29 1.0269e+02 -9.990e-29      2.268      3.290    20.4089   998.1478 0.0000e+00
      2.313 -9.990e-29 -9.990e-29 -9.990e-29 -9.990e-29 -9.990e-29 -9.990e-29 -9.990e-29 -9.990e-29 1.0301e+02 -9.990e-29      2.269      3.291    20.4478   998.1397 0.0000e+00
