* Sea-Bird SBE19plus  Data File:
* FileName = C:\DATA\061719_FCR_0005.hex
* Software version 2.8.0.119 SB_Terminal.dll
* Temperature SN = 7809
* Conductivity SN = 7809
* System UpLoad Time = Jun 17 2019 17:01:39
* <ApplicationData>
* <Seaterm232>
* <SoftwareVersion>2.8.0.119</SoftwareVersion>
* <BuildDate>07-Nov-2018</BuildDate>
* </Seaterm232>
* </ApplicationData>
* cast   5 17 Jun 2019 11:13:43 samples 4016 to 4744, avg = 1, stop = mag switch
# nquan = 16
# nvalues = 662                         
# units = specified
# name 0 = depFM: Depth [fresh water, m]
# name 1 = dz/dtM: Descent Rate [m/s]
# name 2 = sbeox0Mg/L: Oxygen, SBE 43 [mg/l]
# name 3 = sbeox0PS: Oxygen, SBE 43 [% saturation]
# name 4 = specc: Specific Conductance [uS/cm]
# name 5 = c0uS/cm: Conductivity [uS/cm]
# name 6 = flECO-AFL: Fluorescence, WET Labs ECO-AFL/FL [mg/m^3]
# name 7 = ph: pH
# name 8 = orp: Oxidation Reduction Potential [mV]
# name 9 = par/sat/log: PAR/Logarithmic, Satlantic
# name 10 = turbWETntu0: Turbidity, WET Labs ECO [NTU]
# name 11 = prdM: Pressure, Strain Gauge [db]
# name 12 = prdE: Pressure, Strain Gauge [psi]
# name 13 = tv290C: Temperature [ITS-90, deg C]
# name 14 = density00: Density [density, kg/m^3]
# name 15 = flag:  0.000e+00
# span 0 =     -0.571,      3.157       
# span 1 =     -0.010,      0.135       
# span 2 =     0.7222,    11.3835       
# span 3 =      7.326,    122.582       
# span 4 =      1.577,     90.130       
# span 5 =   1.606219,  73.829737       
# span 6 =    -1.0261,    85.6956       
# span 7 =      6.614,      9.190       
# span 8 = -1240.7455,   309.5849       
# span 9 = 6.5694e+01, 2.1192e+03       
# span 10 =   -10.5821,    34.8845      
# span 11 =     -0.560,      3.097      
# span 12 =     -0.812,      4.492      
# span 13 =    15.8650,    25.9943      
# span 14 =   996.7937,   999.0099      
# span 15 = 0.0000e+00, 0.0000e+00      
# interval = seconds: 0.25
# start_time = Jun 17 2019 11:13:43 [Instrument's time stamp, header]
# bad_flag = -9.990e-29
# <Sensors count="9" >
#   <sensor Channel="1" >
#     <!-- Count, Temperature -->
#     <TemperatureSensor SensorID="58" >
#       <SerialNumber>7809</SerialNumber>
#       <CalibrationDate>24-Mar-19</CalibrationDate>
#       <A0>1.21792325e-003</A0>
#       <A1>2.81669265e-004</A1>
#       <A2>-1.60333336e-006</A2>
#       <A3>1.98414625e-007</A3>
#       <Slope>1.00000000</Slope>
#       <Offset>0.0000</Offset>
#     </TemperatureSensor>
#   </sensor>
#   <sensor Channel="2" >
#     <!-- Frequency 0, Conductivity -->
#     <ConductivitySensor SensorID="3" >
#       <SerialNumber>7809</SerialNumber>
#       <CalibrationDate>24-Mar-19</CalibrationDate>
#       <UseG_J>1</UseG_J>
#       <!-- Cell const and series R are applicable only for wide range sensors. -->
#       <SeriesR>0.0000</SeriesR>
#       <CellConst>2000.0000</CellConst>
#       <ConductivityType>0</ConductivityType>
#       <Coefficients equation="0" >
#         <A>0.00000000e+000</A>
#         <B>0.00000000e+000</B>
#         <C>0.00000000e+000</C>
#         <D>0.00000000e+000</D>
#         <M>0.0</M>
#         <CPcor>-9.57000000e-008</CPcor>
#       </Coefficients>
#       <Coefficients equation="1" >
#         <G>-1.00589325e+000</G>
#         <H>1.26816302e-001</H>
#         <I>-1.51560448e-004</I>
#         <J>2.67137274e-005</J>
#         <CPcor>-9.57000000e-008</CPcor>
#         <CTcor>3.2500e-006</CTcor>
#         <!-- WBOTC not applicable unless ConductivityType = 1. -->
#         <WBOTC>0.00000000e+000</WBOTC>
#       </Coefficients>
#       <Slope>1.00000000</Slope>
#       <Offset>0.00000</Offset>
#     </ConductivitySensor>
#   </sensor>
#   <sensor Channel="3" >
#     <!-- Count, Pressure, Strain Gauge -->
#     <PressureSensor SensorID="46" >
#       <SerialNumber>7809</SerialNumber>
#       <CalibrationDate>11-Mar-19</CalibrationDate>
#       <PA0>4.56561833e-002</PA0>
#       <PA1>4.85095118e-004</PA1>
#       <PA2>-2.88327090e-012</PA2>
#       <PTEMPA0>-5.48784562e+001</PTEMPA0>
#       <PTEMPA1>5.53756816e+001</PTEMPA1>
#       <PTEMPA2>-5.86727098e-001</PTEMPA2>
#       <PTCA0>5.25246745e+005</PTCA0>
#       <PTCA1>1.22304214e+001</PTCA1>
#       <PTCA2>-3.56745036e-001</PTCA2>
#       <PTCB0>2.51668750e+001</PTCB0>
#       <PTCB1>3.75000000e-004</PTCB1>
#       <PTCB2>0.00000000e+000</PTCB2>
#       <Offset>0.000000</Offset>
#     </PressureSensor>
#   </sensor>
#   <sensor Channel="4" >
#     <!-- A/D voltage 0, Oxygen, SBE 43 -->
#     <OxygenSensor SensorID="38" >
#       <SerialNumber>0434</SerialNumber>
#       <CalibrationDate>13-Apr-19</CalibrationDate>
#       <Use2007Equation>1</Use2007Equation>
#       <CalibrationCoefficients equation="0" >
#         <!-- Coefficients for Owens-Millard equation. -->
#         <Boc>0.0000</Boc>
#         <Soc>0.0000e+000</Soc>
#         <offset>0.0000</offset>
#         <Pcor>0.00e+000</Pcor>
#         <Tcor>0.0000</Tcor>
#         <Tau>0.0</Tau>
#       </CalibrationCoefficients>
#       <CalibrationCoefficients equation="1" >
#         <!-- Coefficients for Sea-Bird equation - SBE calibration in 2007 and later. -->
#         <Soc>4.2007e-001</Soc>
#         <offset>-0.6109</offset>
#         <A>-4.3656e-003</A>
#         <B> 1.7017e-004</B>
#         <C>-2.5341e-006</C>
#         <D0> 2.5826e+000</D0>
#         <D1> 1.92634e-004</D1>
#         <D2>-4.64803e-002</D2>
#         <E> 3.6000e-002</E>
#         <Tau20> 1.1800</Tau20>
#         <H1>-3.3000e-002</H1>
#         <H2> 5.0000e+003</H2>
#         <H3> 1.4500e+003</H3>
#       </CalibrationCoefficients>
#     </OxygenSensor>
#   </sensor>
#   <sensor Channel="5" >
#     <!-- A/D voltage 1, PAR/Logarithmic, Satlantic -->
#     <PARLog_SatlanticSensor SensorID="76" >
#       <SerialNumber>1122</SerialNumber>
#       <CalibrationDate>08-May-2019</CalibrationDate>
#       <a0>9.7456e-001</a0>
#       <a1>8.1640e-001</a1>
#       <Im>1.3589e+000</Im>
#       <Multiplier>1.0000e+000</Multiplier>
#     </PARLog_SatlanticSensor>
#   </sensor>
#   <sensor Channel="6" >
#     <!-- A/D voltage 2, pH -->
#     <pH_Sensor SensorID="43" >
#       <SerialNumber>0363</SerialNumber>
#       <CalibrationDate>15-Apr-19</CalibrationDate>
#       <Slope>4.5952</Slope>
#       <Offset>2.5370</Offset>
#     </pH_Sensor>
#   </sensor>
#   <sensor Channel="7" >
#     <!-- A/D voltage 3, Oxidation Reduction Potential -->
#     <OxidationReductionPotentialSensor SensorID="41" >
#       <SerialNumber>0363</SerialNumber>
#       <CalibrationDate>15-Apr-19</CalibrationDate>
#       <B>2.499480</B>
#       <M>-0.496195</M>
#       <Offset>0.0</Offset>
#     </OxidationReductionPotentialSensor>
#   </sensor>
#   <sensor Channel="8" >
#     <!-- A/D voltage 4, Fluorometer, WET Labs ECO-AFL/FL -->
#     <FluoroWetlabECO_AFL_FL_Sensor SensorID="20" >
#       <SerialNumber>FLNTURT-2496</SerialNumber>
#       <CalibrationDate>08-May-2019</CalibrationDate>
#       <ScaleFactor>5.00000000e+001</ScaleFactor>
#       <!-- Dark output -->
#       <Vblank>0.0550</Vblank>
#     </FluoroWetlabECO_AFL_FL_Sensor>
#   </sensor>
#   <sensor Channel="9" >
#     <!-- A/D voltage 5, Turbidity Meter, WET Labs, ECO-NTU -->
#     <TurbidityMeter SensorID="67" >
#       <SerialNumber>FLNTURT-2496</SerialNumber>
#       <CalibrationDate>08-May-2019</CalibrationDate>
#       <ScaleFactor>189.000000</ScaleFactor>
#       <!-- Dark output -->
#       <DarkVoltage>0.071000</DarkVoltage>
#     </TurbidityMeter>
#   </sensor>
# </Sensors>
# datcnv_date = Jun 17 2019 17:05:34, 7.26.7.129 [datcnv_vars = 15]
# datcnv_in = C:\DATA\061719_FCR_0005.hex C:\DATA\SBE19plusV2_7809.xmlcon
# datcnv_skipover = 0
# datcnv_ox_hysteresis_correction = yes
# datcnv_ox_tau_correction = yes
# filter_date = Jun 17 2019 17:06:38, 7.26.7.129
# filter_in = C:\DATA\061719_FCR_0005.cnv
# filter_low_pass_tc_A = 0.030
# filter_low_pass_tc_B = 0.150
# filter_low_pass_A_vars = prdM prdE tv290C density00
# filter_low_pass_B_vars = depFM dz/dtM sbeox0Mg/L sbeox0PS specc c0uS/cm flECO-AFL ph orp par/sat/log turbWETntu0
# alignctd_date = Jun 17 2019 17:07:04, 7.26.7.129
# alignctd_in = C:\DATA\061719_FCR_0005.cnv
# alignctd_adv = dz/dtM 1.000, sbeox0Mg/L 1.000, sbeox0PS 1.000, specc 1.000, c0uS/cm 1.000, flECO-AFL 1.000, ph 1.000, orp 1.000, turbWETntu0 1.000                                                                                 
# file_type = ascii
*END*
     -0.571 2.3083e-24     7.7100     95.024      2.390   2.437058    -0.1030      6.993 -1151.0425 1.7423e+03    -0.3133     -0.560     -0.812    25.9913   996.7944 0.0000e+00
     -0.571 2.5391e-23     7.7105     95.027      2.253   2.297902    -0.1014      7.001 -1205.5452 1.5068e+03    -0.2849     -0.560     -0.812    25.9922   996.7943 0.0000e+00
     -0.570 2.7930e-22     7.7122     95.038      2.133   2.175471    -0.1059      7.016 -1232.6647 1.1944e+03    -0.2451     -0.559     -0.811    25.9930   996.7941 0.0000e+00
     -0.570 3.0723e-21     7.7130     95.035      2.057   2.097292    -0.1063      7.022 -1240.0109 9.6407e+02    -0.2908     -0.559     -0.811    25.9936   996.7939 0.0000e+00
     -0.570 3.3795e-20     7.7129     95.020      2.011   2.049641    -0.1058      7.019 -1240.6787 8.6319e+02    -0.4110     -0.559     -0.811    25.9943   996.7937 0.0000e+00
     -0.570 3.7175e-19     7.7136     95.013      1.942   1.979502    -0.1085      7.017 -1240.7395 8.1899e+02    -0.4865     -0.559     -0.811    25.9930   996.7940 0.0000e+00
     -0.570 4.0893e-18     7.7144     95.009      1.848   1.882883    -0.1134      7.019 -1240.7450 7.3599e+02    -0.5147     -0.559     -0.811    25.9878   996.7953 0.0000e+00
     -0.570 4.4982e-17     7.7158     95.015      1.736   1.768503    -0.1206      7.020 -1240.7455 5.5271e+02    -0.4907     -0.559     -0.810    25.9800   996.7974 0.0000e+00
     -0.570 4.9480e-16     7.7184     95.038      1.643   1.673702    -0.1184      7.020 -1240.7455 3.4132e+02    -0.4578     -0.559     -0.812    25.9713   996.7997 0.0000e+00
     -0.570 5.4428e-15     7.7209     95.062      1.593   1.623715    -0.1134      7.019 -1240.7455 2.3397e+02    -0.4783     -0.560     -0.811    25.9618   996.8022 0.0000e+00
     -0.570 5.9871e-14     7.7215     95.059      1.578   1.607653    -0.1199      7.018 -1240.7455 2.0497e+02    -0.5083     -0.559     -0.810    25.9530   996.8045 0.0000e+00
     -0.570 6.5858e-13     7.7209     95.039      1.577   1.606219    -0.1193      7.018 -1240.7455 1.8614e+02    -0.5261     -0.559     -0.811    25.9463   996.8063 0.0000e+00
     -0.570 7.2444e-12     7.7225     95.046      1.577   1.606372    -0.1058      7.019 -1240.7455 1.7450e+02    -0.5286     -0.559     -0.811    25.9424   996.8073 0.0000e+00
     -0.570 7.9688e-11     7.7250     95.067      1.580   1.609512    -0.1045      7.021 -1240.7455 1.7499e+02    -0.5063     -0.559     -0.811    25.9395   996.8081 0.0000e+00
     -0.570 8.7657e-10     7.7244     95.054      1.614   1.644186    -0.1119      7.022 -1240.7455 2.4530e+02    -0.4862     -0.559     -0.811    25.9336   996.8097 0.0000e+00
     -0.570 9.6422e-09     7.7233     95.036      1.678   1.708794    -0.1179      7.024 -1240.7455 3.8932e+02    -0.4827     -0.559     -0.811    25.9252   996.8119 0.0000e+00
     -0.570 1.0606e-07     7.7243     95.045      1.725   1.757065    -0.1244      7.024 -1240.7454 4.9057e+02    -0.4957     -0.559     -0.811    25.9169   996.8141 0.0000e+00
     -0.570      0.000     7.7255     95.057      1.752   1.784285    -0.1301      7.021 -1240.7444 5.3415e+02    -0.5461     -0.559     -0.811    25.9113   996.8156 0.0000e+00
     -0.570      0.000     7.7260     95.060      1.753   1.784462    -0.1432      6.999 -1240.7332 5.9463e+02    -0.5346     -0.559     -0.811    25.9081   996.8164 0.0000e+00
     -0.570      0.000     7.7255     95.046      1.728   1.759217    -0.3526      6.804 -1240.6099 6.9514e+02    -0.1262     -0.559     -0.811    25.9065   996.8169 0.0000e+00
     -0.570      0.002     7.7282     95.024      2.515   2.556192    -0.7720      6.614 -1239.2537 8.3395e+02     0.5235     -0.559     -0.811    25.9046   996.8174 0.0000e+00
     -0.571      0.007     7.7431     95.024      6.959   7.048313    -1.0170      6.821 -1224.3353 1.0033e+03     0.8323     -0.560     -0.812    25.9028   996.8178 0.0000e+00
     -0.571      0.018     7.7700     95.048     14.597  14.747127    -1.0261      7.190 -1060.2337 1.1767e+03     0.8549     -0.560     -0.812    25.9001   996.8185 0.0000e+00
     -0.570      0.032     7.7968     95.067     20.871  21.030292    -0.9611      7.455  -620.2995 1.3159e+03     0.6004     -0.560     -0.812    25.9001   996.8186 0.0000e+00
     -0.565      0.046     7.8167     95.077     26.198  26.333407    -0.3780      7.681  -106.4250 1.3895e+03    -2.3441     -0.560     -0.811    25.8960   996.8195 0.0000e+00
     -0.547      0.060     7.8307     95.085     31.307  31.416516     0.6926      7.925   196.0842 1.3944e+03    -7.7087     -0.541     -0.785    25.7936   996.8472 0.0000e+00
     -0.521      0.075     7.8404     95.087     33.496  33.572827     1.2678      8.209   280.7017 1.3729e+03   -10.5821     -0.508     -0.737    25.5771   996.9071 0.0000e+00
     -0.498      0.089     7.8484     95.091     33.582  33.624199     1.2786      8.480   289.0215 1.3671e+03   -10.4749     -0.486     -0.704    25.3820   996.9594 0.0000e+00
     -0.480      0.100     7.8578     95.090     33.499  33.497244     0.8231      8.705   291.8601 1.2782e+03    -6.7400     -0.474     -0.686    25.2557   996.9935 0.0000e+00
     -0.457      0.107     7.8741     95.087     33.449  33.370478    -0.0523      8.877   293.3407 9.9123e+02     0.0996     -0.454     -0.657    25.1666   997.0191 0.0000e+00
     -0.424      0.114     7.9030     95.117     33.433  33.233696    -0.5406      8.990   293.5018 7.4046e+02     3.7940     -0.415     -0.602    25.1044   997.0354 0.0000e+00
     -0.389      0.123     7.9418     95.200     33.458  33.112474    -0.5543      9.058   292.5169 6.9115e+02     4.0746     -0.379     -0.550    25.0591   997.0470 0.0000e+00
     -0.359      0.131     7.9819     95.336     33.588  33.110348    -0.2095      9.106   291.3265 6.2044e+02     3.5914     -0.355     -0.515    25.0082   997.0602 0.0000e+00
     -0.326      0.135     8.0203     95.542     33.783  33.207783     0.4196      9.139   289.8635 4.8174e+02     2.6052     -0.323     -0.467    24.9052   997.0866 0.0000e+00
     -0.289      0.134     8.0572     95.822     33.913  33.275032     0.7576      9.159   288.1642 3.9675e+02     2.0476     -0.284     -0.411    24.7116   997.1361 0.0000e+00
     -0.251      0.129     8.0907     96.150     33.954  33.288749     0.7921      9.172   286.7843 3.6218e+02     1.9942     -0.247     -0.358    24.4678   997.1977 0.0000e+00
     -0.214      0.121     8.1197     96.490     33.977  33.310135     0.8365      9.183   285.8271 3.5141e+02     1.8938     -0.207     -0.300    24.2619   997.2495 0.0000e+00
     -0.184      0.110     8.1457     96.814     34.006  33.343215     0.9038      9.189   285.5383 3.5768e+02     1.6862     -0.176     -0.255    24.1263   997.2833 0.0000e+00
     -0.160      0.096     8.1692     97.107     34.030  33.371418     0.9298      9.190   285.8746 4.5264e+02     1.5491     -0.157     -0.228    24.0354   997.3060 0.0000e+00
     -0.139      0.081     8.1892     97.358     34.051  33.397300     0.9168      9.186   286.6235 8.5731e+02     1.5468     -0.136     -0.197    23.9992   997.3149 0.0000e+00
     -0.119      0.066     8.2047     97.560     34.050  33.402309     0.8943      9.178   287.4516 1.4599e+03     1.5928     -0.115     -0.167    24.0109   997.3122 0.0000e+00
     -0.104      0.053     8.2156     97.702     34.010  33.368526     0.8743      9.168   287.8857 1.8038e+03     1.6134     -0.101     -0.147    24.0213   997.3098 0.0000e+00
     -0.093      0.043     8.2211     97.762     33.948  33.306157     0.8744      9.158   287.9139 1.8702e+03     1.5990     -0.090     -0.130    24.0264   997.3086 0.0000e+00
     -0.084      0.034     8.2244     97.757     33.877  33.219372     0.8777      9.148   287.8787 1.8726e+03     1.5827     -0.082     -0.119    24.0333   997.3069 0.0000e+00
     -0.078      0.026     8.2296     97.709     33.777  33.080732     0.8626      9.138   288.0623 1.8498e+03     1.5475     -0.076     -0.110    24.0441   997.3042 0.0000e+00
     -0.074      0.020     8.2375     97.625     33.657  32.899031     0.8562      9.131   288.4136 1.8219e+03     1.5012     -0.072     -0.105    24.0551   997.3015 0.0000e+00
     -0.070      0.016     8.2440     97.499     33.567  32.735792     0.8873      9.126   288.5985 1.8074e+03     1.5468     -0.069     -0.100    24.0550   997.3016 0.0000e+00
     -0.067      0.014     8.2406     97.268     33.531  32.629962     0.9266      9.121   288.4047 1.8015e+03     1.6400     -0.065     -0.094    24.0376   997.3058 0.0000e+00
     -0.063      0.012     8.2215     96.878     33.532  32.571255     0.9317      9.116   288.0492 1.7799e+03     1.6445     -0.062     -0.089    23.9797   997.3201 0.0000e+00
     -0.060      0.011     8.1877     96.352     33.542  32.533553     0.8894      9.112   287.6566 1.6462e+03     1.6352     -0.059     -0.086    23.8723   997.3464 0.0000e+00
     -0.057      0.009     8.1450     95.747     33.538  32.491346     0.8308      9.108   287.0985 1.2716e+03     1.6581     -0.056     -0.082    23.7524   997.3758 0.0000e+00
     -0.054      0.008     8.0973     95.100     33.520  32.441637     0.7950      9.103   286.7225 7.9290e+02     1.6271     -0.053     -0.077    23.6459   997.4018 0.0000e+00
     -0.053      0.008     8.0416     94.386     33.541  32.440156     0.7860      9.095   286.8105 5.0488e+02     1.5547     -0.051     -0.074    23.5540   997.4241 0.0000e+00
     -0.053      0.008     7.9784     93.608     33.590  32.473408     0.8091      9.088   287.2159 4.4001e+02     1.5362     -0.052     -0.076    23.4863   997.4405 0.0000e+00
     -0.052      0.008     7.9145     92.827     33.592  32.462911     0.8488      9.085   287.6659 6.4712e+02     1.6002     -0.053     -0.077    23.4329   997.4534 0.0000e+00
     -0.048      0.009     7.8575     92.118     33.585  32.440139     0.8674      9.085   287.8632 9.4226e+02     1.6414     -0.047     -0.069    23.3799   997.4662 0.0000e+00
     -0.044      0.012     7.8110     91.524     33.616  32.451884     0.8614      9.083   287.7949 8.8167e+02     1.6083     -0.043     -0.062    23.3462   997.4743 0.0000e+00
     -0.042      0.015     7.7665     90.956     33.663  32.477978     0.8189      9.077   287.7001 7.4495e+02     1.5595     -0.041     -0.060    23.3316   997.4778 0.0000e+00
     -0.040      0.016     7.7123     90.284     33.703  32.501763     0.7520      9.067   287.7492 1.0683e+03     1.5431     -0.040     -0.057    23.3164   997.4814 0.0000e+00
     -0.036      0.016     7.6473     89.490     33.699  32.485609     0.7286      9.055   287.8726 1.6800e+03     1.5739     -0.036     -0.052    23.2929   997.4870 0.0000e+00
     -0.029      0.013     7.5773     88.639     33.633  32.409564     0.7443      9.044   287.9875 2.0584e+03     1.6364     -0.029     -0.041    23.2622   997.4944 0.0000e+00
     -0.022      0.010     7.5139     87.869     33.577  32.343810     0.7422      9.035   288.1059 2.1192e+03     1.6441     -0.020     -0.029    23.2327   997.5016 0.0000e+00
     -0.019      0.006     7.4657     87.283     33.567  32.325151     0.7299      9.027   288.1854 2.0795e+03     1.6008     -0.016     -0.023    23.2112   997.5068 0.0000e+00
     -0.020      0.002     7.4277     86.822     33.559  32.310869     0.7335      9.020   288.3468 2.0449e+03     1.6043     -0.020     -0.028    23.1949   997.5107 0.0000e+00
     -0.024     -0.001     7.3899     86.361     33.554  32.298043     0.7430      9.013   288.5949 2.0386e+03     1.6211     -0.026     -0.036    23.1756   997.5152 0.0000e+00
     -0.026     -0.002     7.3448     85.811     33.563  32.296982     0.7407      9.007   288.6035 2.0305e+03     1.6075     -0.027     -0.039    23.1561   997.5198 0.0000e+00
     -0.025     -0.002     7.2913     85.163     33.574  32.298022     0.7316      9.001   288.4513 2.0175e+03     1.6362     -0.025     -0.037    23.1433   997.5228 0.0000e+00
     -0.024     -0.001     7.2392     84.534     33.596  32.310599     0.7289      8.994   288.3895 2.0273e+03     1.7391     -0.024     -0.034    23.1353   997.5247 0.0000e+00
     -0.024      0.001     7.2075     84.147     33.616  32.322128     0.7334      8.986   288.3730 2.0545e+03     1.8365     -0.024     -0.034    23.1246   997.5273 0.0000e+00
     -0.024      0.002     7.2137     84.206     33.610  32.310487     0.7345      8.979   288.4235 2.0683e+03     1.8629     -0.025     -0.036    23.1087   997.5311 0.0000e+00
     -0.024      0.001     7.2643     84.786     33.600  32.296757     0.7415      8.973   288.5697 2.0574e+03     1.7959     -0.025     -0.036    23.0930   997.5349 0.0000e+00
     -0.023      0.000     7.3579     85.868     33.590  32.283025     0.7663      8.969   288.6774 2.0370e+03     1.6815     -0.023     -0.033    23.0802   997.5379 0.0000e+00
     -0.023     -0.001     7.4866     87.362     33.581  32.271374     0.7832      8.964   288.6932 2.0201e+03     1.5939     -0.022     -0.032    23.0703   997.5402 0.0000e+00
     -0.024     -0.001     7.6374     89.112     33.596  32.282799     0.7894      8.959   288.6755 2.0058e+03     1.5567     -0.023     -0.033    23.0626   997.5420 0.0000e+00
     -0.025     -0.001     7.7935     90.928     33.611  32.294241     0.7799      8.954   288.6350 1.9864e+03     1.5596     -0.025     -0.036    23.0552   997.5438 0.0000e+00
     -0.026     -0.001     7.9365     92.592     33.601  32.282798     0.7465      8.951   288.5473 1.9549e+03     1.5626     -0.026     -0.038    23.0495   997.5452 0.0000e+00
     -0.026     -0.001     8.0530     93.943     33.592  32.271354     0.7242      8.948   288.3900 1.9221e+03     1.5611     -0.025     -0.037    23.0444   997.5463 0.0000e+00
     -0.025     -0.001     8.1362     94.906     33.607  32.282787     0.7276      8.944   288.1096 1.9119e+03     1.6060     -0.025     -0.036    23.0390   997.5477 0.0000e+00
     -0.024     -0.002     8.1832     95.448     33.622  32.294117     0.7618      8.939   287.7380 1.9249e+03     1.6791     -0.024     -0.034    23.0360   997.5484 0.0000e+00
     -0.024     -0.003     8.2001     95.640     33.610  32.281417     0.8164      8.932   287.5107 1.9264e+03     1.7243     -0.023     -0.034    23.0339   997.5489 0.0000e+00
     -0.025     -0.003     8.2001     95.636     33.585  32.256147     0.8504      8.927   287.4262 1.8667e+03     1.7603     -0.024     -0.035    23.0295   997.5499 0.0000e+00
     -0.027     -0.002     8.1896     95.511     33.572  32.242415     0.8609      8.926   287.2331 1.7022e+03     1.8184     -0.027     -0.039    23.0236   997.5513 0.0000e+00
     -0.030      0.001     8.1658     95.232     33.572  32.242300     0.8906      8.926   287.0676 1.4728e+03     1.8049     -0.030     -0.043    23.0196   997.5523 0.0000e+00
     -0.031      0.005     8.1243     94.751     33.585  32.254759     0.9415      8.923   286.9751 1.3470e+03     1.6616     -0.032     -0.046    23.0179   997.5526 0.0000e+00
     -0.029      0.010     8.0637     94.046     33.595  32.266131     0.9641      8.918   286.7163 1.4403e+03     1.5611     -0.031     -0.044    23.0157   997.5532 0.0000e+00
     -0.024      0.013     7.9865     93.146     33.580  32.252885     0.9641      8.909   286.3477 1.6801e+03     1.5730     -0.025     -0.036    23.0137   997.5537 0.0000e+00
     -0.017      0.014     7.8997     92.131     33.549  32.221522     0.9685      8.899   286.1326 1.8897e+03     1.5760     -0.016     -0.024    23.0132   997.5538 0.0000e+00
     -0.011      0.013     7.8114     91.099     33.533  32.204215     0.9731      8.890   286.0946 1.9616e+03     1.5648     -0.010     -0.014    23.0147   997.5535 0.0000e+00
     -0.008      0.010     7.7262     90.105     33.564  32.234005     0.9766      8.881   286.0611 1.9454e+03     1.5684     -0.007     -0.010    23.0180   997.5527 0.0000e+00
     -0.007      0.006     7.6452     89.161     33.594  32.264425     0.9765      8.874   286.0715 1.9087e+03     1.5536     -0.007     -0.010    23.0183   997.5526 0.0000e+00
     -0.008      0.002     7.5707     88.295     33.583  32.254718     0.9706      8.869   286.0475 1.8592e+03     1.5826     -0.008     -0.011    23.0147   997.5535 0.0000e+00
     -0.008     -0.001     7.5049     87.531     33.571  32.243556     0.9584      8.864   285.9424 1.8132e+03     1.6249     -0.008     -0.012    23.0133   997.5538 0.0000e+00
     -0.009     -0.001     7.4506     86.901     33.583  32.256386     0.9331      8.858   285.9191 1.7953e+03     1.6064     -0.009     -0.012    23.0134   997.5538 0.0000e+00
     -0.010     -0.001     7.4110     86.441     33.610  32.282925     0.9071      8.853   285.9389 1.7968e+03     1.5878     -0.010     -0.014    23.0139   997.5537 0.0000e+00
     -0.010      0.000     7.3849     86.138     33.638  32.310607     0.8952      8.847   285.8372 1.7821e+03     1.5640     -0.011     -0.015    23.0164   997.5531 0.0000e+00
     -0.010      0.001     7.3707     85.976     33.664  32.337248     0.8853      8.842   285.5502 1.7426e+03     1.6132     -0.010     -0.015    23.0179   997.5527 0.0000e+00
     -0.009      0.001     7.3650     85.919     33.674  32.351209     0.8739      8.838   285.3080 1.7047e+03     1.7901     -0.009     -0.014    23.0190   997.5524 0.0000e+00
     -0.008      0.001     7.3594     85.871     33.668  32.352498     0.8612      8.834   285.3173 1.6791e+03     1.8673     -0.008     -0.012    23.0209   997.5521 0.0000e+00
     -0.008      0.000     7.3479     85.756     33.661  32.352841     0.8444      8.829   285.4047 1.6681e+03     1.8262     -0.007     -0.010    23.0212   997.5520 0.0000e+00
     -0.008     -0.001     7.3283     85.541     33.657  32.355358     0.8272      8.824   285.4179 1.6740e+03     1.8504     -0.007     -0.010    23.0222   997.5518 0.0000e+00
     -0.009     -0.001     7.2982     85.197     33.682  32.382945     0.8093      8.819   285.4775 1.6811e+03     1.8978     -0.009     -0.012    23.0280   997.5503 0.0000e+00
     -0.010     -0.002     7.2559     84.712     33.731  32.432569     0.8016      8.813   285.6087 1.6763e+03     1.9076     -0.010     -0.014    23.0399   997.5475 0.0000e+00
     -0.010     -0.003     7.2034     84.108     33.742  32.447684     0.8033      8.807   285.6278 1.6622e+03     1.9034     -0.010     -0.015    23.0533   997.5444 0.0000e+00
     -0.010     -0.003     7.1436     83.424     33.726  32.438787     0.8119      8.802   285.5366 1.6516e+03     1.9115     -0.010     -0.015    23.0619   997.5423 0.0000e+00
     -0.011     -0.003     7.0805     82.700     33.734  32.451916     0.8365      8.797   285.5384 1.6540e+03     1.9408     -0.010     -0.014    23.0659   997.5414 0.0000e+00
     -0.012     -0.002     7.0170     81.968     33.758  32.479511     0.8500      8.793   285.7354 1.6656e+03     1.9301     -0.013     -0.017    23.0690   997.5407 0.0000e+00
     -0.014     -0.002     6.9544     81.244     33.796  32.518619     0.8452      8.789   285.8534 1.6704e+03     1.8473     -0.015     -0.021    23.0750   997.5392 0.0000e+00
     -0.014     -0.003     6.8912     80.514     33.818  32.544013     0.8469      8.785   285.5884 1.6642e+03     1.7590     -0.015     -0.021    23.0848   997.5369 0.0000e+00
     -0.013     -0.005     6.8280     79.786     33.802  32.532703     0.8446      8.781   285.1985 1.6730e+03     1.7147     -0.013     -0.018    23.0948   997.5346 0.0000e+00
     -0.013     -0.006     6.7673     79.086     33.773  32.508803     0.8263      8.776   284.9246 1.7110e+03     1.6720     -0.012     -0.017    23.1004   997.5332 0.0000e+00
     -0.016     -0.007     6.7093     78.417     33.768  32.508883     0.7983      8.769   284.8581 1.7492e+03     1.6030     -0.014     -0.021    23.1037   997.5324 0.0000e+00
     -0.020     -0.009     6.6543     77.780     33.791  32.533677     0.7758      8.760   284.9971 1.7403e+03     1.5681     -0.020     -0.029    23.1099   997.5309 0.0000e+00
     -0.023     -0.010     6.6026     77.180     33.811  32.554752     0.7619      8.752   284.9696 1.6576e+03     1.5784     -0.024     -0.035    23.1171   997.5292 0.0000e+00
     -0.025     -0.010     6.5517     76.589     33.829  32.573327     0.7521      8.746   284.7842 1.5420e+03     1.5967     -0.024     -0.035    23.1235   997.5277 0.0000e+00
     -0.026     -0.008     6.5016     76.011     33.819  32.567890     0.7522      8.741   284.7354 1.4841e+03     1.6247     -0.025     -0.036    23.1298   997.5261 0.0000e+00
     -0.030     -0.004     6.4559     75.487     33.799  32.552476     0.7460      8.736   284.7229 1.5036e+03     1.6224     -0.030     -0.043    23.1346   997.5250 0.0000e+00
     -0.032     -0.002     6.4134     74.999     33.820  32.577341     0.7475      8.732   284.6333 1.5343e+03     1.6012     -0.034     -0.049    23.1362   997.5246 0.0000e+00
     -0.032      0.000     6.3729     74.534     33.855  32.614697     0.7776      8.728   284.5121 1.5433e+03     1.5986     -0.033     -0.047    23.1377   997.5242 0.0000e+00
     -0.029      0.002     6.3353     74.103     33.860  32.623388     0.7982      8.723   284.4625 1.5602e+03     1.5911     -0.029     -0.041    23.1431   997.5230 0.0000e+00
     -0.027      0.003     6.2985     73.682     33.850  32.618981     0.7968      8.717   284.4632 1.6032e+03     1.6082     -0.026     -0.038    23.1505   997.5212 0.0000e+00
     -0.026      0.003     6.2624     73.268     33.851  32.624874     0.8038      8.712   284.3483 1.6468e+03     1.6417     -0.026     -0.038    23.1569   997.5197 0.0000e+00
     -0.027      0.002     6.2294     72.892     33.853  32.631183     0.8228      8.707   284.2787 1.6685e+03     1.6352     -0.027     -0.038    23.1629   997.5183 0.0000e+00
     -0.027      0.001     6.1996     72.553     33.848  32.631808     0.8352      8.702   284.3955 1.6722e+03     1.6273     -0.027     -0.039    23.1690   997.5168 0.0000e+00
     -0.026      0.001     6.1725     72.245     33.844  32.632433     0.8417      8.697   284.5562 1.6702e+03     1.6126     -0.026     -0.038    23.1758   997.5152 0.0000e+00
     -0.026      0.001     6.1472     71.957     33.847  32.638745     0.8317      8.692   284.6727 1.6727e+03     1.5566     -0.026     -0.038    23.1833   997.5134 0.0000e+00
     -0.026      0.001     6.1222     71.672     33.849  32.644671     0.8017      8.687   284.6863 1.6812e+03     1.5401     -0.026     -0.037    23.1905   997.5117 0.0000e+00
     -0.026      0.001     6.1004     71.426     33.840  32.640633     0.7901      8.682   284.6349 1.6909e+03     1.5757     -0.026     -0.038    23.1974   997.5101 0.0000e+00
     -0.026      0.000     6.0826     71.226     33.850  32.653391     0.8044      8.677   284.6532 1.6972e+03     1.6277     -0.025     -0.037    23.2038   997.5085 0.0000e+00
     -0.026      0.000     6.0661     71.041     33.865  32.672013     0.8105      8.673   284.7352 1.6977e+03     1.6442     -0.025     -0.037    23.2098   997.5071 0.0000e+00
     -0.025      0.000     6.0521     70.883     33.865  32.675423     0.8375      8.670   284.7659 1.6931e+03     1.5786     -0.025     -0.036    23.2157   997.5057 0.0000e+00
     -0.025     -0.001     6.0408     70.756     33.881  32.694613     0.9135      8.665   284.6805 1.6852e+03     1.5226     -0.025     -0.036    23.2216   997.5043 0.0000e+00
     -0.026     -0.001     6.0304     70.639     33.898  32.713664     0.9666      8.661   284.5627 1.6738e+03     1.5574     -0.026     -0.037    23.2276   997.5028 0.0000e+00
     -0.026     -0.001     6.0226     70.554     33.896  32.715397     0.9683      8.656   284.5465 1.6580e+03     1.6385     -0.026     -0.037    23.2335   997.5015 0.0000e+00
     -0.027      0.000     6.0182     70.509     33.893  32.715563     0.9083      8.651   284.5697 1.6379e+03     1.7162     -0.027     -0.038    23.2386   997.5003 0.0000e+00
     -0.028      0.001     6.0132     70.459     33.889  32.715681     0.8043      8.646   284.5862 1.6139e+03     1.7760     -0.027     -0.039    23.2431   997.4992 0.0000e+00
     -0.028      0.001     6.0062     70.385     33.886  32.716836     0.7513      8.643   284.5735 1.5963e+03     1.8041     -0.028     -0.040    23.2474   997.4982 0.0000e+00
     -0.027      0.001     6.0003     70.322     33.896  32.729528     0.7439      8.639   284.4169 1.6052e+03     1.8266     -0.027     -0.038    23.2517   997.4971 0.0000e+00
     -0.025      0.000     5.9980     70.297     33.908  32.742219     0.7415      8.634   284.2412 1.6457e+03     1.8523     -0.025     -0.036    23.2569   997.4958 0.0000e+00
     -0.025     -0.001     5.9992     70.314     33.908  32.743373     0.7397      8.629   284.2559 1.6950e+03     1.8522     -0.023     -0.034    23.2631   997.4944 0.0000e+00
     -0.025     -0.002     6.0024     70.358     33.905  32.743478     0.7306      8.624   284.4225 1.7162e+03     1.8257     -0.024     -0.034    23.2693   997.4929 0.0000e+00
     -0.026     -0.003     6.0055     70.404     33.899  32.743487     0.7266      8.618   284.5347 1.6665e+03     1.8257     -0.025     -0.037    23.2742   997.4917 0.0000e+00
     -0.028     -0.003     6.0071     70.434     33.893  32.743487     0.7176      8.612   284.5792 1.5265e+03     1.7876     -0.028     -0.041    23.2756   997.4914 0.0000e+00
     -0.030     -0.002     6.0076     70.450     33.888  32.743496     0.6997      8.608   284.6175 1.3637e+03     1.6591     -0.030     -0.043    23.2756   997.4913 0.0000e+00
     -0.030      0.000     6.0076     70.460     33.883  32.743599     0.6921      8.604   284.6531 1.2972e+03     1.5839     -0.029     -0.042    23.2803   997.4902 0.0000e+00
     -0.029      0.002     6.0060     70.451     33.879  32.744743     0.6865      8.598   284.7512 1.3709e+03     1.5992     -0.028     -0.041    23.2893   997.4881 0.0000e+00
     -0.027      0.004     6.0021     70.414     33.887  32.757330     0.6929      8.590   284.8571 1.5099e+03     1.6800     -0.027     -0.039    23.2984   997.4860 0.0000e+00
     -0.026      0.004     5.9967     70.361     33.894  32.768876     0.7172      8.583   284.9875 1.5987e+03     1.7735     -0.026     -0.037    23.3057   997.4842 0.0000e+00
     -0.025      0.003     5.9892     70.281     33.878  32.757433     0.7283      8.577   285.1233 1.5861e+03     1.7801     -0.024     -0.035    23.3125   997.4825 0.0000e+00
     -0.023      0.002     5.9811     70.194     33.862  32.745894     0.7239      8.572   285.1227 1.5053e+03     1.7599     -0.023     -0.033    23.3200   997.4807 0.0000e+00
     -0.023      0.001     5.9751     70.132     33.868  32.756286     0.7161      8.568   285.1518 1.4254e+03     1.7918     -0.023     -0.033    23.3274   997.4790 0.0000e+00
     -0.024      0.000     5.9691     70.070     33.863  32.756172     0.7034      8.564   285.3035 1.3924e+03     1.8377     -0.024     -0.034    23.3344   997.4773 0.0000e+00
     -0.025      0.000     5.9628     70.003     33.847  32.744520     0.6913      8.561   285.2365 1.3916e+03     1.8227     -0.025     -0.036    23.3407   997.4758 0.0000e+00
     -0.025      0.000     5.9589     69.965     33.841  32.742325     0.6908      8.557   285.0293 1.3731e+03     1.7752     -0.025     -0.036    23.3469   997.4743 0.0000e+00
     -0.026      0.001     5.9562     69.940     33.824  32.729642     0.6973      8.554   285.0349 1.3168e+03     1.7872     -0.025     -0.037    23.3531   997.4728 0.0000e+00
     -0.026      0.002     5.9492     69.864     33.809  32.718095     0.7095      8.552   285.1325 1.2373e+03     1.8368     -0.025     -0.037    23.3593   997.4713 0.0000e+00
     -0.025      0.003     5.9402     69.764     33.818  32.729632     0.7353      8.549   285.0907 1.1564e+03     1.8503     -0.026     -0.037    23.3653   997.4698 0.0000e+00
     -0.023      0.003     5.9324     69.679     33.828  32.742219     0.7484      8.546   284.9602 1.1149e+03     1.8188     -0.022     -0.032    23.3711   997.4685 0.0000e+00
     -0.021      0.002     5.9246     69.594     33.826  32.743372     0.7386      8.544   284.9315 1.1311e+03     1.7843     -0.020     -0.029    23.3764   997.4672 0.0000e+00
     -0.020      0.000     5.9206     69.554     33.822  32.743579     0.7375      8.541   285.0011 1.1502e+03     1.7281     -0.019     -0.028    23.3807   997.4661 0.0000e+00
     -0.021 4.5042e-07     5.9184     69.536     33.819  32.744732     0.7437      8.538   285.0279 1.1139e+03     1.6312     -0.020     -0.029    23.3849   997.4651 0.0000e+00
     -0.023      0.000     5.9122     69.470     33.828  32.757320     0.7437      8.535   284.9979 1.0214e+03     1.5636     -0.023     -0.033    23.3897   997.4640 0.0000e+00
     -0.024      0.000     5.9071     69.416     33.837  32.768857     0.7463      8.533   284.9816 9.0838e+02     1.5661     -0.024     -0.035    23.3947   997.4628 0.0000e+00
     -0.024      0.001     5.9078     69.431     33.821  32.757308     0.7495      8.530   284.9166 8.3386e+02     1.6611     -0.024     -0.035    23.4002   997.4614 0.0000e+00
     -0.022      0.002     5.9097     69.459     33.805  32.744616     0.7484      8.525   284.9003 8.3198e+02     1.7936     -0.022     -0.032    23.4061   997.4601 0.0000e+00
     -0.020      0.003     5.9100     69.470     33.799  32.742317     0.7509      8.522   285.0431 8.6465e+02     1.8252     -0.020     -0.029    23.4117   997.4587 0.0000e+00
     -0.020      0.003     5.9100     69.476     33.782  32.729521     0.7531      8.519   285.0946 8.6599e+02     1.7814     -0.020     -0.029    23.4165   997.4575 0.0000e+00
     -0.020      0.002     5.9095     69.477     33.766  32.716819     0.7401      8.517   285.0061 8.0741e+02     1.7554     -0.019     -0.028    23.4210   997.4565 0.0000e+00
     -0.019      0.001     5.9077     69.462     33.762  32.715664     0.7326      8.514   285.0063 7.1320e+02     1.7724     -0.018     -0.027    23.4257   997.4553 0.0000e+00
     -0.019      0.001     5.9037     69.422     33.758  32.715569     0.7397      8.510   285.0116 6.2837e+02     1.8242     -0.018     -0.026    23.4309   997.4541 0.0000e+00
     -0.020      0.001     5.8985     69.366     33.755  32.715671     0.7396      8.505   284.8979 5.6988e+02     1.8569     -0.019     -0.028    23.4361   997.4528 0.0000e+00
     -0.020      0.000     5.8927     69.302     33.754  32.716904     0.7396      8.502   284.8350 5.2020e+02     1.8728     -0.019     -0.028    23.4407   997.4517 0.0000e+00
     -0.020      0.000     5.8866     69.234     33.766  32.730479     0.7571      8.500   284.8538 4.6506e+02     1.8854     -0.019     -0.028    23.4454   997.4506 0.0000e+00
     -0.019      0.001     5.8794     69.154     33.786  32.752878     0.7866      8.497   284.8672 4.1443e+02     1.8788     -0.018     -0.027    23.4503   997.4494 0.0000e+00
     -0.019      0.001     5.8705     69.054     33.764  32.733892     0.8017      8.494   284.8244 3.9016e+02     1.8904     -0.018     -0.026    23.4546   997.4483 0.0000e+00
     -0.018      0.001     5.8618     68.957     33.718  32.691306     0.7920      8.492   284.7669 3.9505e+02     1.8944     -0.018     -0.026    23.4581   997.4475 0.0000e+00
     -0.018      0.001     5.8542     68.871     33.707  32.682196     0.7653      8.491   284.7747 4.1487e+02     1.7962     -0.017     -0.025    23.4614   997.4467 0.0000e+00
     -0.018      0.000     5.8459     68.774     33.581  32.560294     0.7388      8.489   284.7467 4.3853e+02     1.6540     -0.017     -0.025    23.4651   997.4458 0.0000e+00
     -0.018 4.3166e-07     5.8410     68.698     33.318  32.296201     0.7314      8.487   284.6855 4.5412e+02     1.5845     -0.017     -0.025    23.4686   997.4450 0.0000e+00
     -0.018      0.000     5.8885     69.184     33.209  32.154358     0.7369      8.484   284.6377 4.6744e+02     1.5780     -0.018     -0.026    23.4719   997.4441 0.0000e+00
     -0.018      0.000     6.1088     71.638     33.300  32.177877     0.7353      8.481   284.5989 5.0827e+02     1.6412     -0.018     -0.026    23.4752   997.4434 0.0000e+00
     -0.018      0.001     6.5863     77.100     33.388  32.199716     0.7212      8.477   284.6463 5.8056e+02     1.7582     -0.018     -0.026    23.4770   997.4430 0.0000e+00
     -0.018      0.001     7.2617     84.910     33.394  32.164476     0.7218      8.475   284.6947 6.5020e+02     1.8137     -0.018     -0.026    23.4776   997.4427 0.0000e+00
     -0.017      0.002     8.0026     93.509     33.386  32.132491     0.7429      8.474   284.6680 6.9160e+02     1.8203     -0.017     -0.024    23.4285   997.4545 0.0000e+00
     -0.016      0.002     8.7047    101.665     33.401  32.130247     0.7598      8.472   284.6685 7.1609e+02     1.8386     -0.015     -0.022    23.3070   997.4837 0.0000e+00
     -0.016      0.002     9.3099    108.705     33.419  32.137317     0.7702      8.468   284.6999 7.5891e+02     1.8374     -0.015     -0.022    23.1996   997.5094 0.0000e+00
     -0.015      0.001     9.7782    114.175     33.436  32.154506     0.7823      8.465   284.7895 8.5084e+02     1.8384     -0.015     -0.022    23.1470   997.5220 0.0000e+00
     -0.015      0.001    10.0742    117.650     33.423  32.147694     0.8019      8.463   284.8914 9.9004e+02     1.8515     -0.015     -0.021    23.1148   997.5296 0.0000e+00
     -0.015      0.001    10.1937    119.044     33.393  32.118429     0.7993      8.461   284.8991 1.1332e+03     1.8643     -0.015     -0.021    23.0885   997.5360 0.0000e+00
     -0.015      0.001    10.1683    118.719     33.401  32.117968     0.7594      8.458   284.9687 1.2424e+03     1.8622     -0.015     -0.021    23.0709   997.5401 0.0000e+00
     -0.015      0.001    10.0553    117.369     33.436  32.142103     0.7351      8.455   285.0442 1.3236e+03     1.8257     -0.015     -0.021    23.0733   997.5395 0.0000e+00
     -0.015      0.001     9.9121    115.689     33.453  32.156392     0.7483      8.452   284.7797 1.4019e+03     1.8166     -0.015     -0.021    23.0906   997.5354 0.0000e+00
     -0.014      0.001     9.7711    114.057     33.457  32.163808     0.7717      8.449   281.0832 1.4923e+03     1.8178     -0.014     -0.020    23.0918   997.5352 0.0000e+00
     -0.014      0.002     9.6481    112.639     33.456  32.168315     0.7840      8.445   273.8191 1.5887e+03     1.7746     -0.013     -0.020    23.0730   997.5396 0.0000e+00
     -0.014      0.003     9.5521    111.521     33.433  32.147442     0.7926      8.443   273.0091 1.6703e+03     1.7526     -0.014     -0.020    23.0547   997.5439 0.0000e+00
     -0.014      0.007     9.4832    110.698     33.392  32.101812     0.8062      8.443   279.8935 1.7397e+03     1.7809     -0.014     -0.020    23.0513   997.5448 0.0000e+00
     -0.013      0.013     9.4304    110.038     33.363  32.060807     0.8191      8.440   283.5796 1.8349e+03     1.7891     -0.013     -0.019    23.0611   997.5425 0.0000e+00
     -0.011      0.021     9.3819    109.400     33.358  32.032380     0.8353      8.433   278.8603 1.9464e+03     1.7216     -0.011     -0.017    23.0723   997.5398 0.0000e+00
     -0.006      0.031     9.3346    108.756     33.368  32.011907     0.8463      8.425   269.3794 2.0397e+03     1.6201     -0.007     -0.011    23.0755   997.5391 0.0000e+00
      0.003      0.040     9.2896    108.148     33.388  32.003605     0.8479      8.420   267.8927 2.0381e+03     1.5776      0.001      0.001    23.0657   997.5414 0.0000e+00
      0.018      0.047     9.2485    107.603     33.402  31.995415     0.8550      8.418   275.6833 1.9535e+03     1.6005      0.017      0.026    23.0468   997.5460 0.0000e+00
      0.034      0.053     9.2147    107.149     33.402  31.976313     0.8375      8.415   280.2026 1.8129e+03     1.6025      0.035      0.050    23.0120   997.5543 0.0000e+00
      0.048      0.055     9.1917    106.830     33.407  31.962990     0.7744      8.412   280.5482 1.5487e+03     1.5685      0.047      0.069    22.9587   997.5669 0.0000e+00
      0.063      0.053     9.1794    106.650     33.417  31.961213     0.7254      8.410   280.2066 1.4125e+03     1.5830      0.061      0.089    22.9164   997.5770 0.0000e+00
      0.078      0.050     9.1768    106.594     33.420  31.954809     0.7212      8.407   275.1256 1.4276e+03     1.6141      0.076      0.111    22.8902   997.5832 0.0000e+00
      0.091      0.050     9.1862    106.682     33.421  31.949013     0.7317      8.403   265.7475 1.3797e+03     1.6496      0.091      0.132    22.8578   997.5909 0.0000e+00
      0.100      0.050     9.2073    106.907     33.433  31.954573     0.7312      8.398   259.9120 1.4742e+03     1.7500      0.100      0.145    22.8309   997.5974 0.0000e+00
      0.108      0.050     9.2321    107.177     33.444  31.958574     0.7234      8.394   258.4287 1.7063e+03     1.8127      0.102      0.148    22.8143   997.6013 0.0000e+00
      0.123      0.045     9.2520    107.392     33.423  31.933921     0.7242      8.393   257.7931 1.6891e+03     1.8179      0.116      0.170    22.8002   997.6046 0.0000e+00
      0.142      0.038     9.2622    107.502     33.402  31.910316     0.7329      8.392   257.4762 1.4643e+03     1.8449      0.142      0.206    22.7914   997.6068 0.0000e+00
      0.156      0.030     9.2609    107.486     33.420  31.926998     0.7420      8.391   257.1785 1.3683e+03     1.8778      0.157      0.227    22.7830   997.6088 0.0000e+00
      0.161      0.020     9.2513    107.383     33.435  31.945249     0.7385      8.389   256.6890 1.3769e+03     1.8868      0.161      0.233    22.7720   997.6115 0.0000e+00
      0.160      0.012     9.2363    107.225     33.425  31.940614     0.7258      8.387   256.2033 1.4032e+03     1.8565      0.158      0.229    22.7644   997.6132 0.0000e+00
      0.156      0.007     9.2172    107.019     33.414  31.934417     0.7440      8.385   256.0381 1.4515e+03     1.8387      0.152      0.221    22.7604   997.6141 0.0000e+00
      0.153      0.005     9.1948    106.767     33.410  31.933792     0.7853      8.383   255.9817 1.4395e+03     1.8685      0.147      0.214    22.7591   997.6145 0.0000e+00
      0.155      0.006     9.1692    106.470     33.409  31.933063     0.7916      8.381   255.7795 1.3680e+03     1.8555      0.149      0.217    22.7642   997.6132 0.0000e+00
      0.163      0.006     9.1447    106.184     33.402  31.925599     0.7766      8.380   255.4855 1.2876e+03     1.7805      0.160      0.232    22.7742   997.6109 0.0000e+00
      0.170      0.006     9.1285    105.997     33.383  31.907005     0.7776      8.378   255.2665 1.2389e+03     1.7475      0.168      0.245    22.7824   997.6090 0.0000e+00
      0.171      0.006     9.1250    105.958     33.373  31.898616     0.7784      8.376   255.1120 1.2880e+03     1.7845      0.169      0.245    22.7858   997.6082 0.0000e+00
      0.167      0.010     9.1323    106.040     33.362  31.887627     0.7600      8.371   254.9080 1.3633e+03     1.8343      0.165      0.238    22.7849   997.6084 0.0000e+00
      0.162      0.016     9.1453    106.174     33.316  31.837590     0.7371      8.362   254.6918 1.3725e+03     1.8584      0.158      0.229    22.7838   997.6087 0.0000e+00
      0.162      0.021     9.1575    106.280     33.290  31.801276     0.7265      8.355   254.5629 1.3970e+03     1.8463      0.154      0.224    22.7843   997.6085 0.0000e+00
      0.172      0.026     9.1663    106.346     33.332  31.829287     0.7275      8.353   254.5541 1.4146e+03     1.8193      0.164      0.238    22.7863   997.6080 0.0000e+00
      0.191      0.030     9.1740    106.417     33.370  31.858974     0.7317      8.353   254.5851 1.3138e+03     1.8267      0.187      0.272    22.7865   997.6082 0.0000e+00
      0.206      0.031     9.1819    106.504     33.355  31.842915     0.7345      8.353   254.6806 1.2237e+03     1.8372      0.207      0.301    22.7799   997.6098 0.0000e+00
      0.211      0.027     9.1878    106.571     33.337  31.825495     0.7349      8.351   254.8485 1.2104e+03     1.8157      0.210      0.305    22.7595   997.6146 0.0000e+00
      0.210      0.019     9.1876    106.566     33.351  31.838725     0.7459      8.349   254.8930 1.3035e+03     1.8292      0.203      0.295    22.7359   997.6201 0.0000e+00
      0.211      0.010     9.1833    106.521     33.388  31.875956     0.7803      8.349   254.8755 1.4504e+03     1.8682      0.205      0.298    22.7283   997.6219 0.0000e+00
      0.216      0.005     9.1824    106.522     33.404  31.894912     0.8035      8.349   254.9801 1.4539e+03     1.8620      0.214      0.310    22.7287   997.6218 0.0000e+00
      0.219      0.006     9.1899    106.620     33.382  31.877557     0.8006      8.349   255.0391 1.3913e+03     1.8200      0.216      0.314    22.7280   997.6219 0.0000e+00
      0.217      0.009     9.2044    106.791     33.359  31.856494     0.8148      8.347   254.9015 1.3447e+03     1.7525      0.212      0.308    22.7263   997.6224 0.0000e+00
      0.215      0.015     9.2200    106.967     33.334  31.830612     0.8547      8.344   254.7788 1.3107e+03     1.6695      0.208      0.303    22.7275   997.6221 0.0000e+00
      0.218      0.028     9.2338    107.114     33.259  31.754986     0.8748      8.339   254.7603 1.2755e+03     1.6351      0.212      0.307    22.7359   997.6202 0.0000e+00
      0.225      0.047     9.2468    107.234     33.149  31.640121     0.8592      8.333   254.7635 1.2406e+03     1.6324      0.220      0.320    22.7432   997.6184 0.0000e+00
      0.234      0.066     9.2582    107.303     33.112  31.584014     0.8300      8.326   254.8183 1.2286e+03     1.6699      0.228      0.329    22.7435   997.6184 0.0000e+00
      0.253      0.079     9.2613    107.259     33.139  31.584226     0.8075      8.322   254.8198 1.1696e+03     1.7604      0.241      0.348    22.7396   997.6194 0.0000e+00
      0.288      0.084     9.2513    107.076     33.157  31.579195     0.7955      8.322   254.7813 1.1415e+03     1.8093      0.281      0.408    22.7355   997.6205 0.0000e+00
      0.324      0.082     9.2288    106.772     33.180  31.586602     0.7898      8.324   254.8700 1.2418e+03     1.8345      0.325      0.472    22.7250   997.6231 0.0000e+00
      0.347      0.076     9.2001    106.415     33.214  31.610307     0.7908      8.324   255.0315 1.5262e+03     1.8691      0.343      0.497    22.6919   997.6309 0.0000e+00
      0.358      0.066     9.1734    106.095     33.219  31.611971     0.7895      8.323   255.0995 1.6787e+03     1.9319      0.353      0.511    22.6442   997.6422 0.0000e+00
      0.366      0.055     9.1521    105.841     33.216  31.606712     0.7828      8.322   255.1759 1.3551e+03     2.0041      0.359      0.520    22.6094   997.6503 0.0000e+00
      0.374      0.047     9.1338    105.616     33.224  31.610183     0.7791      8.321   255.4390 1.0927e+03     2.0206      0.364      0.529    22.5924   997.6542 0.0000e+00
      0.388      0.043     9.1173    105.411     33.209  31.590476     0.7891      8.319   255.7000 1.1768e+03     2.0338      0.379      0.550    22.5782   997.6577 0.0000e+00
      0.403      0.042     9.1056    105.262     33.180  31.558799     0.8336      8.318   255.7496 1.2531e+03     1.9999      0.397      0.576    22.5738   997.6588 0.0000e+00
      0.415      0.040     9.0970    105.149     33.170  31.544453     0.8919      8.316   255.7810 1.2284e+03     1.9057      0.408      0.591    22.5744   997.6587 0.0000e+00
      0.424      0.037     9.0857    105.005     33.173  31.543933     0.9136      8.314   255.9931 1.1601e+03     1.8775      0.415      0.602    22.5656   997.6607 0.0000e+00
      0.432      0.033     9.0693    104.805     33.186  31.552508     0.9132      8.313   256.2489 1.0171e+03     1.8893      0.425      0.616    22.5577   997.6626 0.0000e+00
      0.438      0.033     9.0490    104.565     33.221  31.584668     0.9134      8.313   256.4646 8.9571e+02     1.8512      0.430      0.623    22.5514   997.6641 0.0000e+00
      0.443      0.036     9.0290    104.343     33.251  31.615485     0.9165      8.312   256.6230 8.9961e+02     1.7771      0.433      0.628    22.5444   997.6657 0.0000e+00
      0.451      0.040     9.0166    104.218     33.237  31.607838     0.9245      8.311   256.7875 9.6304e+02     1.7471      0.440      0.639    22.5384   997.6671 0.0000e+00
      0.463      0.044     9.0154    104.215     33.178  31.555666     0.9234      8.309   256.9901 9.8661e+02     1.7839      0.452      0.655    22.5323   997.6686 0.0000e+00
      0.478      0.045     9.0239    104.309     33.113  31.492334     0.9027      8.306   257.0951 9.3330e+02     1.8618      0.469      0.680    22.5275   997.6698 0.0000e+00
      0.494      0.044     9.0399    104.474     33.103  31.476665     0.8658      8.303   257.1956 8.7032e+02     1.9682      0.487      0.706    22.5326   997.6687 0.0000e+00
      0.506      0.039     9.0568    104.648     33.128  31.493125     0.8416      8.300   257.3451 8.4612e+02     2.0539      0.498      0.722    22.5456   997.6658 0.0000e+00
      0.515      0.031     9.0684    104.769     33.141  31.500963     0.8435      8.297   257.4402 8.5780e+02     2.0777      0.505      0.733    22.5530   997.6640 0.0000e+00
      0.521      0.024     9.0737    104.826     33.151  31.507969     0.8708      8.296   257.4847 8.8360e+02     1.9947      0.512      0.743    22.5507   997.6645 0.0000e+00
      0.524      0.019     9.0728    104.817     33.157  31.514380     0.9030      8.296   257.5392 8.8120e+02     1.8693      0.515      0.747    22.5383   997.6674 0.0000e+00
      0.526      0.017     9.0663    104.748     33.155  31.515014     0.9042      8.295   257.6688 8.4709e+02     1.8397      0.515      0.747    22.5246   997.6707 0.0000e+00
      0.528      0.018     9.0553    104.632     33.151  31.515638     0.9018      8.294   257.8475 7.9371e+02     1.8658      0.517      0.750    22.5184   997.6721 0.0000e+00
      0.532      0.021     9.0426    104.494     33.155  31.521931     0.9173      8.293   257.9787 6.8794e+02     1.8578      0.520      0.755    22.5173   997.6724 0.0000e+00
      0.539      0.025     9.0317    104.374     33.159  31.527659     0.9355      8.292   257.9651 5.5753e+02     1.8087      0.526      0.764    22.5175   997.6724 0.0000e+00
      0.548      0.029     9.0266    104.320     33.150  31.521443     0.9572      8.292   257.9408 4.7472e+02     1.7641      0.537      0.779    22.5208   997.6716 0.0000e+00
      0.557      0.031     9.0299    104.360     33.138  31.510224     0.9640      8.291   258.1145 4.3465e+02     1.7770      0.547      0.793    22.5280   997.6700 0.0000e+00
      0.564      0.033     9.0422    104.497     33.083  31.455468     0.9569      8.288   258.3454 4.2295e+02     1.8340      0.553      0.802    22.5329   997.6689 0.0000e+00
      0.571      0.034     9.0600    104.688     32.995  31.367044     0.9754      8.286   258.4953 4.3825e+02     1.8954      0.559      0.811    22.5345   997.6686 0.0000e+00
      0.580      0.034     9.0780    104.864     32.966  31.329478     1.0228      8.285   258.7219 4.7089e+02     1.9626      0.569      0.825    22.5383   997.6677 0.0000e+00
      0.589      0.035     9.0905    104.968     32.969  31.318520     1.0532      8.283   259.0200 5.0217e+02     1.9906      0.578      0.838    22.5389   997.6676 0.0000e+00
      0.598      0.035     9.0938    104.970     32.960  31.297993     1.0477      8.281   259.1748 5.1897e+02     2.0046      0.586      0.850    22.5360   997.6683 0.0000e+00
      0.608      0.035     9.0918    104.920     32.941  31.271641     1.0254      8.280   259.3028 5.5739e+02     2.0663      0.597      0.865    22.5328   997.6691 0.0000e+00
      0.617      0.034     9.0892    104.870     32.929  31.253708     0.9916      8.279   259.5351 6.3098e+02     2.0813      0.606      0.878    22.5148   997.6732 0.0000e+00
      0.626      0.032     9.0857    104.816     32.952  31.271525     0.9683      8.277   259.6601 7.0023e+02     2.0219      0.614      0.890    22.4899   997.6791 0.0000e+00
      0.634      0.029     9.0802    104.748     32.981  31.296692     0.9699      8.277   259.6963 7.5295e+02     1.9713      0.622      0.902    22.4722   997.6832 0.0000e+00
      0.641      0.027     9.0742    104.680     32.988  31.304175     1.0025      8.277   259.8007 7.8461e+02     1.9934      0.628      0.911    22.4594   997.6862 0.0000e+00
      0.647      0.025     9.0728    104.670     32.980  31.298545     1.0588      8.277   259.9762 7.8393e+02     2.0603      0.635      0.921    22.4492   997.6886 0.0000e+00
      0.653      0.024     9.0770    104.727     32.970  31.292084     1.0871      8.278   260.2692 7.8650e+02     2.0595      0.640      0.928    22.4423   997.6902 0.0000e+00
      0.658      0.024     9.0808    104.781     32.963  31.289509     1.0940      8.278   260.5903 7.9556e+02     2.0159      0.645      0.935    22.4407   997.6906 0.0000e+00
      0.664      0.025     9.0802    104.783     32.937  31.267422     1.1250      8.278   260.8477 7.8221e+02     2.0244      0.651      0.944    22.4421   997.6904 0.0000e+00
      0.669      0.027     9.0812    104.797     32.881  31.215394     1.1668      8.276   261.0577 7.8821e+02     2.0639      0.656      0.952    22.4445   997.6898 0.0000e+00
      0.675      0.028     9.0895    104.884     32.835  31.168090     1.1831      8.275   261.2358 8.0482e+02     2.0665      0.662      0.960    22.4489   997.6887 0.0000e+00
      0.684      0.028     9.1010    104.996     32.812  31.139668     1.1744      8.274   261.3668 7.7977e+02     2.0240      0.669      0.972    22.4553   997.6873 0.0000e+00
      0.694      0.028     9.1076    105.048     32.806  31.125557     1.1649      8.273   261.3518 7.6278e+02     2.0086      0.681      0.987    22.4606   997.6862 0.0000e+00
      0.702      0.027     9.1037    104.983     32.811  31.124369     1.1986      8.273   261.3125 7.8033e+02     2.0450      0.689      1.000    22.4626   997.6857 0.0000e+00
      0.708      0.027     9.0915    104.831     32.816  31.125292     1.2615      8.273   261.4075 7.9156e+02     2.0708      0.694      1.007    22.4585   997.6867 0.0000e+00
      0.713      0.027     9.0782    104.669     32.831  31.136716     1.2916      8.273   261.5542 8.0117e+02     2.0579      0.698      1.013    22.4468   997.6894 0.0000e+00
      0.718      0.027     9.0658    104.519     32.833  31.135571     1.2949      8.272   261.7092 8.1712e+02     2.0194      0.703      1.020    22.4326   997.6927 0.0000e+00
      0.725      0.027     9.0526    104.356     32.811  31.111457     1.3186      8.271   261.9057 8.1884e+02     1.9989      0.710      1.030    22.4226   997.6951 0.0000e+00
      0.733      0.026     9.0382    104.179     32.801  31.098977     1.3699      8.270   262.1231 8.0051e+02     2.0398      0.719      1.043    22.4175   997.6963 0.0000e+00
      0.742      0.023     9.0257    104.027     32.818  31.111573     1.3954      8.268   262.2725 7.7776e+02     2.0551      0.729      1.056    22.4137   997.6972 0.0000e+00
      0.749      0.020     9.0176    103.930     32.845  31.136842     1.3920      8.268   262.4210 7.5894e+02     2.0211      0.736      1.067    22.4099   997.6981 0.0000e+00
      0.753      0.015     9.0142    103.898     32.858  31.150677     1.3816      8.268   262.6280 7.3720e+02     2.0212      0.740      1.072    22.4060   997.6990 0.0000e+00
      0.755      0.011     9.0171    103.941     32.856  31.151944     1.3641      8.268   262.7968 7.2422e+02     2.0553      0.741      1.074    22.3995   997.7005 0.0000e+00
      0.755      0.009     9.0262    104.053     32.853  31.152162     1.3537      8.267   262.9135 7.3394e+02     2.1064      0.741      1.075    22.3934   997.7019 0.0000e+00
      0.755      0.009     9.0383    104.198     32.852  31.153320     1.3434      8.265   263.0061 7.5181e+02     2.1149      0.741      1.074    22.3921   997.7023 0.0000e+00
      0.756      0.012     9.0497    104.327     32.867  31.165951     1.3343      8.265   263.0559 7.4488e+02     2.0928      0.741      1.075    22.3962   997.7013 0.0000e+00
      0.759      0.016     9.0577    104.407     32.884  31.177961     1.3392      8.265   262.9997 7.2103e+02     2.0687      0.743      1.078    22.4028   997.6998 0.0000e+00
      0.766      0.021     9.0606    104.431     32.880  31.171621     1.3432      8.264   263.0145 7.0790e+02     2.0193      0.750      1.088    22.4062   997.6991 0.0000e+00
      0.773      0.027     9.0573    104.390     32.929  31.216200     1.3469      8.264   263.2341 6.9672e+02     2.0195      0.759      1.101    22.4106   997.6981 0.0000e+00
      0.780      0.035     9.0499    104.292     33.060  31.336220     1.3837      8.262   263.4188 7.0162e+02     2.0059      0.764      1.110    22.4104   997.6981 0.0000e+00
      0.787      0.042     9.0418    104.158     33.158  31.417110     1.4413      8.258   263.5266 7.2002e+02     1.9207      0.770      1.117    22.3994   997.7007 0.0000e+00
      0.798      0.047     9.0344    104.021     33.193  31.432743     1.4720      8.256   263.7635 7.0612e+02     1.8744      0.780      1.130    22.3940   997.7020 0.0000e+00
      0.813      0.051     9.0315    103.949     33.238  31.461763     1.4774      8.254   264.0457 6.6390e+02     1.8394      0.796      1.154    22.3970   997.7013 0.0000e+00
      0.831      0.052     9.0405    104.025     33.303  31.514136     1.4799      8.251   264.1860 6.2090e+02     1.7934      0.815      1.182    22.3942   997.7021 0.0000e+00
      0.847      0.049     9.0655    104.285     33.359  31.558315     1.4677      8.248   264.2555 6.0504e+02     1.8417      0.830      1.204    22.3719   997.7074 0.0000e+00
      0.860      0.044     9.1036    104.699     33.361  31.551710     1.4338      8.245   264.2837 6.2851e+02     1.9651      0.844      1.224    22.3382   997.7152 0.0000e+00
      0.870      0.039     9.1461    105.172     33.310  31.497724     1.4092      8.244   264.2685 6.4279e+02     2.0392      0.856      1.241    22.3200   997.7195 0.0000e+00
      0.877      0.034     9.1846    105.610     33.289  31.476675     1.4033      8.244   264.3297 6.3574e+02     2.0501      0.861      1.248    22.3097   997.7219 0.0000e+00
      0.881      0.031     9.2161    105.971     33.301  31.487590     1.3974      8.244   264.4214 6.2334e+02     1.9979      0.863      1.252    22.2950   997.7253 0.0000e+00
      0.887      0.031     9.2397    106.233     33.320  31.502777     1.3984      8.244   264.5167 5.9914e+02     1.8997      0.868      1.259    22.2814   997.7285 0.0000e+00
      0.897      0.031     9.2575    106.420     33.358  31.533380     1.4069      8.243   264.6218 5.9639e+02     1.8462      0.878      1.274    22.2719   997.7306 0.0000e+00
      0.907      0.032     9.2718    106.566     33.372  31.540310     1.4139      8.242   264.6606 6.1518e+02     1.8096      0.890      1.291    22.2716   997.7308 0.0000e+00
      0.917      0.033     9.2796    106.645     33.358  31.523110     1.4216      8.242   264.7270 6.3151e+02     1.7522      0.900      1.305    22.2742   997.7303 0.0000e+00
      0.925      0.032     9.2804    106.644     33.353  31.515783     1.4223      8.242   264.9082 6.3830e+02     1.7420      0.907      1.316    22.2692   997.7314 0.0000e+00
      0.931      0.031     9.2769    106.594     33.356  31.515169     1.4228      8.240   265.1315 6.0278e+02     1.7840      0.913      1.324    22.2586   997.7339 0.0000e+00
      0.939      0.029     9.2725    106.535     33.360  31.515681     1.4271      8.237   265.2757 5.5106e+02     1.8016      0.920      1.334    22.2487   997.7363 0.0000e+00
      0.946      0.028     9.2668    106.466     33.368  31.521967     1.4225      8.236   265.3612 5.5212e+02     1.7912      0.929      1.346    22.2439   997.7374 0.0000e+00
      0.953      0.027     9.2570    106.351     33.375  31.527715     1.4103      8.235   265.4764 5.8011e+02     1.7893      0.935      1.356    22.2409   997.7380 0.0000e+00
      0.961      0.026     9.2457    106.217     33.370  31.521730     1.4011      8.235   265.5499 5.6194e+02     1.8122      0.941      1.366    22.2343   997.7396 0.0000e+00
      0.968      0.026     9.2388    106.132     33.362  31.513047     1.4068      8.236   265.5619 5.1215e+02     1.8709      0.951      1.379    22.2292   997.7408 0.0000e+00
      0.973      0.027     9.2370    106.107     33.335  31.486190     1.4269      8.237   265.6223 4.7450e+02     1.9093      0.955      1.385    22.2284   997.7410 0.0000e+00
      0.978      0.028     9.2380    106.112     33.300  31.450820     1.4539      8.237   265.7637 4.5099e+02     1.8831      0.959      1.390    22.2281   997.7411 0.0000e+00
      0.984      0.029     9.2420    106.148     33.320  31.466129     1.4722      8.237   265.8937 4.3710e+02     1.8163      0.965      1.399    22.2256   997.7417 0.0000e+00
      0.993      0.031     9.2469    106.199     33.338  31.480919     1.4754      8.237   265.9902 4.3196e+02     1.7893      0.973      1.411    22.2223   997.7425 0.0000e+00
      1.003      0.034     9.2510    106.246     33.294  31.439269     1.4666      8.237   266.1566 4.3586e+02     1.8188      0.984      1.428    22.2215   997.7428 0.0000e+00
      1.012      0.036     9.2529    106.266     33.260  31.406741     1.4006      8.236   266.2701 4.5094e+02     1.8135      0.992      1.440    22.2185   997.7434 0.0000e+00
      1.020      0.038     9.2538    106.260     33.263  31.404916     1.2923      8.236   266.3306 4.6650e+02     1.7908      0.999      1.450    22.2113   997.7451 0.0000e+00
      1.030      0.038     9.2566    106.267     33.285  31.417181     1.2324      8.235   266.5437 4.7110e+02     1.8056      1.009      1.465    22.2084   997.7459 0.0000e+00
      1.041      0.037     9.2573    106.257     33.302  31.428112     1.2228      8.234   266.7816 4.7767e+02     1.8291      1.022      1.481    22.2106   997.7453 0.0000e+00
      1.051      0.037     9.2536    106.208     33.286  31.410164     1.2284      8.234   266.9697 4.8750e+02     1.8446      1.032      1.496    22.2120   997.7451 0.0000e+00
      1.061      0.036     9.2514    106.179     33.267  31.390539     1.2305      8.233   267.0979 4.9247e+02     1.8629      1.040      1.509    22.2028   997.7473 0.0000e+00
      1.070      0.034     9.2543    106.210     33.258  31.381204     1.2222      8.231   267.1269 4.9681e+02     1.8536      1.049      1.522    22.1864   997.7510 0.0000e+00
      1.077      0.032     9.2624    106.302     33.236  31.360746     1.2235      8.229   267.2349 5.0803e+02     1.8297      1.056      1.532    22.1781   997.7530 0.0000e+00
      1.085      0.032     9.2753    106.447     33.208  31.333549     1.2380      8.227   267.3708 5.2607e+02     1.8366      1.064      1.543    22.1765   997.7533 0.0000e+00
      1.092      0.033     9.2871    106.575     33.182  31.306196     1.2418      8.225   267.3935 5.2911e+02     1.8389      1.071      1.554    22.1743   997.7539 0.0000e+00
      1.100      0.033     9.2953    106.654     33.164  31.283842     1.2338      8.224   267.3366 5.1594e+02     1.8246      1.078      1.564    22.1729   997.7543 0.0000e+00
      1.109      0.034     9.3032    106.722     33.139  31.253626     1.2280      8.223   267.1140 5.0400e+02     1.8276      1.087      1.576    22.1735   997.7541 0.0000e+00
      1.119      0.034     9.3083    106.752     33.086  31.194662     1.2407      8.223   266.8524 4.9590e+02     1.8748      1.098      1.591    22.1731   997.7543 0.0000e+00
      1.129      0.034     9.3092    106.734     33.040  31.142009     1.2752      8.222   266.6691 4.8891e+02     1.9044      1.108      1.607    22.1699   997.7550 0.0000e+00
      1.137      0.033     9.3067    106.683     33.030  31.124635     1.2893      8.221   266.4458 4.7974e+02     1.8573      1.115      1.618    22.1619   997.7569 0.0000e+00
      1.145      0.031     9.3012    106.606     33.021  31.111491     1.2895      8.220   266.3043 4.7644e+02     1.8299      1.123      1.629    22.1503   997.7596 0.0000e+00
      1.153      0.029     9.2969    106.548     33.022  31.109993     1.3120      8.219   266.2484 4.8559e+02     1.8346      1.131      1.641    22.1358   997.7629 0.0000e+00
      1.160      0.027     9.2959    106.532     33.019  31.106518     1.3369      8.219   266.2004 4.8964e+02     1.8161      1.138      1.651    22.1209   997.7664 0.0000e+00
      1.166      0.026     9.2945    106.508     32.983  31.069483     1.3389      8.218   266.3264 4.8121e+02     1.8031      1.143      1.658    22.1102   997.7688 0.0000e+00
      1.172      0.026     9.2891    106.432     32.959  31.042928     1.3369      8.216   266.4807 4.7667e+02     1.8084      1.149      1.666    22.1032   997.7704 0.0000e+00
      1.178      0.026     9.2801    106.312     32.961  31.039257     1.3381      8.215   266.4314 4.7224e+02     1.8144      1.156      1.676    22.0996   997.7712 0.0000e+00
      1.185      0.026     9.2710    106.189     32.953  31.025090     1.3357      8.215   266.3326 4.6333e+02     1.8104      1.162      1.686    22.0987   997.7715 0.0000e+00
      1.192      0.026     9.2613    106.058     32.932  30.998533     1.3422      8.215   266.2323 4.6231e+02     1.8257      1.169      1.696    22.0955   997.7723 0.0000e+00
      1.199      0.025     9.2457    105.860     32.910  30.971977     1.3480      8.215   266.1658 4.6451e+02     1.8357      1.175      1.705    22.0884   997.7740 0.0000e+00
      1.206      0.024     9.2206    105.558     32.900  30.957811     1.3452      8.215   266.3027 4.6100e+02     1.8002      1.183      1.716    22.0797   997.7759 0.0000e+00
      1.212      0.023     9.1849    105.135     32.901  30.954153     1.3857      8.213   266.5966 4.5362e+02     1.8549      1.189      1.725    22.0705   997.7780 0.0000e+00
      1.217      0.022     9.1418    104.628     32.877  30.927743     1.4740      8.212   266.8805 4.4591e+02     2.0054      1.193      1.731    22.0596   997.7805 0.0000e+00
      1.222      0.024     9.0974    104.104     32.845  30.892304     1.5201      8.212   267.2399 4.4429e+02     2.0477      1.199      1.739    22.0497   997.7828 0.0000e+00
      1.227      0.029     9.0515    103.554     32.869  30.906391     1.5184      8.211   267.8448 4.5226e+02     2.0061      1.203      1.746    22.0430   997.7843 0.0000e+00
      1.232      0.035     9.0021    102.947     32.953  30.971143     1.5223      8.210   268.5150 4.6121e+02     2.0262      1.206      1.751    22.0367   997.7858 0.0000e+00
      1.240      0.040     8.9528    102.331     33.045  31.040648     1.5328      8.210   269.0621 4.5975e+02     2.0946      1.213      1.760    22.0298   997.7874 0.0000e+00
      1.254      0.042     8.9083    101.774     33.139  31.112189     1.5408      8.209   269.4696 4.5530e+02     2.1115      1.229      1.780    22.0231   997.7889 0.0000e+00
      1.271      0.042     8.8730    101.331     33.249  31.201566     1.5416      8.209   269.7427 4.5860e+02     2.0660      1.248      1.810    22.0130   997.7913 0.0000e+00
      1.286      0.040     8.8523    101.064     33.360  31.296352     1.5515      8.209   269.9557 4.6308e+02     2.0365      1.263      1.833    21.9909   997.7964 0.0000e+00
      1.294      0.037     8.8563    101.083     33.448  31.369846     1.5825      8.209   270.1517 4.6586e+02     2.0500      1.271      1.843    21.9607   997.8033 0.0000e+00
      1.299      0.032     8.8987    101.541     33.482  31.392146     1.6038      8.209   270.3907 4.6675e+02     2.0655      1.274      1.848    21.9343   997.8093 0.0000e+00
      1.304      0.028     8.9821    102.468     33.473  31.375597     1.6013      8.209   270.6096 4.6489e+02     2.0593      1.278      1.854    21.9149   997.8138 0.0000e+00
      1.310      0.026     9.0946    103.736     33.463  31.360112     1.5866      8.210   270.6475 4.6017e+02     2.0736      1.284      1.862    21.9011   997.8169 0.0000e+00
      1.319      0.026     9.2245    105.207     33.504  31.395277     1.5826      8.212   270.6767 4.4638e+02     2.1078      1.293      1.875    21.8879   997.8200 0.0000e+00
      1.327      0.026     9.3655    106.805     33.601  31.483484     1.5957      8.214   270.7909 4.2893e+02     2.1122      1.303      1.889    21.8734   997.8233 0.0000e+00
      1.333      0.025     9.5056    108.389     33.664  31.538222     1.5978      8.215   270.9097 4.2123e+02     2.0932      1.307      1.897    21.8607   997.8262 0.0000e+00
      1.339      0.023     9.6286    109.774     33.682  31.549449     1.5826      8.215   271.0802 4.2277e+02     2.0752      1.312      1.904    21.8520   997.8282 0.0000e+00
      1.344      0.020     9.7256    110.866     33.693  31.555761     1.5846      8.216   271.2173 4.2150e+02     2.0579      1.319      1.914    21.8483   997.8291 0.0000e+00
      1.349      0.017     9.7957    111.657     33.691  31.551084     1.6220      8.217   271.2773 4.1716e+02     2.0481      1.323      1.919    21.8454   997.8298 0.0000e+00
      1.353      0.015     9.8490    112.257     33.699  31.556345     1.6531      8.218   271.2892 4.1862e+02     2.0554      1.327      1.925    21.8381   997.8314 0.0000e+00
      1.357      0.015     9.8978    112.809     33.700  31.555919     1.6576      8.220   271.2752 4.2132e+02     2.0479      1.331      1.931    21.8282   997.8337 0.0000e+00
      1.359      0.016     9.9443    113.337     33.690  31.545929     1.6846      8.222   271.1940 4.1705e+02     2.0232      1.333      1.934    21.8215   997.8352 0.0000e+00
      1.362      0.018     9.9895    113.851     33.709  31.562464     1.7368      8.223   270.9101 4.1592e+02     2.0182      1.334      1.936    21.8180   997.8360 0.0000e+00
      1.367      0.021    10.0333    114.343     33.714  31.565469     1.7688      8.223   270.3378 4.2415e+02     2.0202      1.340      1.943    21.8151   997.8367 0.0000e+00
      1.374      0.024    10.0670    114.718     33.667  31.518816     1.7850      8.223   269.3499 4.2858e+02     2.0148      1.347      1.954    21.8133   997.8372 0.0000e+00
      1.381      0.026    10.0846    114.908     33.589  31.442574     1.7856      8.223   267.6558 4.2197e+02     1.9540      1.354      1.964    21.8122   997.8374 0.0000e+00
      1.389      0.027    10.0887    114.944     33.485  31.341650     1.7765      8.224   265.6862 4.0877e+02     1.8421      1.362      1.975    21.8119   997.8375 0.0000e+00
      1.397      0.027    10.0843    114.883     33.390  31.250397     1.7786      8.224   264.3782 3.9987e+02     1.8084      1.371      1.988    21.8097   997.8381 0.0000e+00
      1.403      0.027    10.0768    114.788     33.369  31.227622     1.7770      8.224   263.5422 3.9975e+02     1.8405      1.377      1.996    21.8044   997.8393 0.0000e+00
      1.409      0.027    10.0677    114.675     33.403  31.256646     1.7569      8.224   262.7197 4.0364e+02     1.8372      1.381      2.003    21.7994   997.8404 0.0000e+00
      1.415      0.027    10.0527    114.496     33.434  31.284040     1.7258      8.224   261.8318 4.0690e+02     1.8017      1.387      2.012    21.7949   997.8414 0.0000e+00
      1.421      0.027    10.0334    114.269     33.459  31.305013     1.7131      8.225   260.8085 4.0336e+02     1.8044      1.393      2.019    21.7902   997.8424 0.0000e+00
      1.430      0.027    10.0146    114.050     33.477  31.319862     1.7246      8.225   259.9845 3.9488e+02     1.8371      1.402      2.032    21.7855   997.8435 0.0000e+00
      1.439      0.027    10.0001    113.880     33.497  31.336655     1.7439      8.225   259.6982 3.9237e+02     1.8700      1.412      2.048    21.7816   997.8445 0.0000e+00
      1.446      0.027     9.9923    113.789     33.546  31.381143     1.7647      8.225   259.8416 3.9668e+02     1.9397      1.419      2.058    21.7779   997.8454 0.0000e+00
      1.450      0.027     9.9878    113.734     33.581  31.413561     1.7762      8.225   260.1699 3.9863e+02     1.9917      1.422      2.063    21.7744   997.8462 0.0000e+00
      1.455      0.027     9.9840    113.686     33.581  31.411342     1.7787      8.225   260.4837 3.9372e+02     2.0073      1.426      2.069    21.7722   997.8467 0.0000e+00
      1.462      0.026     9.9904    113.752     33.590  31.417764     1.7780      8.225   260.7968 3.8692e+02     2.0301      1.433      2.078    21.7697   997.8473 0.0000e+00
      1.470      0.026    10.0118    113.987     33.603  31.427751     1.7847      8.225   261.2022 3.8317e+02     2.0374      1.441      2.091    21.7684   997.8477 0.0000e+00
      1.479      0.025    10.0400    114.298     33.582  31.405179     1.8075      8.225   261.4282 3.7946e+02     2.0296      1.450      2.104    21.7683   997.8477 0.0000e+00
      1.486      0.024    10.0687    114.615     33.578  31.398674     1.8285      8.226   261.3777 3.7471e+02     2.0341      1.459      2.116    21.7650   997.8484 0.0000e+00
      1.491      0.024    10.0929    114.884     33.595  31.412548     1.8393      8.227   261.5384 3.7210e+02     2.0587      1.463      2.122    21.7614   997.8493 0.0000e+00
      1.494      0.024    10.1085    115.057     33.565  31.382544     1.8425      8.228   261.9089 3.7103e+02     2.0658      1.464      2.124    21.7581   997.8500 0.0000e+00
      1.499      0.025    10.1175    115.152     33.535  31.353186     1.8325      8.229   261.8986 3.6905e+02     2.0215      1.470      2.131    21.7534   997.8510 0.0000e+00
      1.505      0.028    10.1232    115.212     33.560  31.374866     1.8235      8.229   261.4999 3.6674e+02     1.9822      1.477      2.141    21.7486   997.8522 0.0000e+00
      1.514      0.032    10.1292    115.277     33.714  31.517761     1.8288      8.228   261.0466 3.6348e+02     2.0162      1.484      2.152    21.7457   997.8529 0.0000e+00
      1.524      0.033    10.1368    115.359     34.098  31.875226     1.8095      8.227   260.6333 3.5596e+02     2.1379      1.494      2.166    21.7445   997.8532 0.0000e+00
      1.534      0.032    10.1428    115.417     34.592  32.333694     1.7555      8.226   260.2883 3.4797e+02     2.2412      1.505      2.183    21.7411   997.8540 0.0000e+00
      1.544      0.031    10.1469    115.450     34.902  32.618944     1.7129      8.226   260.0591 3.4344e+02     2.2493      1.514      2.196    21.7382   997.8547 0.0000e+00
      1.552      0.029    10.1477    115.442     34.950  32.658864     1.7013      8.227   259.9271 3.3925e+02     2.2691      1.523      2.207    21.7374   997.8549 0.0000e+00
      1.557      0.026    10.1339    115.271     34.920  32.625989     1.7105      8.229   259.8111 3.3520e+02     2.4143      1.528      2.215    21.7357   997.8555 0.0000e+00
      1.562      0.024    10.0997    114.872     34.965  32.665659     1.7115      8.231   259.6887 3.2994e+02     2.5956      1.531      2.221    21.7313   997.8567 0.0000e+00
      1.567      0.024    10.0435    114.226     35.135  32.821209     1.7050      8.231   259.3940 3.2344e+02     2.6588      1.535      2.228    21.7244   997.8584 0.0000e+00
      1.573      0.024     9.9665    113.341     35.312  32.983670     1.7106      8.232   258.8283 3.2131e+02     2.6534      1.542      2.237    21.7160   997.8604 0.0000e+00
      1.581      0.025     9.8784    112.327     35.380  33.043429     1.7181      8.232   258.2688 3.2003e+02     2.6620      1.551      2.248    21.7093   997.8618 0.0000e+00
      1.588      0.025     9.7900    111.307     35.377  33.036050     1.7181      8.233   257.8781 3.1363e+02     2.6975      1.558      2.258    21.7056   997.8626 0.0000e+00
      1.594      0.025     9.7075    110.358     35.365  33.021363     1.7100      8.234   257.6321 3.0489e+02     2.6887      1.563      2.268    21.7026   997.8634 0.0000e+00
      1.600      0.024     9.6292    109.465     35.335  32.992770     1.6982      8.235   257.4447 2.9749e+02     2.6221      1.569      2.276    21.6995   997.8642 0.0000e+00
      1.606      0.024     9.5521    108.591     35.282  32.944190     1.6972      8.235   257.2473 2.9183e+02     2.6125      1.575      2.285    21.6935   997.8656 0.0000e+00
      1.611      0.025     9.4827    107.808     35.278  32.941672     1.7242      8.235   257.0533 2.8623e+02     2.6709      1.581      2.292    21.6850   997.8675 0.0000e+00
      1.617      0.025     9.4310    107.225     35.298  32.962329     1.7637      8.235   256.9917 2.8035e+02     2.7061      1.586      2.300    21.6793   997.8688 0.0000e+00
      1.625      0.025     9.3981    106.849     35.275  32.940106     1.7758      8.234   257.1899 2.7523e+02     2.6778      1.593      2.310    21.6787   997.8690 0.0000e+00
      1.633      0.025     9.3789    106.622     35.264  32.926816     1.7748      8.232   257.3849 2.7171e+02     2.6561      1.602      2.323    21.6809   997.8685 0.0000e+00
      1.639      0.024     9.3708    106.520     35.270  32.928552     1.7869      8.232   257.3713 2.7043e+02     2.6402      1.609      2.333    21.6837   997.8679 0.0000e+00
      1.644      0.023     9.3750    106.560     35.172  32.834173     1.7923      8.231   257.2836 2.7139e+02     2.5837      1.612      2.339    21.6873   997.8671 0.0000e+00
      1.649      0.022     9.3890    106.720     35.000  32.674147     1.7883      8.231   257.1846 2.7355e+02     2.5301      1.617      2.345    21.6871   997.8671 0.0000e+00
      1.654      0.022     9.4056    106.926     34.893  32.580199     1.7818      8.232   257.1198 2.7610e+02     2.4834      1.623      2.353    21.6806   997.8686 0.0000e+00
      1.659      0.022     9.4204    107.119     34.891  32.586717     1.7912      8.232   257.1030 2.7971e+02     2.5114      1.627      2.360    21.6749   997.8700 0.0000e+00
      1.665      0.023     9.4320    107.262     34.929  32.626045     1.8240      8.231   257.0672 2.8283e+02     2.6387      1.633      2.369    21.6710   997.8708 0.0000e+00
      1.672      0.023     9.4438    107.390     34.916  32.611498     1.8407      8.231   257.0322 2.8533e+02     2.6794      1.640      2.379    21.6686   997.8713 0.0000e+00
      1.678      0.023     9.4624    107.584     34.911  32.601198     1.8371      8.232   256.9381 2.9002e+02     2.6430      1.646      2.387    21.6796   997.8688 0.0000e+00
      1.684      0.024     9.4888    107.864     34.947  32.628431     1.8325      8.232   256.7899 2.9277e+02     2.6248      1.651      2.395    21.6969   997.8651 0.0000e+00
      1.689      0.024     9.5180    108.181     34.947  32.623454     1.8375      8.232   256.7022 2.9147e+02     2.5903      1.656      2.402    21.7017   997.8640 0.0000e+00
      1.695      0.023     9.5437    108.471     34.928  32.604480     1.8531      8.231   256.5665 2.9042e+02     2.5537      1.662      2.411    21.6967   997.8652 0.0000e+00
      1.701      0.022     9.5616    108.686     34.908  32.589397     1.8567      8.231   256.3536 2.8936e+02     2.5101      1.668      2.420    21.6877   997.8672 0.0000e+00
      1.708      0.021     9.5716    108.815     34.879  32.568011     1.8464      8.230   256.2784 2.8849e+02     2.4883      1.675      2.430    21.6768   997.8696 0.0000e+00
      1.714      0.020     9.5759    108.881     34.907  32.599742     1.8324      8.229   256.2591 2.8891e+02     2.4878      1.682      2.439    21.6674   997.8717 0.0000e+00
      1.718      0.018     9.5780    108.910     34.965  32.655763     1.8266      8.228   256.1208 2.8832e+02     2.5043      1.685      2.445    21.6667   997.8719 0.0000e+00
      1.722      0.018     9.5820    108.927     34.994  32.674226     1.8375      8.228   256.0689 2.8751e+02     2.5562      1.689      2.449    21.6746   997.8702 0.0000e+00
      1.725      0.018     9.5893    108.952     35.038  32.696046     1.8415      8.228   256.1481 2.8826e+02     2.5579      1.692      2.454    21.6817   997.8686 0.0000e+00
      1.729      0.019     9.5943    108.948     35.096  32.729172     1.8325      8.228   256.3034 2.8917e+02     2.5253      1.696      2.460    21.6912   997.8664 0.0000e+00
      1.734      0.021     9.5882    108.838     35.141  32.757421     1.8327      8.227   256.5700 2.8854e+02     2.4892      1.700      2.466    21.6990   997.8648 0.0000e+00
      1.740      0.024     9.5661    108.568     35.176  32.783739     1.8437      8.226   256.7905 2.8507e+02     2.4489      1.706      2.474    21.6858   997.8677 0.0000e+00
      1.747      0.026     9.5282    108.125     35.191  32.793526     1.8444      8.226   256.9911 2.8023e+02     2.4644      1.714      2.485    21.6525   997.8753 0.0000e+00
      1.754      0.027     9.4758    107.520     35.147  32.748829     1.8490      8.226   257.1883 2.7661e+02     2.4800      1.720      2.495    21.6181   997.8830 0.0000e+00
      1.762      0.027     9.4118    106.791     35.082  32.687530     1.8815      8.225   257.2825 2.7371e+02     2.4736      1.728      2.506    21.5999   997.8871 0.0000e+00
      1.769      0.027     9.3466    106.051     35.013  32.623515     1.9086      8.224   257.3551 2.7166e+02     2.5181      1.736      2.517    21.5945   997.8884 0.0000e+00
      1.776      0.026     9.2906    105.416     34.863  32.482502     1.9081      8.223   257.3778 2.6951e+02     2.5266      1.742      2.526    21.5877   997.8898 0.0000e+00
      1.782      0.025     9.2441    104.876     34.687  32.315220     1.8930      8.222   257.3843 2.6580e+02     2.4780      1.747      2.534    21.5819   997.8912 0.0000e+00
      1.788      0.024     9.2076    104.436     34.559  32.187407     1.8820      8.221   257.5205 2.6220e+02     2.4872      1.753      2.544    21.5808   997.8915 0.0000e+00
      1.795      0.022     9.1885    104.186     34.523  32.142828     1.8874      8.221   257.7344 2.5908e+02     2.5070      1.761      2.554    21.5827   997.8911 0.0000e+00
      1.801      0.021     9.1869    104.146     34.614  32.220423     1.8976      8.220   257.9051 2.5670e+02     2.4883      1.766      2.562    21.5832   997.8909 0.0000e+00
      1.805      0.020     9.1979    104.264     34.704  32.300617     1.9011      8.219   257.9496 2.5641e+02     2.4901      1.771      2.569    21.5788   997.8918 0.0000e+00
      1.809      0.020     9.2199    104.510     34.692  32.287483     1.8958      8.219   257.9283 2.5574e+02     2.4964      1.774      2.573    21.5647   997.8949 0.0000e+00
      1.813      0.021     9.2558    104.911     34.587  32.188533     1.8938      8.219   257.9917 2.5243e+02     2.4991      1.778      2.579    21.5443   997.8995 0.0000e+00
      1.818      0.022     9.3058    105.461     34.450  32.056111     1.9024      8.219   258.1134 2.4886e+02     2.5227      1.783      2.586    21.5330   997.9021 0.0000e+00
      1.824      0.025     9.3587    106.040     34.418  32.019003     1.9058      8.218   258.1957 2.4621e+02     2.5195      1.789      2.594    21.5312   997.9026 0.0000e+00
      1.830      0.027     9.4057    106.545     34.537  32.120604     1.9001      8.216   258.2983 2.4319e+02     2.4929      1.795      2.604    21.5311   997.9025 0.0000e+00
      1.838      0.027     9.4477    106.979     34.711  32.269213     1.8935      8.215   258.4070 2.4097e+02     2.4961      1.802      2.614    21.5294   997.9030 0.0000e+00
      1.847      0.027     9.4883    107.387     34.824  32.356242     1.8955      8.214   258.4784 2.3904e+02     2.5258      1.811      2.627    21.5210   997.9048 0.0000e+00
      1.855      0.026     9.5273    107.789     34.830  32.347866     1.8981      8.214   258.6457 2.3524e+02     2.5239      1.820      2.641    21.5090   997.9074 0.0000e+00
      1.861      0.025     9.5604    108.149     34.778  32.294849     1.8906      8.214   258.9672 2.3249e+02     2.4731      1.825      2.647    21.4997   997.9096 0.0000e+00
      1.865      0.025     9.5837    108.401     34.704  32.222887     1.8908      8.214   259.3532 2.3125e+02     2.4358      1.829      2.652    21.4801   997.9141 0.0000e+00
      1.870      0.026     9.5989    108.524     34.671  32.175817     1.8926      8.214   259.7864 2.2887e+02     2.4664      1.833      2.660    21.4482   997.9211 0.0000e+00
      1.876      0.028     9.6093    108.558     34.694  32.169925     1.8862      8.214   260.3334 2.2555e+02     2.5157      1.839      2.667    21.4273   997.9258 0.0000e+00
      1.884      0.031     9.6154    108.541     34.705  32.151606     1.8734      8.214   260.8902 2.2127e+02     2.5065      1.848      2.680    21.4232   997.9268 0.0000e+00
      1.894      0.032     9.6227    108.556     34.721  32.144656     1.8509      8.213   261.4423 2.1582e+02     2.4873      1.857      2.693    21.4291   997.9255 0.0000e+00
      1.904      0.032     9.6402    108.734     34.733  32.149321     1.8401      8.213   262.1042 2.1030e+02     2.4802      1.867      2.708    21.4044   997.9310 0.0000e+00
      1.913      0.031     9.6737    109.114     34.727  32.144549     1.8379      8.212   262.6117 2.0674e+02     2.4862      1.877      2.722    21.3557   997.9418 0.0000e+00
      1.921      0.029     9.7237    109.648     34.744  32.150426     1.8502      8.211   262.8463 2.0646e+02     2.5595      1.884      2.733    21.3157   997.9505 0.0000e+00
      1.927      0.027     9.7779    110.215     34.767  32.156903     1.8848      8.211   263.0488 2.0833e+02     2.6456      1.890      2.742    21.2746   997.9597 0.0000e+00
      1.932      0.026     9.8195    110.679     34.771  32.159375     1.9009      8.211   263.2527 2.0960e+02     2.6746      1.894      2.747    21.2695   997.9608 0.0000e+00
      1.938      0.024     9.8533    111.074     34.788  32.180309     1.9056      8.211   263.5917 2.0986e+02     2.6810      1.900      2.755    21.2878   997.9568 0.0000e+00
      1.945      0.024     9.8877    111.440     34.838  32.219650     1.9158      8.211   264.2212 2.1092e+02     2.7558      1.908      2.767    21.2677   997.9612 0.0000e+00
      1.952      0.024     9.9146    111.686     34.896  32.254277     1.9115      8.210   264.8414 2.1205e+02     2.8574      1.915      2.777    21.2296   997.9696 0.0000e+00
      1.958      0.024     9.9249    111.736     34.948  32.281667     1.8973      8.209   265.2398 2.1249e+02     2.8613      1.920      2.785    21.2347   997.9685 0.0000e+00
      1.963      0.024     9.9231    111.639     34.991  32.296957     1.8917      8.210   265.5967 2.1311e+02     2.8353      1.926      2.794    21.2558   997.9639 0.0000e+00
      1.969      0.023     9.9197    111.508     35.040  32.312187     1.9130      8.211   266.0592 2.1345e+02     2.8378      1.930      2.801    21.2436   997.9667 0.0000e+00
      1.975      0.023     9.9179    111.406     35.098  32.338856     1.9460      8.211   266.6159 2.1358e+02     2.8263      1.936      2.809    21.2092   997.9742 0.0000e+00
      1.982      0.023     9.9164    111.326     35.149  32.365532     1.9618      8.211   266.9936 2.1354e+02     2.8276      1.944      2.819    21.1812   997.9804 0.0000e+00
      1.987      0.024     9.9129    111.225     35.187  32.380860     1.9661      8.209   267.0130 2.1295e+02     2.8534      1.948      2.826    21.1510   997.9871 0.0000e+00
      1.992      0.027     9.9059    111.086     35.226  32.397235     1.9971      8.207   266.8494 2.1310e+02     2.9094      1.953      2.833    21.0979   997.9986 0.0000e+00
      1.998      0.029     9.8969    110.930     35.289  32.436575     2.0595      8.204   266.6499 2.1258e+02     3.0128      1.959      2.842    21.0601   998.0069 0.0000e+00
      2.006      0.031     9.8847    110.743     35.349  32.475736     2.0875      8.202   266.6665 2.1024e+02     3.0868      1.966      2.852    21.0373   998.0119 0.0000e+00
      2.016      0.033     9.8666    110.499     35.379  32.489940     2.0759      8.199   267.0498 2.0826e+02     3.0839      1.976      2.867    21.0056   998.0189 0.0000e+00
      2.025      0.035     9.8446    110.220     35.382  32.481375     2.0668      8.196   267.4125 2.0647e+02     3.0759      1.986      2.881    20.9776   998.0250 0.0000e+00
      2.035      0.036     9.8223    109.940     35.412  32.499092     2.0818      8.193   267.5241 2.0459e+02     3.1546      1.996      2.895    20.9548   998.0299 0.0000e+00
      2.044      0.036     9.7994    109.655     35.508  32.577218     2.1173      8.190   267.6249 2.0356e+02     3.2808      2.005      2.908    20.9286   998.0357 0.0000e+00
      2.052      0.036     9.7738    109.331     35.546  32.600998     2.1322      8.188   267.9432 2.0249e+02     3.3245      2.012      2.918    20.9093   998.0398 0.0000e+00
      2.062      0.035     9.7514    109.045     35.416  32.469295     2.1242      8.188   268.4469 2.0040e+02     3.2891      2.022      2.932    20.8965   998.0426 0.0000e+00
      2.072      0.035     9.7325    108.810     35.259  32.317445     2.0981      8.188   268.8977 1.9832e+02     3.2788      2.032      2.947    20.8815   998.0460 0.0000e+00
      2.081      0.034     9.7040    108.473     35.164  32.224562     2.0509      8.187   269.3501 1.9743e+02     3.3316      2.041      2.960    20.8702   998.0485 0.0000e+00
      2.089      0.033     9.6700    108.060     35.048  32.107758     2.0210      8.186   269.8727 1.9668e+02     3.4031      2.048      2.971    20.8528   998.0523 0.0000e+00
      2.097      0.032     9.6418    107.691     34.932  31.983967     2.0147      8.186   270.3113 1.9525e+02     3.4211      2.057      2.982    20.8309   998.0570 0.0000e+00
      2.104      0.031     9.6224    107.406     34.832  31.870050     1.9999      8.187   270.6103 1.9419e+02     3.3860      2.064      2.993    20.8236   998.0585 0.0000e+00
      2.111      0.030     9.6150    107.255     34.652  31.682238     1.9810      8.188   270.8201 1.9350e+02     3.3730      2.070      3.003    20.8182   998.0597 0.0000e+00
      2.119      0.030     9.6193    107.235     34.396  31.426472     1.9779      8.188   271.0414 1.9231e+02     3.3944      2.078      3.016    20.8028   998.0629 0.0000e+00
      2.128      0.030     9.6294    107.262     34.236  31.252402     1.9793      8.189   271.2215 1.9123e+02     3.4153      2.087      3.027    20.7778   998.0683 0.0000e+00
      2.135      0.029     9.6440    107.316     34.178  31.163962     1.9891      8.189   271.3635 1.9073e+02     3.3968      2.094      3.037    20.7415   998.0761 0.0000e+00
      2.143      0.029     9.6659    107.450     34.098  31.055117     2.0100      8.189   271.5532 1.8995e+02     3.3671      2.101      3.047    20.7085   998.0832 0.0000e+00
      2.150      0.028     9.6934    107.660     34.018  30.951598     2.0234      8.189   271.7080 1.8833e+02     3.3836      2.109      3.058    20.6805   998.0890 0.0000e+00
      2.157      0.027     9.7237    107.902     34.024  30.927572     2.0301      8.188   271.7725 1.8641e+02     3.4001      2.115      3.067    20.6433   998.0970 0.0000e+00
      2.163      0.027     9.7539    108.139     34.159  31.018405     2.0216      8.188   271.8165 1.8537e+02     3.3694      2.121      3.076    20.5849   998.1094 0.0000e+00
      2.170      0.027     9.7823    108.353     34.353  31.161431     1.9898      8.189   271.8962 1.8468e+02     3.4063      2.128      3.086    20.5288   998.1213 0.0000e+00
      2.177      0.026     9.8159    108.624     34.498  31.260814     1.9568      8.190   271.9622 1.8319e+02     3.5512      2.135      3.097    20.4894   998.1297 0.0000e+00
      2.185      0.025     9.8627    109.060     34.535  31.268156     1.9528      8.191   272.0972 1.8137e+02     3.6133      2.143      3.108    20.4448   998.1391 0.0000e+00
      2.192      0.024     9.9159    109.604     34.460  31.186708     1.9674      8.191   272.4102 1.7989e+02     3.5668      2.150      3.118    20.3979   998.1491 0.0000e+00
      2.197      0.023     9.9662    110.125     34.378  31.100945     1.9689      8.191   272.6499 1.7858e+02     3.4814      2.155      3.126    20.3531   998.1586 0.0000e+00
      2.202      0.021    10.0052    110.511     34.344  31.056117     1.9705      8.191   272.6729 1.7710e+02     3.4000      2.159      3.132    20.2998   998.1698 0.0000e+00
      2.207      0.020    10.0215    110.659     34.321  31.025414     1.9871      8.191   272.6874 1.7557e+02     3.3694      2.164      3.139    20.2572   998.1787 0.0000e+00
      2.212      0.018    10.0178    110.617     34.275  30.983521     1.9878      8.191   272.8252 1.7421e+02     3.3405      2.169      3.146    20.2441   998.1815 0.0000e+00
      2.217      0.018    10.0020    110.446     34.215  30.930321     1.9518      8.192   273.0483 1.7299e+02     3.3125      2.174      3.153    20.2339   998.1836 0.0000e+00
      2.222      0.019     9.9814    110.206     34.175  30.889834     1.9073      8.193   273.3195 1.7219e+02     3.2930      2.179      3.160    20.2065   998.1893 0.0000e+00
      2.226      0.020     9.9738    110.086     34.170  30.874715     1.8930      8.194   273.6097 1.7163e+02     3.3012      2.183      3.166    20.1865   998.1935 0.0000e+00
      2.230      0.023     9.9891    110.186     34.193  30.874417     1.9004      8.195   273.8900 1.7022e+02     3.3457      2.186      3.170    20.1943   998.1919 0.0000e+00
      2.235      0.025    10.0248    110.498     34.235  30.886204     1.9004      8.195   274.0410 1.6809e+02     3.4052      2.191      3.177    20.1995   998.1909 0.0000e+00
      2.242      0.027    10.0775    111.016     34.261  30.890284     1.8937      8.194   273.9726 1.6612e+02     3.4962      2.199      3.189    20.1911   998.1925 0.0000e+00
      2.251      0.029    10.1455    111.696     34.251  30.860262     1.8894      8.193   274.0096 1.6427e+02     3.5622      2.208      3.203    20.1804   998.1948 0.0000e+00
      2.260      0.029    10.2183    112.399     34.263  30.840462     1.8914      8.194   274.3156 1.6237e+02     3.5801      2.217      3.215    20.1462   998.2020 0.0000e+00
      2.267      0.029    10.2763    112.954     34.292  30.841210     1.9006      8.196   274.5760 1.6060e+02     3.5158      2.224      3.225    20.0963   998.2125 0.0000e+00
      2.274      0.029    10.3121    113.307     34.267  30.805820     1.9051      8.196   274.6620 1.5923e+02     3.3753      2.230      3.235    20.0754   998.2168 0.0000e+00
      2.281      0.030    10.3340    113.499     34.198  30.729815     1.9026      8.196   274.7540 1.5801e+02     3.3230      2.237      3.244    20.0560   998.2208 0.0000e+00
      2.287      0.032    10.3510    113.578     34.183  30.683682     1.8959      8.196   275.0001 1.5637e+02     3.3417      2.242      3.252    19.9962   998.2332 0.0000e+00
      2.295      0.035    10.3596    113.517     34.245  30.692175     1.8930      8.197   275.2282 1.5423e+02     3.4056      2.249      3.262    19.9524   998.2423 0.0000e+00
      2.305      0.037    10.3551    113.311     34.312  30.705521     1.8945      8.197   275.3607 1.5147e+02     3.5386      2.259      3.277    19.9478   998.2433 0.0000e+00
      2.317      0.038    10.3481    113.105     34.370  30.718076     1.8877      8.196   275.5699 1.4870e+02     3.6054      2.272      3.296    19.9351   998.2459 0.0000e+00
      2.328      0.038    10.3532    113.055     34.406  30.717019     1.8891      8.196   275.6920 1.4658e+02     3.5906      2.284      3.312    19.8867   998.2558 0.0000e+00
      2.338      0.037    10.3768    113.225     34.409  30.692689     1.9031      8.196   275.7185 1.4457e+02     3.5890      2.293      3.326    19.8056   998.2725 0.0000e+00
      2.347      0.034    10.4170    113.587     34.418  30.677684     1.9089      8.195   275.9772 1.4221e+02     3.5535      2.302      3.338    19.7324   998.2875 0.0000e+00
      2.354      0.030    10.4648    114.024     34.429  30.662480     1.9070      8.194   276.4109 1.3959e+02     3.4235      2.309      3.349    19.6800   998.2982 0.0000e+00
      2.361      0.026    10.5103    114.425     34.431  30.635730     1.8977      8.193   276.6601 1.3706e+02     3.2959      2.316      3.359    19.6308   998.3082 0.0000e+00
      2.368      0.023    10.5450    114.715     34.430  30.608031     1.8920      8.192   276.6671 1.3505e+02     3.2559      2.323      3.369    19.5927   998.3159 0.0000e+00
      2.374      0.020    10.5680    114.897     34.423  30.581361     1.8993      8.192   276.7546 1.3344e+02     3.2340      2.328      3.377    19.5629   998.3219 0.0000e+00
      2.378      0.018    10.5844    115.021     34.425  30.567051     1.8991      8.192   277.0289 1.3185e+02     3.1622      2.332      3.383    19.5287   998.3289 0.0000e+00
      2.382      0.018    10.5994    115.142     34.432  30.561903     1.8973      8.192   277.3166 1.3043e+02     3.1088      2.336      3.389    19.4818   998.3383 0.0000e+00
      2.386      0.019    10.6174    115.304     34.396  30.519101     1.8951      8.193   277.5661 1.2930e+02     3.0802      2.339      3.393    19.4404   998.3467 0.0000e+00
      2.390      0.021    10.6389    115.484     34.313  30.430249     1.8900      8.193   277.8942 1.2811e+02     2.9806      2.343      3.398    19.4149   998.3517 0.0000e+00
      2.395      0.024    10.6654    115.695     34.278  30.375934     1.8960      8.192   278.1866 1.2652e+02     2.8213      2.348      3.405    19.3904   998.3567 0.0000e+00
      2.402      0.026    10.7034    116.017     34.301  30.369979     1.8984      8.191   278.3478 1.2487e+02     2.6951      2.355      3.415    19.3722   998.3604 0.0000e+00
      2.410      0.028    10.7541    116.464     34.321  30.358217     1.8929      8.191   278.5530 1.2359e+02     2.6338      2.364      3.428    19.3640   998.3620 0.0000e+00
      2.418      0.029    10.8120    116.980     34.361  30.360592     1.8821      8.191   278.7757 1.2258e+02     2.6051      2.371      3.439    19.3414   998.3665 0.0000e+00
      2.426      0.029    10.8745    117.542     34.442  30.398657     1.8624      8.191   279.0607 1.2182e+02     2.5775      2.379      3.451    19.3048   998.3738 0.0000e+00
      2.434      0.028    10.9413    118.157     34.521  30.437678     1.8455      8.192   279.4180 1.2146e+02     2.5301      2.388      3.463    19.2672   998.3814 0.0000e+00
      2.440      0.028    11.0148    118.860     34.566  30.451630     1.8341      8.193   279.6539 1.2123e+02     2.4572      2.393      3.470    19.2223   998.3902 0.0000e+00
      2.445      0.027    11.1005    119.700     34.581  30.440409     1.8463      8.194   279.7616 1.2076e+02     2.3852      2.397      3.476    19.1750   998.3996 0.0000e+00
      2.452      0.027    11.1931    120.615     34.595  30.428886     1.8798      8.194   279.8599 1.2006e+02     2.3475      2.404      3.486    19.1257   998.4095 0.0000e+00
      2.460      0.028    11.2736    121.425     34.625  30.439178     1.8926      8.194   280.0689 1.1939e+02     2.3285      2.413      3.500    19.0772   998.4190 0.0000e+00
      2.468      0.029    11.3306    122.014     34.632  30.437922     1.8886      8.194   280.3092 1.1890e+02     2.2860      2.421      3.511    19.0423   998.4259 0.0000e+00
      2.475      0.029    11.3670    122.398     34.607  30.413697     1.8921      8.194   280.4426 1.1864e+02     2.2607      2.427      3.520    19.0097   998.4323 0.0000e+00
      2.482      0.029    11.3835    122.582     34.589  30.400084     1.9260      8.193   280.4765 1.1846e+02     2.2846      2.434      3.530    18.9690   998.4404 0.0000e+00
      2.490      0.029    11.3831    122.581     34.589  30.400240     1.9866      8.193   280.4608 1.1821e+02     2.3123      2.442      3.541    18.9442   998.4453 0.0000e+00
      2.497      0.029    11.3702    122.413     34.616  30.415585     2.0175      8.193   280.5118 1.1792e+02     2.3008      2.449      3.552    18.9387   998.4464 0.0000e+00
      2.504      0.029    11.3467    122.087     34.688  30.458698     2.0131      8.193   280.6626 1.1765e+02     2.2769      2.456      3.562    18.9349   998.4471 0.0000e+00
      2.512      0.028    11.3179    121.683     34.812  30.540768     2.0118      8.192   280.9066 1.1730e+02     2.3184      2.463      3.573    18.9385   998.4465 0.0000e+00
      2.519      0.027    11.2941    121.346     34.959  30.646391     2.0202      8.192   281.1392 1.1668e+02     2.4084      2.470      3.583    18.9476   998.4447 0.0000e+00
      2.526      0.026    11.2819    121.158     35.061  30.720482     2.0273      8.192   281.2385 1.1576e+02     2.4812      2.477      3.593    18.9363   998.4469 0.0000e+00
      2.533      0.025    11.2734    121.039     35.164  30.802029     2.0282      8.192   281.3320 1.1484e+02     2.5098      2.484      3.603    18.9033   998.4535 0.0000e+00
      2.538      0.025    11.2559    120.833     35.320  30.934353     2.0306      8.192   281.4102 1.1426e+02     2.5246      2.489      3.610    18.8583   998.4622 0.0000e+00
      2.544      0.025    11.2169    120.358     35.473  31.051280     2.0395      8.192   281.4094 1.1400e+02     2.5622      2.495      3.618    18.8239   998.4690 0.0000e+00
      2.551      0.026    11.1390    119.410     35.608  31.137021     2.0403      8.191   281.4945 1.1376e+02     2.5711      2.502      3.628    18.8022   998.4732 0.0000e+00
      2.556      0.027    11.0107    117.901     35.737  31.209521     2.0321      8.190   281.7513 1.1313e+02     2.5341      2.506      3.635    18.7880   998.4761 0.0000e+00
      2.562      0.028    10.8272    115.821     35.801  31.229810     2.0269      8.188   282.1912 1.1206e+02     2.5082      2.512      3.644    18.7955   998.4747 0.0000e+00
      2.571      0.029    10.5807    113.116     35.782  31.191912     2.0287      8.185   282.7697 1.1093e+02     2.5204      2.521      3.657    18.7737   998.4790 0.0000e+00
      2.581      0.029    10.2770    109.847     35.794  31.195470     2.0375      8.182   283.1530 1.1024e+02     2.5169      2.532      3.673    18.7183   998.4898 0.0000e+00
      2.589      0.029     9.9397    106.222     35.891  31.272816     2.0383      8.181   283.2983 1.0997e+02     2.4662      2.539      3.683    18.6603   998.5010 0.0000e+00
      2.594      0.028     9.5986    102.517     36.021  31.365615     2.0208      8.180   283.4934 1.0934e+02     2.4327      2.544      3.689    18.6032   998.5120 0.0000e+00
      2.601      0.026     9.2793     99.009     36.207  31.492534     1.9812      8.178   283.7913 1.0829e+02     2.4392      2.550      3.698    18.5730   998.5177 0.0000e+00
      2.608      0.024     9.0053     95.972     36.381  31.601638     1.9318      8.176   284.2323 1.0747e+02     2.4794      2.558      3.711    18.5716   998.5180 0.0000e+00
      2.614      0.023     8.7925     93.595     36.434  31.605950     1.9099      8.174   284.6963 1.0697e+02     2.5247      2.565      3.720    18.5731   998.5178 0.0000e+00
      2.619      0.023     8.6296     91.776     36.474  31.608079     1.9065      8.173   285.0991 1.0654e+02     2.5278      2.568      3.725    18.5411   998.5240 0.0000e+00
      2.624      0.023     8.4952     90.283     36.599  31.690801     1.9089      8.173   285.5752 1.0600e+02     2.5499      2.573      3.732    18.4873   998.5343 0.0000e+00
      2.630      0.023     8.3713     88.897     36.736  31.781145     1.9384      8.172   285.9796 1.0541e+02     2.5956      2.579      3.740    18.4277   998.5457 0.0000e+00
      2.636      0.024     8.2368     87.381     36.813  31.811970     1.9688      8.170   286.2886 1.0497e+02     2.5887      2.585      3.749    18.3637   998.5579 0.0000e+00
      2.643      0.025     8.0852     85.688     36.851  31.809622     1.9727      8.168   286.7292 1.0470e+02     2.5649      2.591      3.759    18.3203   998.5661 0.0000e+00
      2.649      0.027     7.9255     83.939     36.886  31.816158     1.9599      8.167   287.2635 1.0450e+02     2.5373      2.597      3.767    18.2920   998.5715 0.0000e+00
      2.655      0.029     7.7578     82.128     36.917  31.827514     1.9526      8.165   287.7589 1.0410e+02     2.5169      2.602      3.776    18.2597   998.5776 0.0000e+00
      2.662      0.030     7.5825     80.246     36.996  31.883445     1.9622      8.163   288.1587 1.0343e+02     2.5481      2.609      3.785    18.2026   998.5883 0.0000e+00
      2.671      0.030     7.4139     78.435     37.128  31.984739     1.9627      8.160   288.3976 1.0253e+02     2.5540      2.619      3.799    18.1467   998.5988 0.0000e+00
      2.680      0.029     7.2659     76.828     37.211  32.036890     1.9328      8.157   288.6687 1.0155e+02     2.4898      2.629      3.813    18.1200   998.6039 0.0000e+00
      2.689      0.028     7.1508     75.558     37.279  32.069760     1.8955      8.154   289.2855 1.0085e+02     2.4275      2.637      3.825    18.1006   998.6076 0.0000e+00
      2.696      0.026     7.0785     74.743     37.450  32.191754     1.8850      8.151   290.1765 1.0043e+02     2.4230      2.644      3.835    18.0851   998.6105 0.0000e+00
      2.701      0.024     7.0378     74.256     37.690  32.369602     1.8927      8.148   291.0098 1.0002e+02     2.4688      2.649      3.842    18.0743   998.6126 0.0000e+00
      2.706      0.024     7.0072     73.841     37.903  32.506662     1.8667      8.145   291.7040 9.9607e+01     2.5215      2.654      3.848    18.0468   998.6177 0.0000e+00
      2.711      0.025     6.9731     73.360     38.133  32.643128     1.8053      8.143   292.4609 9.9033e+01     2.5694      2.657      3.854    18.0059   998.6253 0.0000e+00
      2.716      0.026     6.9205     72.668     38.417  32.813760     1.7748      8.141   293.2788 9.8172e+01     2.6210      2.663      3.862    17.9763   998.6309 0.0000e+00
      2.724      0.028     6.8347     71.616     38.633  32.919671     1.7743      8.139   294.0214 9.7297e+01     2.6873      2.671      3.873    17.9478   998.6362 0.0000e+00
      2.733      0.029     6.7034     70.104     38.780  32.971658     1.8178      8.136   294.7280 9.6527e+01     2.7480      2.680      3.887    17.8862   998.6476 0.0000e+00
      2.741      0.029     6.5172     68.051     38.954  33.061464     1.9102      8.133   295.3702 9.5777e+01     2.7326      2.689      3.899    17.7989   998.6637 0.0000e+00
      2.748      0.028     6.2804     65.491     39.154  33.180429     1.9551      8.133   295.9357 9.5102e+01     2.6645      2.695      3.908    17.7104   998.6800 0.0000e+00
      2.755      0.025     6.0012     62.501     39.313  33.267668     1.9531      8.132   296.4877 9.4663e+01     2.6465      2.702      3.919    17.5993   998.7002 0.0000e+00
      2.762      0.023     5.6856     59.152     39.387  33.291181     1.9550      8.130   296.9692 9.4422e+01     2.6789      2.709      3.929    17.4962   998.7188 0.0000e+00
      2.767      0.021     5.3543     55.667     39.397  33.274279     1.9255      8.127   297.3687 9.4177e+01     2.7929      2.714      3.936    17.4304   998.7306 0.0000e+00
      2.771      0.021     5.0374     52.362     39.382  33.253674     1.8662      8.125   297.6184 9.3868e+01     2.9759      2.717      3.941    17.3667   998.7420 0.0000e+00
      2.775      0.022     4.7523     49.402     39.353  33.232429     1.8363      8.123   297.7516 9.3502e+01     3.0565      2.720      3.946    17.3038   998.7533 0.0000e+00
      2.781      0.023     4.5076     46.867     39.315  33.207793     1.8325      8.122   297.9471 9.3091e+01     3.0801      2.726      3.954    17.2503   998.7629 0.0000e+00
      2.787      0.025     4.3107     44.829     39.308  33.209664     1.8023      8.121   298.1742 9.2498e+01     3.2290      2.733      3.964    17.2168   998.7687 0.0000e+00
      2.795      0.027     4.1659     43.332     39.353  33.255069     1.7487      8.120   298.3475 9.1726e+01     3.4475      2.740      3.975    17.2111   998.7697 0.0000e+00
      2.803      0.028     4.0785     42.426     39.418  33.312544     1.7225      8.118   298.4931 9.1136e+01     3.5581      2.748      3.986    17.2182   998.7685 0.0000e+00
      2.810      0.030     4.0500     42.123     39.449  33.333421     1.7283      8.115   298.7307 9.0969e+01     3.5833      2.756      3.997    17.2287   998.7668 0.0000e+00
      2.816      0.031     4.0680     42.299     39.443  33.317097     1.8010      8.112   299.0692 9.1052e+01     3.8177      2.762      4.006    17.2390   998.7650 0.0000e+00
      2.823      0.031     4.1140     42.768     39.439  33.305550     1.9340      8.109   299.3166 9.0928e+01     4.2291      2.768      4.014    17.2499   998.7630 0.0000e+00
      2.832      0.030     4.1732     43.385     39.455  33.320719     2.0103      8.107   299.4851 9.0540e+01     4.4281      2.778      4.027    17.2560   998.7620 0.0000e+00
      2.842      0.029     4.2320     43.998     39.515  33.373574     2.0468      8.104   299.7298 9.0223e+01     4.4871      2.788      4.044    17.2473   998.7637 0.0000e+00
      2.850      0.028     4.2812     44.500     39.600  33.436913     2.3493      8.102   300.0383 9.0010e+01     4.9099      2.795      4.054    17.2288   998.7669 0.0000e+00
      2.857      0.027     4.3199     44.882     39.638  33.451907     2.9027      8.100   300.2898 8.9816e+01     5.6397      2.802      4.063    17.2146   998.7695 0.0000e+00
      2.862      0.025     4.3428     45.102     39.628  33.427907     3.2150      8.096   300.3609 8.9595e+01     6.0034      2.807      4.070    17.2211   998.7683 0.0000e+00
      2.867      0.023     4.3432     45.097     39.603  33.400569     3.3860      8.094   300.3816 8.9221e+01     6.0307      2.811      4.076    17.2325   998.7664 0.0000e+00
      2.873      0.022     4.3239     44.897     39.573  33.375217     4.9875      8.091   300.5411 8.8837e+01     6.3954      2.817      4.085    17.2197   998.7687 0.0000e+00
      2.880      0.022     4.2880     44.529     39.568  33.375230     7.9262      8.088   300.7401 8.8653e+01     7.0697      2.824      4.096    17.1913   998.7738 0.0000e+00
      2.886      0.021     4.2407     44.043     39.593  33.400728     9.5361      8.086   300.8946 8.8473e+01     7.4332      2.829      4.105    17.1685   998.7778 0.0000e+00
      2.891      0.021     4.1938     43.561     39.623  33.429668     9.7136      8.085   301.1191 8.8222e+01     7.4473      2.835      4.112    17.1614   998.7791 0.0000e+00
      2.895      0.021     4.1562     43.165     39.679  33.471283    10.1239      8.084   301.3894 8.8073e+01     7.5023      2.839      4.118    17.1649   998.7784 0.0000e+00
      2.899      0.022     4.1301     42.864     39.772  33.523106    14.5490      8.083   301.5812 8.7880e+01     8.5573      2.843      4.124    17.1698   998.7775 0.0000e+00
      2.904      0.023     4.1139     42.637     39.865  33.548509    22.6684      8.082   301.7164 8.7483e+01    10.5343      2.848      4.131    17.1747   998.7768 0.0000e+00
      2.911      0.024     4.1015     42.437     39.912  33.524506    27.1957      8.080   301.8201 8.6875e+01    11.6453      2.854      4.139    17.1849   998.7750 0.0000e+00
      2.918      0.024     4.0805     42.170     39.921  33.486664    28.7737      8.078   301.9748 8.6193e+01    11.7983      2.862      4.150    17.1832   998.7754 0.0000e+00
      2.925      0.024     4.0399     41.737     39.918  33.471686    41.7910      8.076   302.1248 8.5674e+01    12.1550      2.869      4.161    17.1524   998.7808 0.0000e+00
      2.932      0.023     3.9753     41.075     39.909  33.470323    65.5930      8.074   302.0842 8.5267e+01    12.8450      2.875      4.170    17.0823   998.7931 0.0000e+00
      2.937      0.021     3.8843     40.132     39.913  33.470201    78.5380      8.072   302.0003 8.4786e+01    13.3236      2.880      4.177    16.9819   998.8107 0.0000e+00
      2.941      0.019     3.7728     38.954     39.943  33.470203    79.2787      8.069   302.0565 8.4216e+01    13.8124      2.884      4.183    16.9190   998.8215 0.0000e+00
      2.946      0.019     3.6591     37.752     39.978  33.470310    74.4451      8.067   302.1622 8.3701e+01    18.4595      2.889      4.190    16.9133   998.8226 0.0000e+00
      2.950      0.020     3.5625     36.742     39.995  33.471467    65.3690      8.066   302.2458 8.3332e+01    27.0064      2.894      4.197    16.9342   998.8190 0.0000e+00
      2.954      0.021     3.4867     35.962     40.008  33.484169    60.3746      8.064   302.3796 8.2983e+01    31.6828      2.896      4.200    16.9387   998.8182 0.0000e+00
      2.959      0.023     3.4268     35.351     40.014  33.496967    59.5495      8.061   302.6606 8.2362e+01    32.2000      2.900      4.206    16.8933   998.8260 0.0000e+00
      2.966      0.025     3.3798     34.872     40.009  33.499285    55.3584      8.058   303.1476 8.1426e+01    32.9321      2.908      4.218    16.8469   998.8341 0.0000e+00
      2.974      0.026     3.3435     34.504     40.018  33.512195    47.7267      8.057   303.6221 8.0388e+01    34.1448      2.916      4.230    16.8345   998.8363 0.0000e+00
      2.981      0.028     3.3199     34.265     40.027  33.526147    43.5359      8.056   303.8390 7.9390e+01    34.8348      2.923      4.239    16.8416   998.8351 0.0000e+00
      2.988      0.029     3.3094     34.161     40.038  33.541066    42.8004      8.054   303.9624 7.8547e+01    34.8845      2.931      4.250    16.8537   998.8331 0.0000e+00
      2.995      0.029     3.3074     34.144     40.063  33.565646    38.6950      8.052   304.1680 7.7780e+01    34.0572      2.937      4.260    16.8611   998.8318 0.0000e+00
      3.001      0.028     3.3125     34.199     40.065  33.569493    31.2132      8.050   304.3462 7.6987e+01    32.4678      2.943      4.268    16.8668   998.8309 0.0000e+00
      3.009      0.026     3.3254     34.336     40.082  33.587583    27.1335      8.048   304.4820 7.6307e+01    31.5945      2.951      4.279    16.8756   998.8294 0.0000e+00
      3.018      0.024     3.3437     34.519     40.247  33.720920    26.8218      8.046   304.6915 7.5783e+01    31.5274      2.960      4.293    16.8843   998.8279 0.0000e+00
      3.024      0.024     3.3652     34.706     40.599  33.975821    27.4706      8.043   304.8999 7.5380e+01    31.5254      2.967      4.303    16.8891   998.8271 0.0000e+00
      3.029      0.023     3.3860     34.844     40.963  34.194375    34.8826      8.041   305.0228 7.5056e+01    31.5704      2.971      4.309    16.8877   998.8275 0.0000e+00
      3.032      0.023     3.3982     34.874     41.180  34.268959    48.4600      8.041   305.1450 7.4666e+01    31.6781      2.973      4.312    16.8949   998.8261 0.0000e+00
      3.037      0.022     3.3963     34.779     41.251  34.242821    55.8707      8.040   305.3453 7.4135e+01    31.7139      2.977      4.318    16.9054   998.8243 0.0000e+00
      3.045      0.021     3.3728     34.503     41.166  34.132099    56.6862      8.039   305.4655 7.3621e+01    31.3800      2.986      4.331    16.8645   998.8316 0.0000e+00
      3.052      0.021     3.3138     33.900     41.016  34.009097    58.3294      8.038   305.4798 7.3259e+01    27.5105      2.994      4.342    16.7459   998.8521 0.0000e+00
      3.058      0.021     3.2123     32.884     40.927  33.961473    61.2249      8.036   305.6039 7.2988e+01    20.3869      3.000      4.351    16.5922   998.8784 0.0000e+00
      3.062      0.020     3.0797     31.554     40.858  33.937104    62.7724      8.034   305.8481 7.2740e+01    16.4630      3.004      4.357    16.4805   998.8972 0.0000e+00
      3.065      0.019     2.9344     30.087     40.786  33.904900    62.5703      8.031   306.1950 7.2443e+01    16.1161      3.005      4.359    16.4333   998.9050 0.0000e+00
      3.070      0.019     2.7962     28.682     40.749  33.889463    58.7722      8.029   306.4426 7.2087e+01    16.7498      3.010      4.366    16.4439   998.9032 0.0000e+00
      3.076      0.020     2.6825     27.517     40.733  33.877398    51.7904      8.028   306.4336 7.1758e+01    17.9644      3.016      4.376    16.4851   998.8964 0.0000e+00
      3.081      0.021     2.6036     26.704     40.749  33.885962    47.9383      8.027   306.4300 7.1463e+01    18.6108      3.022      4.383    16.5274   998.8893 0.0000e+00
      3.086      0.021     2.5671     26.329     40.804  33.929532    47.0060      8.026   306.5708 7.1103e+01    18.6334      3.026      4.389    16.5666   998.8826 0.0000e+00
      3.092      0.021     2.5761     26.423     40.837  33.959943    40.5440      8.025   306.9315 7.0650e+01    18.1729      3.032      4.398    16.5865   998.8794 0.0000e+00
      3.099      0.020     2.6194     26.869     41.109  34.190189    28.7705      8.024   307.5218 7.0279e+01    17.3689      3.040      4.408    16.5835   998.8798 0.0000e+00
      3.104      0.019     2.6794     27.482     42.240  35.126753    22.4426      8.023   308.0295 7.0009e+01    16.9736      3.046      4.416    16.5713   998.8820 0.0000e+00
      3.108      0.017     2.7437     28.119     44.115  36.652020    22.9372      8.021   308.3377 6.9706e+01    16.9650      3.048      4.421    16.5712   998.8821 0.0000e+00
      3.112      0.014     2.7985     28.641     45.926  38.096985    34.6987      8.019   308.4947 6.9448e+01    17.2979      3.052      4.426    16.5759   998.8812 0.0000e+00
      3.116      0.012     2.8340     28.966     47.948  39.712134    56.3368      8.018   308.5516 6.9305e+01    17.9512      3.056      4.432    16.5801   998.8805 0.0000e+00
      3.118      0.010     2.8483     29.071     51.363  42.468414    68.1354      8.016   308.6815 6.9300e+01    18.3088      3.058      4.435    16.5906   998.8791 0.0000e+00
      3.120      0.010     2.8380     28.910     56.179  46.344116    69.2062      8.015   308.8614 6.9330e+01    18.3781      3.060      4.437    16.5538   998.8861 0.0000e+00
      3.122      0.010     2.7923     28.385     61.060  50.251195    69.3181      8.015   309.0058 6.9158e+01    18.5921      3.061      4.440    16.4691   998.9010 0.0000e+00
      3.124      0.010     2.7062     27.475     65.804  54.079624    69.5137      8.014   309.1365 6.8841e+01    20.6337      3.064      4.444    16.4072   998.9117 0.0000e+00
      3.127      0.010     2.5897     26.281     71.554  58.775159    69.8555      8.013   309.3228 6.8462e+01    24.3503      3.066      4.447    16.3571   998.9213 0.0000e+00
      3.130      0.010     2.4485     24.836     77.508  63.627549    70.0690      8.012   309.5378 6.7970e+01    26.3329      3.069      4.452    16.2566   998.9398 0.0000e+00
      3.133      0.009     2.2786     23.094     80.517  66.039797    70.4481      8.010   309.5849 6.7655e+01    26.4819      3.072      4.456    16.1286   998.9626 0.0000e+00
      3.135      0.009     2.0817     21.087     79.682  65.314795    74.4477      8.009   309.3754 6.7782e+01    26.3810      3.075      4.460    16.0708   998.9733 0.0000e+00
      3.137      0.010     1.8693     18.932     81.522  66.811398    81.7801      8.009   309.1559 6.8048e+01    26.1288      3.077      4.462    16.0736   998.9750 0.0000e+00
      3.138      0.011     1.6526     16.737     88.387  72.432273    85.6956      8.008   309.1682 6.8050e+01    25.9565      3.077      4.464    16.0518   998.9810 0.0000e+00
      3.141      0.012     1.4383     14.562     90.130  73.829737    84.9684      8.006   309.2668 6.7707e+01    25.9037      3.079      4.466    16.0004   998.9910 0.0000e+00
      3.145      0.012     1.2357     12.502     83.791  68.578818    72.8924      8.004   309.3163 6.7121e+01    25.7197      3.083      4.471    15.9712   998.9942 0.0000e+00
      3.150      0.012     1.0609     10.725     77.412  63.304789    50.6944      8.002   309.3353 6.6427e+01    25.4029      3.089      4.481    15.9724   998.9935 0.0000e+00
      3.154      0.011     0.9211      9.309     74.356  60.792504    38.5682      8.000   309.3241 6.5876e+01    25.2530      3.093      4.487    15.9767   998.9979 0.0000e+00
      3.156      0.008     0.8160      8.251     72.722  59.494890    37.1377      7.998   309.3539 6.5708e+01    25.3164      3.095      4.489    15.9617   999.0013 0.0000e+00
      3.157      0.005     0.7490      7.585     71.837  58.863456    33.2767      7.995   309.3512 6.5817e+01    25.9726      3.096      4.490    15.9142   999.0049 0.0000e+00
      3.157      0.003     0.7222      7.326     71.866  59.004257    26.3660      7.992   309.2904 6.5938e+01    27.1240      3.096      4.490    15.8720   999.0092 0.0000e+00
      3.157      0.001     0.7355      7.470     72.501  59.608868    22.6015      7.990   309.3933 6.5885e+01    27.7348      3.096      4.490    15.8650   999.0099 0.0000e+00
      3.157      0.000     0.7851      7.975     73.280  60.264023    22.2662      7.988   309.4769 6.5694e+01    27.7868      3.096      4.490    15.8860   999.0059 0.0000e+00
      3.157      0.000     0.8181      8.309     73.587  60.507416    22.2435      7.987   309.4411 6.5745e+01    27.7857      3.096      4.491    15.9573   998.9940 0.0000e+00
      3.157 -9.990e-29 -9.990e-29 -9.990e-29 -9.990e-29 -9.990e-29 -9.990e-29 -9.990e-29 -9.990e-29 6.6084e+01 -9.990e-29      3.096      4.491    16.0575   998.9779 0.0000e+00
      3.157 -9.990e-29 -9.990e-29 -9.990e-29 -9.990e-29 -9.990e-29 -9.990e-29 -9.990e-29 -9.990e-29 6.6212e+01 -9.990e-29      3.096      4.490    16.1275   998.9667 0.0000e+00
      3.157 -9.990e-29 -9.990e-29 -9.990e-29 -9.990e-29 -9.990e-29 -9.990e-29 -9.990e-29 -9.990e-29 6.6067e+01 -9.990e-29      3.096      4.490    16.1226   998.9679 0.0000e+00
      3.157 -9.990e-29 -9.990e-29 -9.990e-29 -9.990e-29 -9.990e-29 -9.990e-29 -9.990e-29 -9.990e-29 6.5983e+01 -9.990e-29      3.097      4.492    16.0937   998.9726 0.0000e+00
