* Sea-Bird SBE19plus  Data File:
* FileName = C:\DATA\070119_fcr_0007.hex
* Software version 2.8.0.119 SB_Terminal.dll
* Temperature SN = 7809
* Conductivity SN = 7809
* System UpLoad Time = Jul 01 2019 16:58:58
* <ApplicationData>
* <Seaterm232>
* <SoftwareVersion>2.8.0.119</SoftwareVersion>
* <BuildDate>07-Nov-2018</BuildDate>
* </Seaterm232>
* </ApplicationData>
* cast   7 01 Jul 2019 11:34:52 samples 11501 to 11911, avg = 1, stop = mag switch
# nquan = 16
# nvalues = 357                         
# units = specified
# name 0 = depFM: Depth [fresh water, m]
# name 1 = dz/dtM: Descent Rate [m/s]
# name 2 = sbeox0Mg/L: Oxygen, SBE 43 [mg/l]
# name 3 = sbeox0PS: Oxygen, SBE 43 [% saturation]
# name 4 = specc: Specific Conductance [uS/cm]
# name 5 = c0uS/cm: Conductivity [uS/cm]
# name 6 = flECO-AFL: Fluorescence, WET Labs ECO-AFL/FL [mg/m^3]
# name 7 = ph: pH
# name 8 = orp: Oxidation Reduction Potential [mV]
# name 9 = par/sat/log: PAR/Logarithmic, Satlantic
# name 10 = turbWETntu0: Turbidity, WET Labs ECO [NTU]
# name 11 = prdM: Pressure, Strain Gauge [db]
# name 12 = prdE: Pressure, Strain Gauge [psi]
# name 13 = tv290C: Temperature [ITS-90, deg C]
# name 14 = density00: Density [density, kg/m^3]
# name 15 = flag:  0.000e+00
# span 0 =     -0.574,      3.610       
# span 1 =     -0.243,      0.246       
# span 2 =    -0.8747,    13.9979       
# span 3 =     -8.924,    158.783       
# span 4 =      2.038,    325.875       
# span 5 =   2.050180, 260.799016       
# span 6 =    -0.1201,     5.9017       
# span 7 =      6.910,      9.393       
# span 8 =   123.6246,  1240.2295       
# span 9 = 1.4073e+01, 1.8776e+03       
# span 10 =    -1.3948,   138.0554      
# span 11 =     -0.563,      3.542      
# span 12 =     -0.817,      5.136      
# span 13 =    14.8539,    26.6503      
# span 14 =   996.6284,   999.2591      
# span 15 = 0.0000e+00, 0.0000e+00      
# interval = seconds: 0.25
# start_time = Jul 01 2019 11:34:52 [Instrument's time stamp, header]
# bad_flag = -9.990e-29
# <Sensors count="9" >
#   <sensor Channel="1" >
#     <!-- Count, Temperature -->
#     <TemperatureSensor SensorID="58" >
#       <SerialNumber>7809</SerialNumber>
#       <CalibrationDate>24-Mar-19</CalibrationDate>
#       <A0>1.21792325e-003</A0>
#       <A1>2.81669265e-004</A1>
#       <A2>-1.60333336e-006</A2>
#       <A3>1.98414625e-007</A3>
#       <Slope>1.00000000</Slope>
#       <Offset>0.0000</Offset>
#     </TemperatureSensor>
#   </sensor>
#   <sensor Channel="2" >
#     <!-- Frequency 0, Conductivity -->
#     <ConductivitySensor SensorID="3" >
#       <SerialNumber>7809</SerialNumber>
#       <CalibrationDate>24-Mar-19</CalibrationDate>
#       <UseG_J>1</UseG_J>
#       <!-- Cell const and series R are applicable only for wide range sensors. -->
#       <SeriesR>0.0000</SeriesR>
#       <CellConst>2000.0000</CellConst>
#       <ConductivityType>0</ConductivityType>
#       <Coefficients equation="0" >
#         <A>0.00000000e+000</A>
#         <B>0.00000000e+000</B>
#         <C>0.00000000e+000</C>
#         <D>0.00000000e+000</D>
#         <M>0.0</M>
#         <CPcor>-9.57000000e-008</CPcor>
#       </Coefficients>
#       <Coefficients equation="1" >
#         <G>-1.00589325e+000</G>
#         <H>1.26816302e-001</H>
#         <I>-1.51560448e-004</I>
#         <J>2.67137274e-005</J>
#         <CPcor>-9.57000000e-008</CPcor>
#         <CTcor>3.2500e-006</CTcor>
#         <!-- WBOTC not applicable unless ConductivityType = 1. -->
#         <WBOTC>0.00000000e+000</WBOTC>
#       </Coefficients>
#       <Slope>1.00000000</Slope>
#       <Offset>0.00000</Offset>
#     </ConductivitySensor>
#   </sensor>
#   <sensor Channel="3" >
#     <!-- Count, Pressure, Strain Gauge -->
#     <PressureSensor SensorID="46" >
#       <SerialNumber>7809</SerialNumber>
#       <CalibrationDate>11-Mar-19</CalibrationDate>
#       <PA0>4.56561833e-002</PA0>
#       <PA1>4.85095118e-004</PA1>
#       <PA2>-2.88327090e-012</PA2>
#       <PTEMPA0>-5.48784562e+001</PTEMPA0>
#       <PTEMPA1>5.53756816e+001</PTEMPA1>
#       <PTEMPA2>-5.86727098e-001</PTEMPA2>
#       <PTCA0>5.25246745e+005</PTCA0>
#       <PTCA1>1.22304214e+001</PTCA1>
#       <PTCA2>-3.56745036e-001</PTCA2>
#       <PTCB0>2.51668750e+001</PTCB0>
#       <PTCB1>3.75000000e-004</PTCB1>
#       <PTCB2>0.00000000e+000</PTCB2>
#       <Offset>0.000000</Offset>
#     </PressureSensor>
#   </sensor>
#   <sensor Channel="4" >
#     <!-- A/D voltage 0, Oxygen, SBE 43 -->
#     <OxygenSensor SensorID="38" >
#       <SerialNumber>0434</SerialNumber>
#       <CalibrationDate>13-Apr-19</CalibrationDate>
#       <Use2007Equation>1</Use2007Equation>
#       <CalibrationCoefficients equation="0" >
#         <!-- Coefficients for Owens-Millard equation. -->
#         <Boc>0.0000</Boc>
#         <Soc>0.0000e+000</Soc>
#         <offset>0.0000</offset>
#         <Pcor>0.00e+000</Pcor>
#         <Tcor>0.0000</Tcor>
#         <Tau>0.0</Tau>
#       </CalibrationCoefficients>
#       <CalibrationCoefficients equation="1" >
#         <!-- Coefficients for Sea-Bird equation - SBE calibration in 2007 and later. -->
#         <Soc>4.2007e-001</Soc>
#         <offset>-0.6109</offset>
#         <A>-4.3656e-003</A>
#         <B> 1.7017e-004</B>
#         <C>-2.5341e-006</C>
#         <D0> 2.5826e+000</D0>
#         <D1> 1.92634e-004</D1>
#         <D2>-4.64803e-002</D2>
#         <E> 3.6000e-002</E>
#         <Tau20> 1.1800</Tau20>
#         <H1>-3.3000e-002</H1>
#         <H2> 5.0000e+003</H2>
#         <H3> 1.4500e+003</H3>
#       </CalibrationCoefficients>
#     </OxygenSensor>
#   </sensor>
#   <sensor Channel="5" >
#     <!-- A/D voltage 1, PAR/Logarithmic, Satlantic -->
#     <PARLog_SatlanticSensor SensorID="76" >
#       <SerialNumber>1122</SerialNumber>
#       <CalibrationDate>08-May-2019</CalibrationDate>
#       <a0>9.7456e-001</a0>
#       <a1>8.1640e-001</a1>
#       <Im>1.3589e+000</Im>
#       <Multiplier>1.0000e+000</Multiplier>
#     </PARLog_SatlanticSensor>
#   </sensor>
#   <sensor Channel="6" >
#     <!-- A/D voltage 2, pH -->
#     <pH_Sensor SensorID="43" >
#       <SerialNumber>0363</SerialNumber>
#       <CalibrationDate>15-Apr-19</CalibrationDate>
#       <Slope>4.5952</Slope>
#       <Offset>2.5370</Offset>
#     </pH_Sensor>
#   </sensor>
#   <sensor Channel="7" >
#     <!-- A/D voltage 3, Oxidation Reduction Potential -->
#     <OxidationReductionPotentialSensor SensorID="41" >
#       <SerialNumber>0363</SerialNumber>
#       <CalibrationDate>15-Apr-19</CalibrationDate>
#       <B>2.499480</B>
#       <M>-0.496195</M>
#       <Offset>0.0</Offset>
#     </OxidationReductionPotentialSensor>
#   </sensor>
#   <sensor Channel="8" >
#     <!-- A/D voltage 4, Fluorometer, WET Labs ECO-AFL/FL -->
#     <FluoroWetlabECO_AFL_FL_Sensor SensorID="20" >
#       <SerialNumber>FLNTURT-2496</SerialNumber>
#       <CalibrationDate>08-May-2019</CalibrationDate>
#       <ScaleFactor>5.00000000e+001</ScaleFactor>
#       <!-- Dark output -->
#       <Vblank>0.0550</Vblank>
#     </FluoroWetlabECO_AFL_FL_Sensor>
#   </sensor>
#   <sensor Channel="9" >
#     <!-- A/D voltage 5, Turbidity Meter, WET Labs, ECO-NTU -->
#     <TurbidityMeter SensorID="67" >
#       <SerialNumber>FLNTURT-2496</SerialNumber>
#       <CalibrationDate>08-May-2019</CalibrationDate>
#       <ScaleFactor>189.000000</ScaleFactor>
#       <!-- Dark output -->
#       <DarkVoltage>0.071000</DarkVoltage>
#     </TurbidityMeter>
#   </sensor>
# </Sensors>
# datcnv_date = Jul 01 2019 17:02:30, 7.26.7.129 [datcnv_vars = 15]
# datcnv_in = C:\DATA\070119_fcr_0007.hex C:\DATA\SBE19plusV2_7809.xmlcon
# datcnv_skipover = 0
# datcnv_ox_hysteresis_correction = yes
# datcnv_ox_tau_correction = yes
# filter_date = Jul 01 2019 17:02:54, 7.26.7.129
# filter_in = C:\DATA\070119_fcr_0007.cnv
# filter_low_pass_tc_A = 0.030
# filter_low_pass_tc_B = 0.150
# filter_low_pass_A_vars = prdM prdE tv290C density00
# filter_low_pass_B_vars = depFM dz/dtM sbeox0Mg/L sbeox0PS specc c0uS/cm flECO-AFL ph orp par/sat/log turbWETntu0
# alignctd_date = Jul 01 2019 17:03:11, 7.26.7.129
# alignctd_in = C:\DATA\070119_fcr_0007.cnv
# alignctd_adv = dz/dtM 1.000, sbeox0Mg/L 1.000, sbeox0PS 1.000, specc 1.000, c0uS/cm 1.000, flECO-AFL 1.000, ph 1.000, orp 1.000, turbWETntu0 1.000                                                                                 
# file_type = ascii
*END*
     -0.574 1.5440e-13     6.8365     83.189      2.038   2.050180    -0.0557      6.910  1240.2295 6.7907e+02     0.1204     -0.563     -0.816    25.2922   996.9777 0.0000e+00
     -0.574 1.6984e-12     6.8335     83.154      2.294   2.307979    -0.0392      6.911  1240.2295 8.3043e+02     0.1655     -0.562     -0.815    25.2930   996.9775 0.0000e+00
     -0.574 1.8683e-11     6.8311     83.126      2.407   2.420604    -0.0274      6.911  1240.2295 8.8495e+02     0.1874     -0.563     -0.816    25.2935   996.9773 0.0000e+00
     -0.574 2.0551e-10     6.8312     83.129      2.447   2.461457    -0.0432      6.911  1240.2295 8.0170e+02     0.1554     -0.563     -0.817    25.2938   996.9772 0.0000e+00
     -0.574 2.2606e-09     6.8332     83.155      2.407   2.421738    -0.0835      6.913  1240.2295 7.0724e+02     0.1404     -0.562     -0.815    25.2949   996.9770 0.0000e+00
     -0.574 2.4867e-08     6.8363     83.194      2.307   2.320553    -0.1070      6.913  1240.2293 6.2412e+02     0.1699     -0.563     -0.816    25.2960   996.9767 0.0000e+00
     -0.574 2.7353e-07     6.8397     83.236      2.175   2.188502    -0.1097      6.911  1240.2276 5.5975e+02     0.1513     -0.563     -0.817    25.2968   996.9766 0.0000e+00
     -0.574      0.000     6.8434     83.282      2.080   2.092387    -0.1079      6.911  1240.2091 5.3902e+02    -0.0521     -0.562     -0.815    25.2977   996.9764 0.0000e+00
     -0.574      0.000     6.8467     83.323      2.096   2.108893    -0.1033      6.914  1240.0047 5.2537e+02    -0.3563     -0.563     -0.816    25.2981   996.9762 0.0000e+00
     -0.574      0.000     6.8493     83.356      2.373   2.388080    -0.1055      6.926  1237.7571 5.1619e+02    -0.5121     -0.563     -0.816    25.2993   996.9759 0.0000e+00
     -0.574      0.004     6.8512     83.391      5.178   5.214558    -0.1169      7.011  1213.0327 6.0947e+02    -0.5581     -0.562     -0.815    25.2995   996.9757 0.0000e+00
     -0.574      0.019     6.8445     83.417     15.283  15.432273    -0.1201      7.250   941.0645 8.0577e+02    -0.7814     -0.562     -0.816    25.3013   996.9754 0.0000e+00
     -0.574      0.050     6.8169     83.418     28.653  29.042621    -0.1087      7.619   447.7352 1.0206e+03    -1.1813     -0.562     -0.816    25.3000   996.9756 0.0000e+00
     -0.573      0.090     6.7738     83.398     35.156  35.826769    -0.0922      8.033   186.9689 1.2512e+03    -1.3948     -0.563     -0.816    25.3028   996.9751 0.0000e+00
     -0.558      0.134     6.7340     83.368     35.797  36.689161    -0.0587      8.425   167.4049 1.4553e+03    -1.2328     -0.562     -0.814    25.2989   996.9757 0.0000e+00
     -0.512      0.176     6.7064     83.343     35.702  36.740840     0.2787      8.748   164.4696 1.6068e+03     0.7456     -0.515     -0.747    25.3098   996.9758 0.0000e+00
     -0.438      0.212     6.6947     83.388     35.581  36.705720     0.9087      8.988   157.7592 1.6992e+03     4.3697     -0.424     -0.615    25.5455   996.9207 0.0000e+00
     -0.365      0.234     6.7017     83.561     35.483  36.645495     1.2558      9.149   142.9712 1.5501e+03     6.3407     -0.352     -0.512    25.9608   996.8129 0.0000e+00
     -0.302      0.238     6.7234     83.843     35.418  36.583980     1.2943      9.245   141.5713 1.3591e+03     6.3879     -0.298     -0.432    26.2755   996.7287 0.0000e+00
     -0.239      0.225     6.7554     84.209     35.383  36.533194     1.3562      9.307   154.9443 1.4009e+03     5.3005     -0.232     -0.337    26.4760   996.6751 0.0000e+00
     -0.179      0.207     6.7933     84.637     35.348  36.475718     1.4582      9.350   154.8686 1.2039e+03     3.3521     -0.171     -0.248    26.5997   996.6417 0.0000e+00
     -0.131      0.197     6.8331     85.088     35.292  36.396779     1.5128      9.373   148.4861 7.9296e+02     2.2969     -0.124     -0.181    26.6503   996.6284 0.0000e+00
     -0.093      0.192     6.8745     85.558     35.258  36.340372     1.5226      9.383   156.2412 7.0514e+02     2.2098     -0.090     -0.129    26.6492   996.6287 0.0000e+00
     -0.056      0.187     6.9183     86.047     35.244  36.301439     1.5323      9.391   164.4881 7.5296e+02     2.2008     -0.061     -0.089    26.6192   996.6371 0.0000e+00
     -0.007      0.182     6.9620     86.533     35.213  36.243349     1.6039      9.393   165.1709 7.4438e+02     2.1876     -0.013     -0.018    26.5878   996.6457 0.0000e+00
      0.053      0.174     7.0014     86.981     35.198  36.209216     1.7386      9.383   165.0133 1.1458e+03     2.2140      0.055      0.081    26.5587   996.6538 0.0000e+00
      0.108      0.159     7.0357     87.382     35.207  36.206074     1.8173      9.366   164.3888 1.7471e+03     2.2575      0.110      0.159    26.5330   996.6611 0.0000e+00
      0.149      0.135     7.0662     87.735     35.217  36.205337     1.8272      9.347   156.9322 1.6599e+03     2.2552      0.149      0.217    26.4951   996.6715 0.0000e+00
      0.178      0.106     7.0929     88.030     35.228  36.200291     1.8234      9.327   142.4829 1.0973e+03     2.1870      0.178      0.260    26.4526   996.6831 0.0000e+00
      0.197      0.077     7.1209     88.336     35.253  36.208504     1.8238      9.307   133.7130 8.0030e+02     2.0885      0.197      0.286    26.4261   996.6904 0.0000e+00
      0.205      0.053     7.1562     88.740     35.300  36.241143     1.8326      9.287   135.2153 8.4227e+02     2.0468      0.204      0.296    26.4132   996.6939 0.0000e+00
      0.210      0.036     7.2037     89.304     35.346  36.277543     1.8343      9.267   137.8473 9.7007e+02     2.0431      0.203      0.295    26.4009   996.6972 0.0000e+00
      0.217      0.026     7.2675     90.076     35.406  36.331243     1.8096      9.249   134.0454 9.6948e+02     2.0112      0.212      0.307    26.3759   996.7039 0.0000e+00
      0.225      0.023     7.3403     90.962     35.463  36.382645     1.7761      9.232   129.3412 8.5950e+02     1.9883      0.223      0.323    26.3464   996.7119 0.0000e+00
      0.230      0.023     7.4117     91.837     35.475  36.391262     1.7674      9.213   128.5491 8.9785e+02     1.9960      0.227      0.329    26.3260   996.7174 0.0000e+00
      0.232      0.023     7.4795     92.672     35.458  36.371957     1.7736      9.192   128.4251 1.0932e+03     2.0065      0.227      0.329    26.3114   996.7214 0.0000e+00
      0.236      0.021     7.5350     93.360     35.427  36.339637     1.7646      9.175   127.1540 1.1477e+03     1.9840      0.229      0.332    26.2997   996.7246 0.0000e+00
      0.245      0.017     7.5649     93.731     35.405  36.317842     1.7284      9.164   125.9145 1.0830e+03     1.9535      0.240      0.348    26.2899   996.7273 0.0000e+00
      0.254      0.017     7.5686     93.777     35.387  36.298848     1.7001      9.157   125.3972 1.1505e+03     1.9978      0.253      0.365    26.2830   996.7291 0.0000e+00
      0.258      0.021     7.5549     93.607     35.327  36.236921     1.7006      9.151   125.0297 1.2328e+03     2.0610      0.255      0.369    26.2814   996.7296 0.0000e+00
      0.255      0.026     7.5299     93.293     35.234  36.140324     1.7082      9.141   124.7400 1.3433e+03     2.0621      0.250      0.362    26.2822   996.7294 0.0000e+00
      0.255      0.029     7.4998     92.916     35.180  36.082958     1.7138      9.130   124.4755 1.3900e+03     2.0113      0.246      0.356    26.2828   996.7292 0.0000e+00
      0.264      0.030     7.4720     92.569     35.211  36.114543     1.7162      9.123   124.2410 1.1463e+03     1.9712      0.255      0.370    26.2835   996.7290 0.0000e+00
      0.283      0.029     7.4514     92.310     35.301  36.204854     1.7107      9.118   124.1425 1.0128e+03     2.0022      0.279      0.405    26.2828   996.7293 0.0000e+00
      0.301      0.025     7.4401     92.165     35.382  36.286322     1.7075      9.113   124.1444 1.0671e+03     2.0263      0.301      0.436    26.2793   996.7302 0.0000e+00
      0.307      0.019     7.4322     92.060     35.435  36.337920     1.7554      9.111   124.0064 1.0510e+03     2.0001      0.305      0.441    26.2764   996.7310 0.0000e+00
      0.302      0.011     7.4147     91.838     35.483  36.384413     1.8390      9.111   123.8500 1.0465e+03     1.9801      0.296      0.428    26.2764   996.7311 0.0000e+00
      0.297      0.004     7.3775     91.376     35.503  36.404163     1.8776      9.110   123.8026 1.0811e+03     1.9484      0.290      0.420    26.2752   996.7313 0.0000e+00
      0.295      0.003     7.3195     90.657     35.486  36.386299     1.8841      9.105   123.6915 1.0817e+03     1.9447      0.288      0.418    26.2711   996.7325 0.0000e+00
      0.297      0.007     7.2481     89.772     35.459  36.358835     1.8572      9.095   123.6246 1.0495e+03     2.0009      0.291      0.422    26.2659   996.7338 0.0000e+00
      0.301      0.012     7.1949     89.112     35.427  36.325989     1.7779      9.083   123.7687 1.0055e+03     2.0388      0.294      0.426    26.2631   996.7346 0.0000e+00
      0.306      0.016     7.1925     89.085     35.408  36.306505     1.7149      9.068   123.8851 1.0251e+03     2.0416      0.299      0.434    26.2633   996.7347 0.0000e+00
      0.312      0.016     7.2365     89.632     35.414  36.313680     1.6930      9.054   123.8274 1.1292e+03     2.0352      0.307      0.446    26.2633   996.7346 0.0000e+00
      0.317      0.012     7.3083     90.522     35.449  36.349275     1.6949      9.041   123.7590 1.2323e+03     2.0601      0.312      0.453    26.2627   996.7348 0.0000e+00
      0.322      0.007     7.3855     91.480     35.516  36.419530     1.7036      9.030   123.7461 1.3120e+03     2.0805      0.316      0.458    26.2615   996.7352 0.0000e+00
      0.324      0.003     7.4490     92.265     35.561  36.464930     1.7031      9.017   123.8444 1.3986e+03     2.0524      0.320      0.465    26.2620   996.7351 0.0000e+00
      0.321      0.002     7.4889     92.754     35.553  36.453909     1.7061      9.000   124.0866 1.3602e+03     2.0151      0.317      0.460    26.2636   996.7347 0.0000e+00
      0.316      0.003     7.4912     92.774     35.517  36.413215     1.7221      8.981   124.3515 1.1371e+03     1.9897      0.308      0.446    26.2641   996.7345 0.0000e+00
      0.313      0.004     7.4478     92.224     35.463  36.353724     1.7496      8.965   124.6379 9.8770e+02     2.0082      0.304      0.441    26.2650   996.7342 0.0000e+00
      0.318      0.006     7.3704     91.256     35.420  36.305839     1.7694      8.953   124.8823 9.9251e+02     2.0414      0.311      0.451    26.2654   996.7343 0.0000e+00
      0.326      0.008     7.2846     90.186     35.397  36.278534     1.7706      8.942   125.0701 1.0184e+03     2.0307      0.321      0.466    26.2625   996.7350 0.0000e+00
      0.331      0.008     7.2177     89.351     35.399  36.277451     1.7806      8.932   125.3591 9.9856e+02     2.0101      0.325      0.472    26.2567   996.7365 0.0000e+00
      0.332      0.006     7.1883     88.981     35.417  36.292742     1.8037      8.922   125.6238 9.6865e+02     2.0222      0.325      0.472    26.2493   996.7384 0.0000e+00
      0.331      0.001     7.1907     89.003     35.401  36.273007     1.8172      8.912   125.7757 9.8453e+02     2.0453      0.324      0.471    26.2429   996.7402 0.0000e+00
      0.330     -0.002     7.2047     89.166     35.362  36.229244     1.8304      8.903   125.9907 1.0133e+03     2.0607      0.323      0.469    26.2383   996.7414 0.0000e+00
      0.328     -0.002     7.2171     89.309     35.345  36.207895     1.8339      8.896   126.3306 9.9995e+02     2.0770      0.322      0.467    26.2345   996.7425 0.0000e+00
      0.326     -0.001     7.2291     89.448     35.347  36.205282     1.8073      8.889   126.6155 9.1535e+02     2.1440      0.320      0.464    26.2307   996.7435 0.0000e+00
      0.325      0.001     7.2499     89.697     35.344  36.197648     1.7777      8.880   126.7687 7.7548e+02     2.2476      0.318      0.461    26.2255   996.7449 0.0000e+00
      0.326      0.002     7.2812     90.076     35.329  36.179055     1.7706      8.866   126.9784 6.4013e+02     2.2818      0.319      0.463    26.2196   996.7464 0.0000e+00
      0.329      0.002     7.3193     90.542     35.323  36.170882     1.7823      8.849   127.2579 5.9284e+02     2.2618      0.324      0.470    26.2137   996.7480 0.0000e+00
      0.331      0.000     7.3621     91.067     35.317  36.162293     1.8408      8.835   127.3948 6.5236e+02     2.2360      0.326      0.472    26.2080   996.7496 0.0000e+00
      0.331     -0.005     7.4033     91.574     35.295  36.138683     1.9490      8.830   127.4291 7.6024e+02     2.1988      0.325      0.471    26.2018   996.7512 0.0000e+00
      0.331     -0.010     7.4351     91.964     35.297  36.139286     2.0150      8.832   127.5860 8.5474e+02     2.1724      0.325      0.472    26.1967   996.7526 0.0000e+00
      0.329     -0.015     7.4533     92.185     35.328  36.169589     2.0146      8.836   127.8300 9.0079e+02     2.1792      0.325      0.471    26.1932   996.7535 0.0000e+00
      0.322     -0.017     7.4568     92.224     35.347  36.187711     1.9449      8.836   128.0557 9.5022e+02     2.1496      0.317      0.460    26.1906   996.7542 0.0000e+00
      0.312     -0.014     7.4457     92.083     35.329  36.167989     1.8223      8.831   128.3363 1.0237e+03     2.0436      0.305      0.442    26.1889   996.7545 0.0000e+00
      0.305     -0.008     7.4207     91.772     35.285  36.121537     1.7628      8.821   128.6418 1.0327e+03     2.0120      0.298      0.431    26.1876   996.7548 0.0000e+00
      0.304     -0.002     7.3867     91.349     35.236  36.070357     1.7727      8.811   128.8240 9.8257e+02     2.0625      0.297      0.430    26.1853   996.7555 0.0000e+00
      0.307      0.004     7.3525     90.924     35.223  36.056936     1.8199      8.802   128.9907 9.5617e+02     2.0636      0.299      0.434    26.1823   996.7563 0.0000e+00
      0.314      0.009     7.3229     90.558     35.253  36.086211     1.9005      8.797   129.2812 9.5979e+02     2.0261      0.308      0.445    26.1800   996.7570 0.0000e+00
      0.320      0.011     7.3004     90.280     35.273  36.106959     1.9486      8.793   129.5819 9.4306e+02     1.9697      0.317      0.459    26.1789   996.7573 0.0000e+00
      0.323      0.011     7.2879     90.126     35.283  36.117393     1.9592      8.789   129.8736 9.3013e+02     1.9393      0.319      0.463    26.1778   996.7576 0.0000e+00
      0.321      0.011     7.2841     90.081     35.313  36.148891     2.0034      8.783   130.2267 9.4932e+02     1.9538      0.315      0.457    26.1762   996.7579 0.0000e+00
      0.320      0.011     7.2838     90.078     35.333  36.170455     2.0834      8.775   130.5821 9.7233e+02     1.9476      0.312      0.453    26.1757   996.7581 0.0000e+00
      0.323      0.012     7.2763     89.987     35.288  36.124233     2.1210      8.767   130.9010 1.0280e+03     1.9298      0.315      0.457    26.1761   996.7580 0.0000e+00
      0.329      0.012     7.2510     89.672     35.200  36.034322     2.1113      8.758   131.1574 1.0747e+03     1.9353      0.323      0.467    26.1769   996.7578 0.0000e+00
      0.335      0.012     7.2055     89.107     35.140  35.971930     2.0784      8.749   131.2729 1.0971e+03     1.9486      0.330      0.477    26.1777   996.7576 0.0000e+00
      0.340      0.008     7.1395     88.290     35.110  35.941087     2.0354      8.742   131.3516 1.0934e+03     1.9271      0.335      0.486    26.1785   996.7574 0.0000e+00
      0.342      0.003     7.0537     87.228     35.085  35.915279     2.0169      8.735   131.5922 1.0320e+03     1.9041      0.337      0.488    26.1794   996.7572 0.0000e+00
      0.341     -0.002     6.9552     86.010     35.084  35.913764     2.0100      8.728   131.9453 9.9630e+02     1.9658      0.335      0.487    26.1788   996.7573 0.0000e+00
      0.337     -0.006     6.8506     84.717     35.092  35.922773     2.0042      8.721   132.2662 9.9508e+02     2.0174      0.330      0.480    26.1771   996.7578 0.0000e+00
      0.333     -0.008     6.7477     83.445     35.067  35.897270     1.9736      8.714   132.5464 9.9063e+02     2.0041      0.326      0.472    26.1759   996.7581 0.0000e+00
      0.330     -0.008     6.6582     82.339     35.030  35.859283     1.9168      8.707   132.8377 9.9695e+02     2.0011      0.324      0.470    26.1758   996.7580 0.0000e+00
      0.329     -0.007     6.5849     81.433     35.015  35.844291     1.8902      8.701   133.1212 1.0102e+03     1.9809      0.323      0.469    26.1763   996.7579 0.0000e+00
      0.329     -0.005     6.5243     80.683     35.014  35.842938     1.8937      8.696   133.3925 1.0247e+03     1.9894      0.322      0.468    26.1765   996.7579 0.0000e+00
      0.328     -0.004     6.4759     80.084     35.014  35.842927     1.9253      8.691   133.7093 1.0232e+03     2.0394      0.322      0.467    26.1767   996.7578 0.0000e+00
      0.327     -0.003     6.4373     79.605     35.016  35.844165     1.9770      8.685   134.0257 1.0238e+03     2.0601      0.320      0.465    26.1773   996.7576 0.0000e+00
      0.325     -0.003     6.4048     79.204     35.030  35.857910     2.0076      8.680   134.2928 1.0634e+03     2.0430      0.319      0.463    26.1773   996.7576 0.0000e+00
      0.324     -0.002     6.3792     78.886     35.055  35.882173     2.0173      8.677   134.5295 1.0767e+03     1.9975      0.318      0.461    26.1770   996.7577 0.0000e+00
      0.324      0.000     6.3576     78.617     35.056  35.883652     2.0257      8.674   134.7371 1.0477e+03     2.0340      0.318      0.461    26.1766   996.7578 0.0000e+00
      0.324      0.002     6.3363     78.353     35.049  35.875791     2.0398      8.669   134.9094 1.0423e+03     2.1559      0.318      0.462    26.1759   996.7580 0.0000e+00
      0.325      0.004     6.3156     78.096     35.087  35.914069     2.0573      8.666   135.1500 1.0508e+03     2.2267      0.318      0.461    26.1750   996.7582 0.0000e+00
      0.327      0.008     6.2962     77.856     35.137  35.965645     2.0730      8.665   135.5818 1.0533e+03     2.2345      0.321      0.466    26.1743   996.7584 0.0000e+00
      0.329      0.014     6.2815     77.677     35.161  35.991635     2.0908      8.662   136.0862 1.0427e+03     2.2169      0.324      0.469    26.1737   996.7586 0.0000e+00
      0.329      0.022     6.2763     77.616     35.205  36.037893     2.1164      8.652   136.6024 1.0311e+03     2.2104      0.323      0.468    26.1735   996.7587 0.0000e+00
      0.334      0.034     6.2858     77.737     35.183  36.017192     2.1395      8.627   137.1778 1.0361e+03     2.2219      0.324      0.471    26.1732   996.7587 0.0000e+00
      0.344      0.045     6.3173     78.133     35.035  35.868272     2.1452      8.587   137.6223 1.0356e+03     2.2246      0.337      0.488    26.1729   996.7589 0.0000e+00
      0.357      0.053     6.3748     78.851     34.926  35.760598     2.1410      8.557   137.8476 1.0202e+03     2.2109      0.349      0.506    26.1748   996.7585 0.0000e+00
      0.376      0.054     6.4492     79.771     34.897  35.730838     2.1405      8.548   138.0937 9.7328e+02     2.1865      0.364      0.529    26.1772   996.7579 0.0000e+00
      0.401      0.050     6.5228     80.665     34.873  35.698850     2.1395      8.556   138.4469 9.0485e+02     2.1911      0.397      0.576    26.1791   996.7575 0.0000e+00
      0.418      0.040     6.5846     81.403     34.877  35.691172     2.1382      8.572   138.6773 8.3756e+02     2.2019      0.417      0.604    26.1820   996.7568 0.0000e+00
      0.422      0.028     6.6327     81.967     34.902  35.701459     2.1327      8.585   138.8147 8.2513e+02     2.1863      0.414      0.601    26.1894   996.7547 0.0000e+00
      0.422      0.015     6.6653     82.338     34.912  35.696265     2.0910      8.592   139.0756 8.8106e+02     2.1656      0.413      0.599    26.1940   996.7536 0.0000e+00
      0.422      0.005     6.6790     82.483     34.918  35.691816     2.0325      8.593   139.4225 9.2337e+02     2.1482      0.415      0.601    26.1798   996.7573 0.0000e+00
      0.420      0.002     6.6765     82.446     34.939  35.711120     2.0158      8.591   139.7396 9.4172e+02     2.1730      0.412      0.597    26.1607   996.7625 0.0000e+00
      0.418      0.006     6.6715     82.391     34.964  35.739249     2.0268      8.588   139.9837 9.5643e+02     2.2360      0.409      0.593    26.1410   996.7677 0.0000e+00
      0.418      0.011     6.6765     82.462     34.936  35.714588     2.0619      8.585   140.1367 9.6826e+02     2.2549      0.409      0.593    26.1144   996.7748 0.0000e+00
      0.422      0.011     6.6921     82.663     34.886  35.666829     2.1194      8.581   140.2992 9.2721e+02     2.2373      0.412      0.596    26.0969   996.7795 0.0000e+00
      0.432      0.010     6.7109     82.901     34.886  35.669562     2.1419      8.576   140.6587 8.6173e+02     2.2523      0.424      0.615    26.0944   996.7802 0.0000e+00
      0.440      0.008     6.7229     83.051     34.899  35.684166     2.1343      8.570   141.1279 8.5268e+02     2.2733      0.436      0.633    26.1015   996.7785 0.0000e+00
      0.440      0.008     6.7242     83.066     34.869  35.652993     2.1051      8.562   141.4124 8.7651e+02     2.2617      0.435      0.631    26.1090   996.7763 0.0000e+00
      0.433      0.005     6.7166     82.969     34.828  35.609997     2.0483      8.554   141.3451 9.0832e+02     2.2431      0.423      0.613    26.1135   996.7751 0.0000e+00
      0.429     -0.004     6.6976     82.721     34.833  35.608583     2.0203      8.547   141.2609 9.2802e+02     2.2442      0.416      0.603    26.1171   996.7741 0.0000e+00
      0.434     -0.017     6.6666     82.302     34.876  35.635887     2.0268      8.540   141.1682 9.2647e+02     2.2423      0.424      0.616    26.1188   996.7737 0.0000e+00
      0.442     -0.034     6.6266     81.756     34.949  35.686223     2.0139      8.534   140.6552 9.2084e+02     2.1882      0.438      0.635    26.1188   996.7737 0.0000e+00
      0.437     -0.058     6.5860     81.210     34.993  35.709410     1.9771      8.527   140.2200 9.4169e+02     2.0813      0.436      0.634    26.1168   996.7743 0.0000e+00
      0.417     -0.083     6.5591     80.848     34.961  35.662327     1.9542      8.519   140.2081 9.8344e+02     1.9988      0.410      0.595    26.1138   996.7750 0.0000e+00
      0.387     -0.102     6.5613     80.858     34.932  35.624680     1.9448      8.509   140.3395 1.0425e+03     2.0100      0.382      0.553    26.0879   996.7817 0.0000e+00
      0.348     -0.107     6.6014     81.355     34.941  35.635032     1.8640      8.499   140.5177 1.1035e+03     2.0529      0.347      0.503    26.0432   996.7935 0.0000e+00
      0.302     -0.095     6.6748     82.283     34.956  35.660554     1.7143      8.488   140.7277 1.0974e+03     2.0255      0.291      0.420    26.0147   996.8008 0.0000e+00
      0.269     -0.072     6.7686     83.473     34.959  35.679396     1.6347      8.477   140.9858 1.0914e+03     1.9741      0.254      0.368    25.9943   996.8061 0.0000e+00
      0.258     -0.044     6.8630     84.671     34.937  35.672468     1.6392      8.466   141.2294 1.1523e+03     1.9883      0.249      0.361    25.9801   996.8098 0.0000e+00
      0.262     -0.019     6.9357     85.595     34.893  35.640283     1.6553      8.457   141.3499 1.1539e+03     2.0005      0.255      0.369    25.9821   996.8094 0.0000e+00
      0.272     -0.001     6.9738     86.085     34.853  35.607613     1.7171      8.451   141.4107 1.0939e+03     1.9909      0.267      0.388    25.9985   996.8050 0.0000e+00
      0.281      0.006     6.9735     86.093     34.835  35.594814     1.8316      8.447   141.5342 1.0954e+03     2.0032      0.278      0.403    26.0250   996.7980 0.0000e+00
      0.283      0.005     6.9355     85.625     34.852  35.612481     1.8944      8.440   141.8101 1.1332e+03     1.9847      0.280      0.407    26.0489   996.7917 0.0000e+00
      0.279      0.002     6.8686     84.791     34.873  35.630815     1.8874      8.425   142.1656 1.1700e+03     1.9645      0.274      0.398    26.0655   996.7872 0.0000e+00
      0.273     -0.000     6.7893     83.804     34.872  35.626085     1.8504      8.407   142.3918 1.2153e+03     1.9883      0.266      0.386    26.0775   996.7840 0.0000e+00
      0.270      0.001     6.7132     82.862     34.866  35.618745     1.8025      8.389   142.4790 1.1655e+03     2.0104      0.263      0.382    26.0874   996.7813 0.0000e+00
      0.272      0.004     6.6524     82.112     34.853  35.605531     1.7856      8.373   142.6183 1.0520e+03     2.0028      0.267      0.387    26.0879   996.7812 0.0000e+00
      0.277      0.008     6.6129     81.626     34.840  35.593264     1.7850      8.360   142.9575 1.0575e+03     1.9939      0.273      0.395    26.0790   996.7836 0.0000e+00
      0.281      0.009     6.5917     81.364     34.845  35.597363     1.8031      8.352   143.3110 1.1277e+03     2.0668      0.276      0.401    26.0724   996.7853 0.0000e+00
      0.285      0.007     6.5810     81.230     34.840  35.591613     1.8578      8.351   143.5361 1.1778e+03     2.1962      0.281      0.407    26.0716   996.7856 0.0000e+00
      0.287      0.004     6.5753     81.157     34.836  35.587214     1.8917      8.352   143.7010 1.2093e+03     2.2467      0.283      0.410    26.0741   996.7850 0.0000e+00
      0.286      0.003     6.5703     81.095     34.856  35.607644     1.8918      8.353   143.8415 1.2040e+03     2.2193      0.281      0.408    26.0744   996.7849 0.0000e+00
      0.284      0.006     6.5614     80.989     34.894  35.648218     1.8768      8.348   144.0306 1.1971e+03     2.2249      0.280      0.405    26.0736   996.7851 0.0000e+00
      0.282      0.011     6.5491     80.846     34.938  35.696985     1.8569      8.335   144.2665 1.1838e+03     2.2822      0.275      0.399    26.0727   996.7853 0.0000e+00
      0.283      0.019     6.5367     80.706     34.925  35.689540     1.8506      8.315   144.5427 1.1891e+03     2.2894      0.276      0.400    26.0702   996.7860 0.0000e+00
      0.290      0.024     6.5264     80.590     34.853  35.621674     1.8443      8.289   144.8754 1.2346e+03     2.2466      0.282      0.410    26.0695   996.7862 0.0000e+00
      0.302      0.026     6.5157     80.469     34.803  35.574594     1.8502      8.262   145.1059 1.2013e+03     2.2231      0.294      0.428    26.0722   996.7855 0.0000e+00
      0.316      0.023     6.4987     80.266     34.789  35.564581     1.8780      8.246   145.1782 1.1062e+03     2.2342      0.312      0.452    26.0784   996.7839 0.0000e+00
      0.326      0.018     6.4712     79.933     34.785  35.564081     1.8950      8.242   145.3195 1.0882e+03     2.2831      0.323      0.468    26.0879   996.7815 0.0000e+00
      0.327      0.012     6.4317     79.451     34.787  35.568559     1.8996      8.245   145.6095 1.1171e+03     2.3216      0.322      0.468    26.0965   996.7792 0.0000e+00
      0.323      0.007     6.3835     78.860     34.772  35.555256     1.8996      8.250   145.9316 1.1066e+03     2.3076      0.316      0.458    26.1026   996.7775 0.0000e+00
      0.319      0.003     6.3316     78.222     34.746  35.530183     1.9025      8.254   146.2017 1.1082e+03     2.2114      0.311      0.451    26.1085   996.7759 0.0000e+00
      0.320      0.002     6.2769     77.548     34.735  35.519283     1.9263      8.257   146.3806 1.1087e+03     2.0766      0.313      0.454    26.1136   996.7745 0.0000e+00
      0.324      0.003     6.2203     76.850     34.702  35.486924     1.9543      8.258   146.5470 1.1180e+03     2.0216      0.318      0.461    26.1171   996.7736 0.0000e+00
      0.328      0.003     6.1638     76.153     34.672  35.456277     1.9631      8.259   146.7510 1.1730e+03     2.0376      0.322      0.466    26.1201   996.7728 0.0000e+00
      0.329      0.002     6.1093     75.479     34.682  35.466079     1.9975      8.261   146.9534 1.1653e+03     2.0733      0.324      0.469    26.1221   996.7723 0.0000e+00
      0.328      0.001     6.0588     74.852     34.695  35.478500     2.0760      8.265   147.1876 1.1240e+03     2.1259      0.322      0.466    26.1234   996.7720 0.0000e+00
      0.326     -0.001     6.0120     74.271     34.698  35.479516     2.1308      8.266   147.4319 1.1084e+03     2.1820      0.319      0.462    26.1247   996.7716 0.0000e+00
      0.325     -0.001     5.9696     73.744     34.698  35.478371     2.1484      8.265   147.6696 1.1046e+03     2.2270      0.318      0.461    26.1254   996.7713 0.0000e+00
      0.325     -0.001     5.9316     73.272     34.686  35.464648     2.1511      8.265   147.9109 1.1114e+03     2.2440      0.319      0.462    26.1251   996.7715 0.0000e+00
      0.325      0.000     5.8958     72.827     34.664  35.440519     2.1463      8.263   148.1121 1.1135e+03     2.2561      0.320      0.463    26.1233   996.7720 0.0000e+00
      0.325      0.000     5.8615     72.402     34.665  35.440509     2.1419      8.260   148.2965 1.1055e+03     2.2748      0.319      0.463    26.1203   996.7727 0.0000e+00
      0.325      0.000     5.8286     71.994     34.689  35.464524     2.1413      8.258   148.5059 1.0912e+03     2.2739      0.320      0.464    26.1175   996.7735 0.0000e+00
      0.325      0.001     5.7980     71.615     34.702  35.477008     2.1818      8.257   148.7509 1.0874e+03     2.2456      0.319      0.463    26.1154   996.7741 0.0000e+00
      0.325      0.002     5.7704     71.273     34.691  35.464513     2.2593      8.256   149.0212 1.0971e+03     2.2281      0.319      0.462    26.1138   996.7745 0.0000e+00
      0.325      0.005     5.7438     70.944     34.667  35.440383     2.3068      8.254   149.2785 1.1062e+03     2.2584      0.318      0.461    26.1124   996.7748 0.0000e+00
      0.326      0.007     5.7156     70.597     34.665  35.439125     2.3145      8.251   149.4533 1.0980e+03     2.2844      0.319      0.462    26.1109   996.7753 0.0000e+00
      0.328      0.009     5.6856     70.227     34.675  35.449302     2.2997      8.248   149.5860 1.0865e+03     2.2146      0.322      0.466    26.1096   996.7756 0.0000e+00
      0.332      0.009     5.6571     69.874     34.663  35.436495     2.2752      8.245   149.8495 1.0826e+03     2.0696      0.326      0.473    26.1091   996.7758 0.0000e+00
      0.336      0.008     5.6321     69.564     34.639  35.411215     2.2621      8.241   150.1442 1.0648e+03     1.9736      0.331      0.480    26.1096   996.7757 0.0000e+00
      0.339      0.005     5.6087     69.272     34.627  35.397514     2.2620      8.238   150.3104 1.0431e+03     1.9718      0.333      0.483    26.1102   996.7755 0.0000e+00
      0.339      0.003     5.5860     68.989     34.628  35.397778     2.2560      8.235   150.5689 1.0497e+03     2.0143      0.334      0.484    26.1107   996.7754 0.0000e+00
      0.338      0.001     5.5642     68.718     34.646  35.414402     2.1897      8.232   150.8601 1.0669e+03     2.0945      0.333      0.481    26.1103   996.7755 0.0000e+00
      0.336      0.000     5.5434     68.461     34.826  35.598514     2.0771      8.230   150.9916 1.0779e+03     2.1872      0.330      0.478    26.1088   996.7758 0.0000e+00
      0.336      0.000     5.5359     68.371     35.191  35.973655     2.0206      8.227   151.1262 1.0894e+03     2.2174      0.329      0.477    26.1068   996.7764 0.0000e+00
      0.337      0.000     5.6168     69.380     35.475  36.268987     2.0182      8.225   151.2835 1.0784e+03     2.2309      0.330      0.478    26.1048   996.7769 0.0000e+00
      0.338      0.001     5.9245     73.198     35.572  36.376675     2.0136      8.222   151.4315 1.0660e+03     2.2518      0.333      0.482    26.1031   996.7774 0.0000e+00
      0.339      0.001     6.5122     80.475     35.574  36.387127     2.0086      8.219   151.6251 1.0947e+03     2.2410      0.334      0.484    26.1018   996.7778 0.0000e+00
      0.339      0.001     7.2791     89.963     35.577  36.395377     2.0001      8.217   151.9029 1.1174e+03     2.2319      0.333      0.482    26.1024   996.7777 0.0000e+00
      0.338      0.001     8.0696     99.741     35.591  36.412960     1.9985      8.216   152.2089 1.0944e+03     2.2395      0.332      0.481    26.1106   996.7756 0.0000e+00
      0.337      0.002     8.7631    108.317     35.586  36.409308     2.0585      8.216   152.4864 1.0761e+03     2.2674      0.331      0.479    26.1255   996.7717 0.0000e+00
      0.337      0.005     9.3054    115.023     35.591  36.414701     2.1535      8.214   152.7625 1.0843e+03     2.3074      0.330      0.479    26.1377   996.7684 0.0000e+00
      0.338      0.007     9.6788    119.636     35.592  36.414691     2.1932      8.211   152.8802 1.0869e+03     2.2973      0.331      0.480    26.1450   996.7664 0.0000e+00
      0.342      0.007     9.8775    122.088     35.587  36.409185     2.1912      8.208   152.8773 1.0721e+03     2.2428      0.335      0.486    26.1489   996.7654 0.0000e+00
      0.347      0.006     9.9157    122.558     35.590  36.411604     2.2084      8.206   152.9861 1.0553e+03     2.1738      0.341      0.494    26.1508   996.7649 0.0000e+00
      0.349      0.006     9.8358    121.571     35.560  36.380455     2.2442      8.204   153.1622 1.0544e+03     2.0858      0.345      0.500    26.1517   996.7647 0.0000e+00
      0.349      0.006     9.7020    119.918     35.530  36.349922     2.2683      8.199   153.3719 1.0620e+03     2.0301      0.344      0.498    26.1507   996.7651 0.0000e+00
      0.346      0.006     9.5659    118.236     35.539  36.359787     2.2663      8.187   153.6292 1.0657e+03     2.0246      0.340      0.491    26.1482   996.7657 0.0000e+00
      0.346      0.006     9.4514    116.820     35.552  36.372791     2.2117      8.166   153.8642 1.0808e+03     2.0848      0.338      0.490    26.1468   996.7661 0.0000e+00
      0.351      0.006     9.3616    115.706     35.561  36.380216     2.1282      8.143   154.1481 1.0946e+03     2.2006      0.343      0.499    26.1477   996.7658 0.0000e+00
      0.356      0.005     9.2905    114.821     35.569  36.386091     2.0888      8.129   154.4803 1.0868e+03     2.2459      0.351      0.509    26.1485   996.7656 0.0000e+00
      0.358      0.004     9.2328    114.105     35.564  36.380345     2.0913      8.121   154.6969 1.1010e+03     2.2056      0.353      0.511    26.1490   996.7655 0.0000e+00
      0.357      0.003     9.1884    113.554     35.559  36.374218     2.0886      8.105   154.7879 1.1215e+03     2.1724      0.352      0.510    26.1489   996.7656 0.0000e+00
      0.355      0.001     9.1575    113.170     35.561  36.375478     2.0728      8.081   154.7202 1.1050e+03     2.1718      0.349      0.506    26.1459   996.7663 0.0000e+00
      0.353     -0.007     9.1350    112.895     35.580  36.395583     2.0654      8.061   154.4816 1.0812e+03     2.1985      0.345      0.501    26.1430   996.7670 0.0000e+00
      0.354     -0.022     9.1180    112.691     35.608  36.426893     2.0691      8.059   154.3114 1.0727e+03     2.2330      0.346      0.502    26.1420   996.7673 0.0000e+00
      0.357     -0.044     9.1066    112.570     35.610  36.436688     2.0742      8.069   154.2967 1.1082e+03     2.2286      0.351      0.508    26.1399   996.7679 0.0000e+00
      0.354     -0.066     9.1004    112.528     35.612  36.450550     2.0223      8.077   154.3904 1.1429e+03     2.1454      0.355      0.515    26.1384   996.7683 0.0000e+00
      0.333     -0.081     9.0993    112.552     35.616  36.467572     1.9098      8.077   154.5840 1.1650e+03     2.0461      0.337      0.489    26.1400   996.7678 0.0000e+00
      0.291     -0.089     9.1012    112.601     35.592  36.452107     1.8508      8.068   154.9165 1.1849e+03     2.0443      0.285      0.413    26.1420   996.7671 0.0000e+00
      0.247     -0.098     9.1030    112.631     35.592  36.454002     1.8454      8.059   155.1424 1.1109e+03     2.0907      0.234      0.339    26.1501   996.7647 0.0000e+00
      0.222     -0.113     9.1040    112.646     35.627  36.490481     1.8190      8.059   154.9049 1.1215e+03     2.0495      0.212      0.308    26.1706   996.7591 0.0000e+00
      0.214     -0.137     9.1026    112.643     35.643  36.512356     1.7827      8.061   154.6262 1.2856e+03     1.9721      0.208      0.302    26.1911   996.7536 0.0000e+00
      0.207     -0.166     9.0975    112.611     35.647  36.528081     1.7717      8.061   154.6117 1.4224e+03     1.9750      0.214      0.310    26.2049   996.7499 0.0000e+00
      0.171     -0.199     9.0897    112.557     35.657  36.553691     1.7721      8.059   154.5577 1.5979e+03     2.0187      0.188      0.271    26.2080   996.7490 0.0000e+00
      0.095     -0.228     9.0810    112.492     35.657  36.568135     1.6923      8.050   154.5760 1.7475e+03     1.9760      0.099      0.143    26.2036   996.7497 0.0000e+00
      0.000     -0.243     9.0741    112.448     35.651  36.575801     1.5433      8.030   155.1765 1.7536e+03     1.8522     -0.004     -0.006    26.2096   996.7477 0.0000e+00
     -0.085     -0.238     9.0726    112.469     35.644  36.582932     1.4702      8.005   159.3237 1.7280e+03     1.8006     -0.091     -0.132    26.2275   996.7426 0.0000e+00
     -0.149     -0.208     9.0747    112.526     35.641  36.590910     1.4675      7.982   163.9366 1.7181e+03     1.8103     -0.155     -0.224    26.2506   996.7361 0.0000e+00
     -0.189     -0.162     9.0782    112.584     35.654  36.608797     1.4678      7.968   163.8014 1.7163e+03     1.7396     -0.190     -0.275    26.2726   996.7300 0.0000e+00
     -0.214     -0.113     9.0862    112.682     35.654  36.608797     1.4652      7.964   179.2849 1.7380e+03     1.6016     -0.211     -0.306    26.2903   996.7251 0.0000e+00
     -0.234     -0.073     9.0973    112.815     35.638  36.590909     1.4531      7.964   198.0827 1.7522e+03     1.5178     -0.230     -0.334    26.3113   996.7194 0.0000e+00
     -0.247     -0.048     9.1067    112.927     35.632  36.582930     1.4433      7.963   200.9371 1.7463e+03     1.5133     -0.247     -0.357    26.3305   996.7142 0.0000e+00
     -0.250     -0.034     9.1107    112.971     35.627  36.575798     1.4245      7.964   216.8943 1.7635e+03     1.6448     -0.248     -0.358    26.3353   996.7129 0.0000e+00
     -0.248     -0.029     9.1087    112.946     35.620  36.568139     1.3822      7.968   233.7401 1.8104e+03     1.8624     -0.241     -0.349    26.3332   996.7136 0.0000e+00
     -0.251     -0.028     9.1039    112.889     35.606  36.553797     1.3475      7.972   235.2068 1.8358e+03     1.9819     -0.244     -0.356    26.3307   996.7142 0.0000e+00
     -0.261     -0.027     9.1011    112.852     35.582  36.529343     1.3420      7.972   234.7998 1.8059e+03     2.3038     -0.255     -0.371    26.3272   996.7150 0.0000e+00
     -0.275     -0.021     9.1021    112.853     35.583  36.526349     1.3597      7.967   231.7448 1.7639e+03     5.4914     -0.268     -0.389    26.3247   996.7157 0.0000e+00
     -0.288     -0.005     9.1055    112.878     35.580  36.517589     1.5010      7.950   213.2407 1.7444e+03    40.1634     -0.284     -0.412    26.3243   996.7157 0.0000e+00
     -0.294      0.026     9.1127    112.945     35.557  36.486898     1.7500      7.930   182.4581 1.7381e+03   103.6945     -0.292     -0.423    26.3264   996.7151 0.0000e+00
     -0.291      0.066     9.1196    113.006     35.552  36.472606     1.8740      7.925   165.2528 1.7457e+03   138.0554     -0.289     -0.419    26.3274   996.7148 0.0000e+00
     -0.273      0.109     9.1223    113.017     35.559  36.471710     1.8636      7.934   162.2341 1.7624e+03   138.0550     -0.276     -0.400    26.3208   996.7166 0.0000e+00
     -0.233      0.150     9.1235    113.005     35.572  36.476053     1.7549      7.944   160.7580 1.7697e+03   103.7224     -0.236     -0.341    26.3113   996.7195 0.0000e+00
     -0.175      0.183     9.1246    112.978     35.572  36.461629     1.5648      7.952   159.6225 1.7672e+03    40.2764     -0.171     -0.248    26.3015   996.7223 0.0000e+00
     -0.115      0.205     9.1248    112.933     35.551  36.424229     1.4640      7.957   158.8304 1.7517e+03     5.6680     -0.111     -0.162    26.2865   996.7266 0.0000e+00
     -0.059      0.213     9.1226    112.866     35.546  36.404658     1.4557      7.961   158.2357 1.4954e+03     2.5097     -0.058     -0.085    26.2771   996.7294 0.0000e+00
     -0.002      0.207     9.1162    112.765     35.564  36.415387     1.4732      7.963   157.9384 1.1624e+03     2.1882     -0.002     -0.004    26.2680   996.7320 0.0000e+00
      0.054      0.195     9.1056    112.625     35.578  36.426992     1.5106      7.962   157.9888 1.1822e+03     2.1087      0.055      0.079    26.2457   996.7382 0.0000e+00
      0.105      0.189     9.0931    112.468     35.571  36.418029     1.5347      7.957   158.4154 1.5752e+03     2.0407      0.108      0.156    26.2189   996.7456 0.0000e+00
      0.146      0.192     9.0836    112.343     35.527  36.370484     1.5486      7.951   159.1391 1.8776e+03     1.9882      0.148      0.213    26.1978   996.7515 0.0000e+00
      0.180      0.201     9.0821    112.302     35.462  36.296427     1.6004      7.948   159.6840 1.5964e+03     1.9662      0.174      0.252    26.1879   996.7543 0.0000e+00
      0.221      0.213     9.0866    112.312     35.403  36.220776     1.6926      7.946   160.1852 1.2529e+03     1.9709      0.207      0.301    26.1857   996.7551 0.0000e+00
      0.283      0.228     9.0918    112.316     35.358  36.153947     1.7536      7.944   160.8110 1.1354e+03     2.0118      0.272      0.395    26.1862   996.7552 0.0000e+00
      0.359      0.241     9.0929    112.267     35.349  36.123073     1.7742      7.940   161.2272 9.7730e+02     2.0351      0.355      0.514    26.1853   996.7558 0.0000e+00
      0.431      0.246     9.0833    112.095     35.346  36.101327     1.8467      7.935   161.4313 8.9030e+02     1.9905      0.426      0.619    26.1745   996.7590 0.0000e+00
      0.495      0.238     9.0591    111.755     35.341  36.081407     1.9795      7.932   161.6442 8.7022e+02     1.9636      0.486      0.706    26.1519   996.7652 0.0000e+00
      0.554      0.221     9.0165    111.198     35.342  36.072605     2.0618      7.928   162.0803 7.8812e+02     1.9713      0.544      0.788    26.1197   996.7741 0.0000e+00
      0.610      0.205     8.9500    110.353     35.337  36.058346     2.0789      7.923   162.7464 6.9199e+02     1.9863      0.601      0.872    26.0862   996.7832 0.0000e+00
      0.657      0.194     8.8609    109.229     35.387  36.099409     2.0905      7.917   163.2464 6.8740e+02     2.0133      0.650      0.943    26.0598   996.7905 0.0000e+00
      0.695      0.189     8.7601    107.955     35.485  36.188258     2.1930      7.913   163.4787 7.1402e+02     2.0687      0.681      0.987    26.0393   996.7961 0.0000e+00
      0.736      0.186     8.6650    106.748     35.490  36.180529     2.3822      7.909   163.6624 6.8200e+02     2.1643      0.716      1.038    26.0242   996.8003 0.0000e+00
      0.788      0.185     8.5932    105.823     35.396  36.069416     2.4885      7.906   163.7463 6.2250e+02     2.2194      0.772      1.119    26.0144   996.8032 0.0000e+00
      0.843      0.185     8.5588    105.335     35.338  35.987241     2.5066      7.904   163.7192 5.7386e+02     2.2430      0.830      1.205    26.0021   996.8068 0.0000e+00
      0.891      0.182     8.5653    105.319     35.398  36.012039     2.5926      7.903   163.7645 5.3212e+02     2.2530      0.876      1.271    25.9850   996.8116 0.0000e+00
      0.936      0.174     8.5957    105.587     35.538  36.115306     2.7567      7.899   163.9506 5.0442e+02     2.2420      0.916      1.330    25.9662   996.8166 0.0000e+00
      0.982      0.162     8.6210    105.811     35.672  36.220244     2.8519      7.895   164.0763 4.9353e+02     2.2410      0.964      1.399    25.9495   996.8213 0.0000e+00
      1.023      0.148     8.6225    105.766     35.740  36.265263     2.8686      7.892   164.1657 4.8190e+02     2.2409      1.008      1.462    25.9211   996.8290 0.0000e+00
      1.057      0.136     8.5941    105.375     35.831  36.342236     2.8980      7.889   164.4285 4.5754e+02     2.2083      1.038      1.505    25.8634   996.8444 0.0000e+00
      1.088      0.123     8.5383    104.662     36.013  36.516174     2.9469      7.887   164.7586 4.3324e+02     2.1090      1.066      1.546    25.8012   996.8610 0.0000e+00
      1.119      0.112     8.4702    103.800     36.035  36.527646     2.9831      7.883   165.2323 4.1777e+02     2.0237      1.098      1.594    25.7581   996.8726 0.0000e+00
      1.147      0.104     8.4115    103.063     35.870  36.353977     2.9971      7.878   165.8533 4.0820e+02     2.0290      1.126      1.634    25.7254   996.8814 0.0000e+00
      1.170      0.102     8.3866    102.766     35.834  36.320493     2.9862      7.874   166.3307 3.9988e+02     2.1079      1.148      1.664    25.7021   996.8875 0.0000e+00
      1.191      0.105     8.4114    103.076     36.013  36.503624     2.9554      7.871   166.6169 3.9311e+02     2.1902      1.167      1.692    25.6935   996.8900 0.0000e+00
      1.213      0.111     8.4734    103.774     36.194  36.664074     2.9369      7.866   166.9051 3.8468e+02     2.2042      1.188      1.723    25.6767   996.8945 0.0000e+00
      1.241      0.117     8.5428    104.468     36.262  36.673644     2.9361      7.863   167.2340 3.6911e+02     2.2118      1.213      1.759    25.6595   996.8991 0.0000e+00
      1.276      0.122     8.6053    105.052     36.276  36.619248     2.9804      7.860   167.5817 3.5236e+02     2.3152      1.248      1.811    25.6703   996.8963 0.0000e+00
      1.316      0.124     8.6765    105.802     36.090  36.387098     3.0729      7.857   168.0114 3.3808e+02     2.4391      1.292      1.875    25.6888   996.8918 0.0000e+00
      1.352      0.124     8.7702    106.873     35.756  36.024689     3.1283      7.854   168.4717 3.2593e+02     2.4642      1.330      1.930    25.6676   996.8977 0.0000e+00
      1.380      0.123     8.8700    107.975     35.691  35.918666     3.1303      7.851   169.0177 3.1594e+02     2.4217      1.355      1.966    25.5676   996.9240 0.0000e+00
      1.404      0.123     8.9545    108.783     35.781  35.930243     3.1224      7.849   169.4510 3.0557e+02     2.3840      1.374      1.993    25.4494   996.9549 0.0000e+00
      1.430      0.123     9.0210    109.284     35.553  35.593315     3.1286      7.849   169.5800 2.9336e+02     2.4019      1.399      2.029    25.3946   996.9692 0.0000e+00
      1.463      0.127     9.1010    109.916     35.158  35.081640     3.1521      7.852   169.6315 2.8001e+02     2.4412      1.432      2.078    25.3775   996.9736 0.0000e+00
      1.500      0.132     9.2458    111.286     35.090  34.884390     3.1729      7.854   169.6425 2.6602e+02     2.4341      1.471      2.133    25.3353   996.9848 0.0000e+00
      1.539      0.137     9.4419    113.249     35.391  35.048760     3.1806      7.853   169.1978 2.5257e+02     2.4471      1.510      2.190    25.2197   997.0150 0.0000e+00
      1.575      0.138     9.6031    114.854     35.748  35.291733     3.1759      7.852   168.2985 2.4156e+02     2.6959      1.545      2.241    25.0478   997.0593 0.0000e+00
      1.609      0.137     9.6715    115.393     35.768  35.219822     3.1773      7.850   167.9748 2.3256e+02     3.1161      1.578      2.289    24.8920   997.0991 0.0000e+00
      1.641      0.137     9.6595    114.914     35.534  34.877290     3.1799      7.849   168.7258 2.2463e+02     3.2998      1.611      2.336    24.7119   997.1450 0.0000e+00
      1.673      0.138     9.6227    114.044     35.505  34.704215     3.1719      7.851   169.4629 2.1731e+02     3.2453      1.640      2.379    24.4926   997.2006 0.0000e+00
      1.708      0.139     9.6306    113.652     35.680  34.713671     3.1683      7.855   169.3159 2.0961e+02     3.1783      1.674      2.428    24.3426   997.2386 0.0000e+00
      1.747      0.138     9.7221    114.252     35.868  34.737525     3.1704      7.859   168.7556 2.0174e+02     3.1131      1.713      2.484    24.2429   997.2636 0.0000e+00
      1.786      0.132     9.9042    116.007     35.999  34.738527     3.1720      7.863   168.2808 1.9490e+02     3.0796      1.752      2.540    24.0884   997.3020 0.0000e+00
      1.823      0.119    10.2086    119.335     36.064  34.725611     3.1697      7.867   168.1345 1.8877e+02     3.0681      1.788      2.593    23.8742   997.3550 0.0000e+00
      1.858      0.103    10.6743    124.647     36.088  34.708191     3.2208      7.872   168.1910 1.8405e+02     3.0386      1.825      2.647    23.6416   997.4120 0.0000e+00
      1.883      0.089    11.2869    131.692     36.064  34.654774     3.3307      7.877   168.0183 1.8223e+02     3.0186      1.852      2.686    23.4033   997.4698 0.0000e+00
      1.896      0.081    11.9565    139.330     36.043  34.587446     3.3970      7.884   167.7669 1.8226e+02     3.0556      1.861      2.699    23.2131   997.5156 0.0000e+00
      1.903      0.081    12.5576    146.051     35.925  34.401795     3.4147      7.894   167.7339 1.8153e+02     3.1248      1.865      2.705    23.1231   997.5371 0.0000e+00
      1.915      0.087    13.0233    151.094     35.532  33.933150     3.4068      7.904   167.8763 1.7836e+02     3.2328      1.873      2.717    23.0778   997.5479 0.0000e+00
      1.940      0.099    13.3718    154.609     35.134  33.426944     3.3706      7.914   167.9403 1.7303e+02     3.4122      1.899      2.752    23.0484   997.5549 0.0000e+00
      1.974      0.114    13.6309    156.919     34.963  33.104363     3.3506      7.922   167.8193 1.6708e+02     3.5239      1.936      2.808    22.9946   997.5679 0.0000e+00
      2.011      0.126    13.8080    158.239     34.843  32.824967     3.3552      7.928   167.1018 1.6135e+02     3.5341      1.972      2.861    22.8746   997.5964 0.0000e+00
      2.046      0.133    13.9184    158.783     34.833  32.650459     3.3647      7.933   166.2340 1.5580e+02     3.5358      2.006      2.910    22.7617   997.6229 0.0000e+00
      2.081      0.133    13.9727    158.711     34.995  32.644154     3.4226      7.937   166.6186 1.5029e+02     3.6422      2.040      2.959    22.5916   997.6625 0.0000e+00
      2.115      0.128    13.9860    158.327     35.101  32.621597     3.5268      7.939   167.7077 1.4505e+02     3.8374      2.074      3.009    22.3299   997.7234 0.0000e+00
      2.149      0.121    13.9916    157.999     35.140  32.567933     3.5841      7.940   168.6482 1.4051e+02     3.9300      2.108      3.057    22.0977   997.7766 0.0000e+00
      2.180      0.116    13.9979    157.712     35.227  32.566328     3.6037      7.938   169.5576 1.3625e+02     3.9423      2.138      3.100    21.8683   997.8287 0.0000e+00
      2.207      0.113    13.9809    157.172     35.352  32.602080     3.6771      7.933   170.3580 1.3244e+02     3.9535      2.166      3.142    21.6102   997.8868 0.0000e+00
      2.231      0.111    13.9229    156.178     35.527  32.682801     3.7871      7.927   171.0978 1.2938e+02     3.9340      2.189      3.175    21.4427   997.9242 0.0000e+00
      2.255      0.107    13.8224    154.687     35.727  32.780691     3.8408      7.922   171.7063 1.2572e+02     3.9358      2.210      3.205    21.3395   997.9469 0.0000e+00
      2.285      0.101    13.6831    152.729     35.889  32.833629     3.8495      7.922   172.1222 1.2116e+02     3.9753      2.238      3.247    21.2151   997.9744 0.0000e+00
      2.319      0.096    13.5004    150.358     36.095  32.941973     3.8925      7.922   172.7707 1.1727e+02     3.8876      2.277      3.302    21.1053   997.9986 0.0000e+00
      2.346      0.094    13.2730    147.633     36.363  33.138631     3.9618      7.920   173.8691 1.1480e+02     3.6618      2.305      3.342    20.9950   998.0228 0.0000e+00
      2.364      0.094    13.0189    144.531     36.627  33.307485     3.9938      7.917   175.2498 1.1307e+02     3.5391      2.319      3.363    20.8819   998.0473 0.0000e+00
      2.379      0.096    12.7484    141.017     37.157  33.650780     4.0106      7.912   176.7313 1.1078e+02     3.5511      2.330      3.379    20.7371   998.0785 0.0000e+00
      2.399      0.099    12.4532    137.182     37.987  34.242914     4.1401      7.906   177.8436 1.0707e+02     3.5131      2.348      3.406    20.5934   998.1093 0.0000e+00
      2.427      0.104    12.1188    133.030     38.635  34.691404     4.3709      7.901   178.8894 1.0242e+02     3.4061      2.379      3.450    20.5757   998.1133 0.0000e+00
      2.461      0.108    11.7327    128.432     38.971  34.884519     4.5031      7.899   180.1700 9.7759e+01     3.3388      2.414      3.501    20.5129   998.1268 0.0000e+00
      2.495      0.110    11.2814    123.217     39.187  34.991026     4.5166      7.896   181.1104 9.3722e+01     3.3226      2.449      3.552    20.2809   998.1758 0.0000e+00
      2.524      0.109    10.7315    116.980     39.315  35.027035     4.5337      7.892   181.9125 9.0721e+01     3.3406      2.479      3.594    20.0535   998.2237 0.0000e+00
      2.548      0.105    10.0715    109.587     39.296  34.938989     4.5711      7.887   182.7280 8.7986e+01     3.3609      2.498      3.623    19.8816   998.2593 0.0000e+00
      2.570      0.102     9.3528    101.637     39.211  34.814928     4.5966      7.882   183.2262 8.4851e+01     3.3379      2.519      3.655    19.7415   998.2881 0.0000e+00
      2.595      0.101     8.6328     93.757     39.215  34.796312     4.6072      7.877   183.5487 8.1882e+01     3.2927      2.545      3.691    19.6372   998.3095 0.0000e+00
      2.620      0.102     7.9599     86.387     39.658  35.158158     4.6309      7.873   183.8732 7.8895e+01     3.2722      2.569      3.726    19.5429   998.3287 0.0000e+00
      2.647      0.103     7.3866     80.022     40.784  36.079930     4.8396      7.870   184.1389 7.5591e+01     3.2874      2.596      3.764    19.4408   998.3493 0.0000e+00
      2.676      0.104     6.9470     75.057     42.158  37.182314     5.2144      7.867   184.3519 7.2497e+01     3.3120      2.624      3.807    19.3701   998.3635 0.0000e+00
      2.704      0.105     6.6580     71.737     43.375  38.140727     5.4254      7.862   184.5560 6.9771e+01     3.3081      2.652      3.847    19.3649   998.3647 0.0000e+00
      2.730      0.107     6.4981     69.852     44.071  38.654191     5.4406      7.857   184.6271 6.7265e+01     3.2726      2.678      3.883    19.3492   998.3680 0.0000e+00
      2.754      0.110     6.3656     68.282     44.004  38.502598     5.2857      7.850   184.5237 6.4856e+01     3.3749      2.701      3.917    19.2497   998.3884 0.0000e+00
      2.780      0.113     6.1369     65.670     44.014  38.402536     5.0092      7.842   184.4245 6.2222e+01     3.6277      2.724      3.949    19.0934   998.4198 0.0000e+00
      2.810      0.116     5.7357     61.202     45.545  39.602507     4.8627      7.836   184.7188 5.9283e+01     3.7717      2.753      3.993    18.9535   998.4477 0.0000e+00
      2.844      0.119     5.1641     54.931     48.512  42.028331     4.8318      7.831   185.6729 5.6501e+01     3.8059      2.790      4.046    18.8483   998.4687 0.0000e+00
      2.877      0.121     4.5006     47.726     50.950  43.988500     4.6530      7.826   186.6678 5.4105e+01     3.9759      2.823      4.094    18.7498   998.4878 0.0000e+00
      2.908      0.121     3.8196     40.388     52.166  44.890138     4.3312      7.819   187.0255 5.2074e+01     4.2863      2.853      4.137    18.6337   998.5100 0.0000e+00
      2.936      0.121     3.1555     33.270     54.021  46.326117     4.1571      7.812   187.1592 5.0201e+01     4.4787      2.880      4.177    18.4831   998.5393 0.0000e+00
      2.965      0.122     2.5021     26.303     62.156  53.095171     4.1264      7.803   187.5102 4.8167e+01     4.5985      2.907      4.215    18.3162   998.5724 0.0000e+00
      2.995      0.124     1.8527     19.418     76.345  64.978088     3.8905      7.793   187.9127 4.6138e+01     5.7017      2.936      4.258    18.1628   998.6020 0.0000e+00
      3.028      0.126     1.2456     13.017     80.424  68.243824     3.4460      7.782   187.9830 4.4138e+01     7.7236      2.968      4.305    18.0248   998.6281 0.0000e+00
      3.063      0.128     0.7072      7.372     72.950  61.691011     3.2002      7.769   187.7577 4.2161e+01     8.8570      3.005      4.358    17.8835   998.6544 0.0000e+00
      3.098      0.129     0.2210      2.304     72.758  61.261727     3.1719      7.754   187.9413 4.0467e+01     9.0498      3.040      4.409    17.7353   998.6831 0.0000e+00
      3.129      0.129    -0.2113     -2.172     77.872  65.290522     3.0956      7.739   188.4827 3.8913e+01     9.4640      3.068      4.451    17.5692   998.7218 0.0000e+00
      3.160      0.129    -0.5479     -5.631     75.979  63.436796     2.9542      7.725   188.7964 3.7276e+01    10.1628      3.098      4.494    17.4110   998.7528 0.0000e+00
      3.193      0.128    -0.7696     -7.883     68.916  57.281326     2.8760      7.710   188.8945 3.5573e+01    10.5516      3.131      4.541    17.2804   998.7681 0.0000e+00
      3.227      0.127    -0.8747     -8.924     61.098  50.536660     2.8685      7.695   188.9815 3.3864e+01    10.6907      3.164      4.589    17.1177   998.7984 0.0000e+00
      3.261      0.126    -0.8648     -8.788     54.576  44.907406     2.8730      7.681   189.0737 3.2244e+01    11.8771      3.199      4.640    16.9196   998.8376 0.0000e+00
      3.294      0.123    -0.7737     -7.831     50.600  41.424949     2.9815      7.671   189.0622 3.0788e+01    14.0488      3.230      4.687    16.7324   998.8677 0.0000e+00
      3.324      0.118    -0.6372     -6.426     49.928  40.686939     3.1930      7.664   188.9294 2.9401e+01    15.2197      3.260      4.727    16.5459   998.8969 0.0000e+00
      3.354      0.112    -0.4827     -4.853     52.375  42.523169     3.3135      7.658   188.7588 2.8067e+01    15.3177      3.290      4.772    16.3361   998.9291 0.0000e+00
      3.382      0.103    -0.3322     -3.332     54.825  44.388687     3.3553      7.652   188.4616 2.6830e+01    15.3978      3.317      4.811    16.1206   998.9624 0.0000e+00
      3.408      0.090    -0.1909     -1.912     55.166  44.575824     3.8109      7.647   187.7452 2.5593e+01    15.9916      3.341      4.846    15.9148   998.9947 0.0000e+00
      3.434      0.075    -0.0598     -0.599     54.386  43.896826     4.6700      7.642   186.7219 2.4523e+01    17.0574      3.369      4.886    15.7325   999.0235 0.0000e+00
      3.454      0.057     0.0558      0.557     53.791  43.417714     5.1505      7.638   185.5529 2.3929e+01    17.6660      3.392      4.919    15.5863   999.0483 0.0000e+00
      3.466      0.041     0.1458      1.459     53.576  43.291234     5.1986      7.634   184.2802 2.3789e+01    17.7134      3.402      4.934    15.4688   999.0680 0.0000e+00
      3.469      0.026     0.2066      2.069     53.475  43.256577     5.0955      7.630   183.2075 2.3863e+01    17.5652      3.404      4.936    15.3862   999.0806 0.0000e+00
      3.469      0.016     0.2459      2.463     53.848  43.570190     4.8758      7.626   182.3915 2.3949e+01    17.3483      3.401      4.933    15.3356   999.0880 0.0000e+00
      3.469      0.012     0.2707      2.710     55.073  44.543230     4.7442      7.624   181.5552 2.3931e+01    17.2877      3.400      4.932    15.3339   999.0880 0.0000e+00
      3.471      0.016     0.2832      2.834     56.611  45.750729     4.7438      7.621   180.5813 2.3862e+01    17.3232      3.404      4.935    15.3995   999.0779 0.0000e+00
      3.474      0.024     0.2852      2.852     58.992  47.628876     4.9144      7.616   179.6497 2.3773e+01    17.4493      3.406      4.940    15.4589   999.0686 0.0000e+00
      3.479      0.033     0.2824      2.821     62.027  50.040500     5.2113      7.610   178.8949 2.3497e+01    17.7313      3.410      4.946    15.4621   999.0681 0.0000e+00
      3.489      0.040     0.2824      2.820     63.669  51.346352     5.3692      7.605   178.3387 2.2905e+01    17.9152      3.419      4.958    15.4406   999.0720 0.0000e+00
      3.505      0.044     0.2835      2.832     67.143  54.145217     5.4016      7.600   177.7429 2.2135e+01    17.9357      3.436      4.983    15.4095   999.0776 0.0000e+00
      3.522      0.045     0.2788      2.786     85.814  69.205625     5.5330      7.596   176.8534 2.1524e+01    17.7825      3.456      5.012    15.3641   999.0849 0.0000e+00
      3.535      0.043     0.2693      2.691    148.243 119.505836     5.7701      7.592   176.0167 2.1219e+01    17.4716      3.470      5.032    15.3287   999.0929 0.0000e+00
      3.544      0.039     0.2580      2.576    240.653 193.800455     5.9017      7.589   175.5416 2.1050e+01    17.2904      3.477      5.042    15.3144   999.0941 0.0000e+00
      3.551      0.034     0.2443      2.436    300.772 241.808448     5.8844      7.585   175.1528 2.0798e+01    17.2631      3.482      5.050    15.3141   999.0958 0.0000e+00
      3.557      0.030     0.2290      2.279    320.143 256.848325     5.6137      7.582   174.5845 2.0351e+01    17.1735      3.488      5.059    15.3230   999.0947 0.0000e+00
      3.564      0.028     0.2137      2.123    325.705 260.799016     5.1256      7.579   173.9187 1.9713e+01    16.9935      3.495      5.070    15.3261   999.1151 0.0000e+00
      3.572      0.027     0.2003      1.986    325.875 260.509190     4.8635      7.574   173.3842 1.8944e+01    16.8897      3.503      5.080    15.2911   999.1708 0.0000e+00
      3.579      0.026     0.1899      1.881    324.610 259.183578     4.8549      7.571   173.0254 1.8099e+01    16.9013      3.510      5.091    15.2033   999.2037 0.0000e+00
      3.587      0.025     0.1807      1.789    323.701 258.247384     4.8742      7.568   172.6779 1.7223e+01    16.9379      3.517      5.102    15.1091   999.2195 0.0000e+00
      3.593      0.022     0.1699      1.682    323.288 257.788370     4.8880      7.563   172.1086 1.6370e+01    16.9723      3.524      5.111    15.0285   999.2353 0.0000e+00
      3.598      0.021     0.1638      1.621    323.204 257.676111     4.8920      7.561   171.7341 1.5652e+01    16.9887      3.530      5.118    14.9599   999.2438 0.0000e+00
      3.602 -9.990e-29 -9.990e-29 -9.990e-29 -9.990e-29 -9.990e-29 -9.990e-29 -9.990e-29 -9.990e-29 1.5057e+01 -9.990e-29      3.533      5.124    14.9132   999.2509 0.0000e+00
      3.606 -9.990e-29 -9.990e-29 -9.990e-29 -9.990e-29 -9.990e-29 -9.990e-29 -9.990e-29 -9.990e-29 1.4498e+01 -9.990e-29      3.536      5.129    14.8824   999.2548 0.0000e+00
      3.609 -9.990e-29 -9.990e-29 -9.990e-29 -9.990e-29 -9.990e-29 -9.990e-29 -9.990e-29 -9.990e-29 1.4150e+01 -9.990e-29      3.540      5.134    14.8618   999.2581 0.0000e+00
      3.610 -9.990e-29 -9.990e-29 -9.990e-29 -9.990e-29 -9.990e-29 -9.990e-29 -9.990e-29 -9.990e-29 1.4073e+01 -9.990e-29      3.542      5.136    14.8539   999.2591 0.0000e+00
