* Sea-Bird SBE19plus  Data File:
* FileName = C:\DATA\071019_bvr_0002.hex
* Software version 2.8.0.119
* Temperature SN = 7809
* Conductivity SN = 7809
* System UpLoad Time = Jul 12 2019 13:01:20
* <ApplicationData>
* <Seaterm232>
* <SoftwareVersion>2.8.0.119</SoftwareVersion>
* <BuildDate>07-Nov-2018</BuildDate>
* </Seaterm232>
* </ApplicationData>
* <InstrumentState>
* <HardwareData DeviceType='SBE19plus' SerialNumber='01907809'>
*
*    <Manufacturer>Sea-Bird Electronics, Inc.</Manufacturer>
*
*    <FirmwareVersion>3.1.8</FirmwareVersion>
*
*    <FirmwareDate>Mar  9 2016 16:22:29</FirmwareDate>
*
*    <CommandSetVersion>1.4</CommandSetVersion>
*
*    <PCBAssembly PCBSerialNum='120721' AssemblyNum='41054J'/>
*
*    <PCBAssembly PCBSerialNum='120715' AssemblyNum='41967A'/>
*
*    <PCBAssembly PCBSerialNum='116699' AssemblyNum='41606'/>
*
*    <PCBAssembly PCBSerialNum='120719' AssemblyNum='41059D'/>
*
*    <MfgDate>28-Apr-2017</MfgDate>
*
*    <InternalSensors>
*
*       <Sensor id='Main Temperature'>
*
*          <type>temperature0</type>
*
*          <SerialNumber>01907809</SerialNumber>
*
*       </Sensor>
*
*       <Sensor id='Main Conductivity'>
*
*          <type>conductivity-0</type>
*
*          <SerialNumber>01907809</SerialNumber>
*
*       </Sensor>
*
*       <Sensor id='Main Pressure'>
*
*          <type>strain-0</type>
*
*          <SerialNumber>10586018</SerialNumber>
*
*       </Sensor>
*
*    </InternalSensors>
*
*    <ExternalSensors>
*
*       <Sensor id='volt 0'>
*
*          <type>pH</type>
*
*          <SerialNumber>27-0363</SerialNumber>
*
*       </Sensor>
*
*       <Sensor id='volt 1'>
*
*          <type>ORP</type>
*
*          <SerialNumber>27-0363</SerialNumber>
*
*       </Sensor>
*
*       <Sensor id='volt 2'>
*
*          <type>OXY</type>
*
*          <SerialNumber>43-0434</SerialNumber>
*
*       </Sensor>
*
*       <Sensor id='volt 3'>
*
*          <type>PAR</type>
*
*          <SerialNumber>1122</SerialNumber>
*
*       </Sensor>
*
*       <Sensor id='volt 4'>
*
*          <type>ECO AFL/FL</type>
*
*          <SerialNumber>FLNTURT-2496</SerialNumber>
*
*       </Sensor>
*
*       <Sensor id='volt 5'>
*
*          <type>ECO-NTU</type>
*
*          <SerialNumber>FLNTURT-2496</SerialNumber>
*
*       </Sensor>
*
*       <Sensor id='serial'>
*
*          <type>not assigned</type>
*
*          <SerialNumber>not assigned</SerialNumber>
*
*       </Sensor>
*
*    </ExternalSensors>
*
* </HardwareData>
* <StatusData DeviceType='SBE19plus' SerialNumber='01907809'>
*
*    <DateTime>2019-07-12T12:59:51</DateTime>
*
*    <LoggingState>not logging</LoggingState>
*
*    <EventSummary numEvents='0'/>
*
*    <Power>
*
*       <vMain>12.8</vMain>
*
*       <vLith>8.6</vLith>
*
*       <iMain>63.0</iMain>
*
*       <iPump>123.3</iPump>
*
*       <iExt01>19.1</iExt01>
*
*       <iExt2345>36.6</iExt2345>
*
*    </Power>
*
*    <MemorySummary>
*
*       <Bytes>253115</Bytes>
*
*       <Samples>11005</Samples>
*
*       <SamplesFree>2849783</SamplesFree>
*
*       <SampleLength>23</SampleLength>
*
*       <Profiles>10</Profiles>
*
*    </MemorySummary>
*
* </StatusData>
* <ConfigurationData DeviceType='SBE19plus' SerialNumber='01907809'>
*
*    <ProfileMode>
*
*       <ScansToAverage>1</ScansToAverage>
*
*       <MinimumCondFreq>5</MinimumCondFreq>
*
*       <PumpDelay>45</PumpDelay>
*
*       <AutoRun>no</AutoRun>
*
*       <IgnoreSwitch>no</IgnoreSwitch>
*
*    </ProfileMode>
*
*    <Battery>
*
*       <Type>alkaline</Type>
*
*       <CutOff>7.5</CutOff>
*
*    </Battery>
*
*    <DataChannels>
*
*       <ExtVolt0>yes</ExtVolt0>
*
*       <ExtVolt1>yes</ExtVolt1>
*
*       <ExtVolt2>yes</ExtVolt2>
*
*       <ExtVolt3>yes</ExtVolt3>
*
*       <ExtVolt4>yes</ExtVolt4>
*
*       <ExtVolt5>yes</ExtVolt5>
*
*       <SBE38>no</SBE38>
*
*       <WETLABS>no</WETLABS>
*
*       <OPTODE>no</OPTODE>
*
*       <SBE63>no</SBE63>
*
*       <SeaFET>no</SeaFET>
*
*       <GTD>no</GTD>
*
*    </DataChannels>
*
*    <EchoCharacters>yes</EchoCharacters>
*
*    <OutputExecutedTag>yes</OutputExecutedTag>
*
*    <OutputFormat>raw HEX</OutputFormat>
*
* </ConfigurationData>
* <CalibrationCoefficients DeviceType='SBE19plus' SerialNumber='01907809'>
*
*    <Calibration format='TEMP1' id='Main Temperature'>
*
*       <SerialNum>01907809</SerialNum>
*
*       <CalDate>24-Mar-19</CalDate>
*
*       <TA0>1.217923e-03</TA0>
*
*       <TA1>2.816693e-04</TA1>
*
*       <TA2>-1.603333e-06</TA2>
*
*       <TA3>1.984146e-07</TA3>
*
*       <TOFFSET>0.000000e+00</TOFFSET>
*
*    </Calibration>
*
*    <Calibration format='WBCOND0' id='Main Conductivity'>
*
*       <SerialNum>01907809</SerialNum>
*
*       <CalDate>24-Mar-19</CalDate>
*
*       <G>-1.005893e+00</G>
*
*       <H>1.268163e-01</H>
*
*       <I>-1.515604e-04</I>
*
*       <J>2.671373e-05</J>
*
*       <CPCOR>-9.570000e-08</CPCOR>
*
*       <CTCOR>3.250000e-06</CTCOR>
*
*       <CSLOPE>1.000000e+00</CSLOPE>
*
*    </Calibration>
*
*    <Calibration format='STRAIN0' id='Main Pressure'>
*
*       <SerialNum>10586018</SerialNum>
*
*       <CalDate>11-Mar-19</CalDate>
*
*       <PA0>4.565618e-02</PA0>
*
*       <PA1>4.850951e-04</PA1>
*
*       <PA2>-2.883271e-12</PA2>
*
*       <PTCA0>5.252467e+05</PTCA0>
*
*       <PTCA1>1.223042e+01</PTCA1>
*
*       <PTCA2>-3.567450e-01</PTCA2>
*
*       <PTCB0>2.516687e+01</PTCB0>
*
*       <PTCB1>3.750000e-04</PTCB1>
*
*       <PTCB2>0.000000e+00</PTCB2>
*
*       <PTEMPA0>-5.487846e+01</PTEMPA0>
*
*       <PTEMPA1>5.537568e+01</PTEMPA1>
*
*       <PTEMPA2>-5.867271e-01</PTEMPA2>
*
*       <POFFSET>7.140000e-01</POFFSET>
*
*       <PRANGE>1.600000e+02</PRANGE>
*
*    </Calibration>
*
*    <Calibration format='VOLT0' id='Volt 0'>
*
*       <OFFSET>-4.920000e-02</OFFSET>
*
*       <SLOPE>1.248122e+00</SLOPE>
*
*    </Calibration>
*
*    <Calibration format='VOLT0' id='Volt 1'>
*
*       <OFFSET>-4.784000e-02</OFFSET>
*
*       <SLOPE>1.248871e+00</SLOPE>
*
*    </Calibration>
*
*    <Calibration format='VOLT0' id='Volt 2'>
*
*       <OFFSET>-4.864632e-02</OFFSET>
*
*       <SLOPE>1.248714e+00</SLOPE>
*
*    </Calibration>
*
*    <Calibration format='VOLT0' id='Volt 3'>
*
*       <OFFSET>-4.743790e-02</OFFSET>
*
*       <SLOPE>1.248571e+00</SLOPE>
*
*    </Calibration>
*
*    <Calibration format='VOLT0' id='Volt 4'>
*
*       <OFFSET>-4.671263e-02</OFFSET>
*
*       <SLOPE>1.248951e+00</SLOPE>
*
*    </Calibration>
*
*    <Calibration format='VOLT0' id='Volt 5'>
*
*       <OFFSET>-4.871053e-02</OFFSET>
*
*       <SLOPE>1.249136e+00</SLOPE>
*
*    </Calibration>
*
*    <Calibration format='FREQ0' id='external frequency channel'>
*
*       <EXTFREQSF>1.000014e+00</EXTFREQSF>
*
*    </Calibration>
*
* </CalibrationCoefficients>
* <EventCounters DeviceType='SBE19plus' SerialNumber='01907809'>
*
*    <EventSummary numEvents='0'/>
*
* </EventCounters></InstrumentState>
* <Headers>
*
* cast   2 10 Jul 2019 21:15:55 samples 1328 to 2220, avg = 1, stop = mag switch
*
# nquan = 18
# nvalues = 758                         
# units = specified
# name 0 = depFM: Depth [fresh water, m]
# name 1 = tv290C: Temperature [ITS-90, deg C]
# name 2 = sbeox0Mg/L: Oxygen, SBE 43 [mg/l]
# name 3 = sbeox0PS: Oxygen, SBE 43 [% saturation]
# name 4 = c0uS/cm: Conductivity [uS/cm]
# name 5 = specc: Specific Conductance [uS/cm]
# name 6 = ph: pH
# name 7 = orp: Oxidation Reduction Potential [mV]
# name 8 = flECO-AFL: Fluorescence, WET Labs ECO-AFL/FL [mg/m^3]
# name 9 = turbWETntu0: Turbidity, WET Labs ECO [NTU]
# name 10 = sal00: Salinity, Practical [PSU]
# name 11 = dz/dtM: Descent Rate [m/s]
# name 12 = prdM: Pressure, Strain Gauge [db]
# name 13 = prdE: Pressure, Strain Gauge [psi]
# name 14 = scan: Scan Count
# name 15 = par/sat/log: PAR/Logarithmic, Satlantic
# name 16 = density00: Density [density, kg/m^3]
# name 17 = flag:  0.000e+00
# span 0 =     -0.679,     10.586       
# span 1 =     8.4182,    27.6384       
# span 2 =    -1.0572,     8.1896       
# span 3 =     -9.733,    103.960       
# span 4 =   0.398750, 167.961091       
# span 5 =      0.389,    253.002       
# span 6 =      5.799,      7.360       
# span 7 =     8.5059,   502.9595       
# span 8 =    -0.0263,    28.6874       
# span 9 =    -0.3691,    34.6277       
# span 10 =     0.0114,     0.1175      
# span 11 =     -0.027,      0.205      
# span 12 =     -0.665,     10.381      
# span 13 =     -0.965,     15.056      
# span 14 =          1,        758      
# span 15 = 1.2064e-01, 1.9296e-01      
# span 16 =   996.3552,   999.9647      
# span 17 = 0.0000e+00, 0.0000e+00      
# interval = seconds: 0.25
# start_time = Jul 10 2019 21:15:55 [Instrument's time stamp, header]
# bad_flag = -9.990e-29
# <Sensors count="9" >
#   <sensor Channel="1" >
#     <!-- Count, Temperature -->
#     <TemperatureSensor SensorID="58" >
#       <SerialNumber>7809</SerialNumber>
#       <CalibrationDate>24-Mar-19</CalibrationDate>
#       <A0>1.21792325e-003</A0>
#       <A1>2.81669265e-004</A1>
#       <A2>-1.60333336e-006</A2>
#       <A3>1.98414625e-007</A3>
#       <Slope>1.00000000</Slope>
#       <Offset>0.0000</Offset>
#     </TemperatureSensor>
#   </sensor>
#   <sensor Channel="2" >
#     <!-- Frequency 0, Conductivity -->
#     <ConductivitySensor SensorID="3" >
#       <SerialNumber>7809</SerialNumber>
#       <CalibrationDate>24-Mar-19</CalibrationDate>
#       <UseG_J>1</UseG_J>
#       <!-- Cell const and series R are applicable only for wide range sensors. -->
#       <SeriesR>0.0000</SeriesR>
#       <CellConst>2000.0000</CellConst>
#       <ConductivityType>0</ConductivityType>
#       <Coefficients equation="0" >
#         <A>0.00000000e+000</A>
#         <B>0.00000000e+000</B>
#         <C>0.00000000e+000</C>
#         <D>0.00000000e+000</D>
#         <M>0.0</M>
#         <CPcor>-9.57000000e-008</CPcor>
#       </Coefficients>
#       <Coefficients equation="1" >
#         <G>-1.00589325e+000</G>
#         <H>1.26816302e-001</H>
#         <I>-1.51560448e-004</I>
#         <J>2.67137274e-005</J>
#         <CPcor>-9.57000000e-008</CPcor>
#         <CTcor>3.2500e-006</CTcor>
#         <!-- WBOTC not applicable unless ConductivityType = 1. -->
#         <WBOTC>0.00000000e+000</WBOTC>
#       </Coefficients>
#       <Slope>1.00000000</Slope>
#       <Offset>0.00000</Offset>
#     </ConductivitySensor>
#   </sensor>
#   <sensor Channel="3" >
#     <!-- Count, Pressure, Strain Gauge -->
#     <PressureSensor SensorID="46" >
#       <SerialNumber>7809</SerialNumber>
#       <CalibrationDate>11-Mar-19</CalibrationDate>
#       <PA0>4.56561833e-002</PA0>
#       <PA1>4.85095118e-004</PA1>
#       <PA2>-2.88327090e-012</PA2>
#       <PTEMPA0>-5.48784562e+001</PTEMPA0>
#       <PTEMPA1>5.53756816e+001</PTEMPA1>
#       <PTEMPA2>-5.86727098e-001</PTEMPA2>
#       <PTCA0>5.25246745e+005</PTCA0>
#       <PTCA1>1.22304214e+001</PTCA1>
#       <PTCA2>-3.56745036e-001</PTCA2>
#       <PTCB0>2.51668750e+001</PTCB0>
#       <PTCB1>3.75000000e-004</PTCB1>
#       <PTCB2>0.00000000e+000</PTCB2>
#       <Offset>0.000000</Offset>
#     </PressureSensor>
#   </sensor>
#   <sensor Channel="4" >
#     <!-- A/D voltage 0, Oxygen, SBE 43 -->
#     <OxygenSensor SensorID="38" >
#       <SerialNumber>0434</SerialNumber>
#       <CalibrationDate>13-Apr-19</CalibrationDate>
#       <Use2007Equation>1</Use2007Equation>
#       <CalibrationCoefficients equation="0" >
#         <!-- Coefficients for Owens-Millard equation. -->
#         <Boc>0.0000</Boc>
#         <Soc>0.0000e+000</Soc>
#         <offset>0.0000</offset>
#         <Pcor>0.00e+000</Pcor>
#         <Tcor>0.0000</Tcor>
#         <Tau>0.0</Tau>
#       </CalibrationCoefficients>
#       <CalibrationCoefficients equation="1" >
#         <!-- Coefficients for Sea-Bird equation - SBE calibration in 2007 and later. -->
#         <Soc>4.2007e-001</Soc>
#         <offset>-0.6109</offset>
#         <A>-4.3656e-003</A>
#         <B> 1.7017e-004</B>
#         <C>-2.5341e-006</C>
#         <D0> 2.5826e+000</D0>
#         <D1> 1.92634e-004</D1>
#         <D2>-4.64803e-002</D2>
#         <E> 3.6000e-002</E>
#         <Tau20> 1.1800</Tau20>
#         <H1>-3.3000e-002</H1>
#         <H2> 5.0000e+003</H2>
#         <H3> 1.4500e+003</H3>
#       </CalibrationCoefficients>
#     </OxygenSensor>
#   </sensor>
#   <sensor Channel="5" >
#     <!-- A/D voltage 1, PAR/Logarithmic, Satlantic -->
#     <PARLog_SatlanticSensor SensorID="76" >
#       <SerialNumber>1122</SerialNumber>
#       <CalibrationDate>08-May-2019</CalibrationDate>
#       <a0>9.7456e-001</a0>
#       <a1>8.1640e-001</a1>
#       <Im>1.3589e+000</Im>
#       <Multiplier>1.0000e+000</Multiplier>
#     </PARLog_SatlanticSensor>
#   </sensor>
#   <sensor Channel="6" >
#     <!-- A/D voltage 2, pH -->
#     <pH_Sensor SensorID="43" >
#       <SerialNumber>0363</SerialNumber>
#       <CalibrationDate>15-Apr-19</CalibrationDate>
#       <Slope>4.5952</Slope>
#       <Offset>2.5370</Offset>
#     </pH_Sensor>
#   </sensor>
#   <sensor Channel="7" >
#     <!-- A/D voltage 3, Oxidation Reduction Potential -->
#     <OxidationReductionPotentialSensor SensorID="41" >
#       <SerialNumber>0363</SerialNumber>
#       <CalibrationDate>15-Apr-19</CalibrationDate>
#       <B>2.499480</B>
#       <M>-0.496195</M>
#       <Offset>0.0</Offset>
#     </OxidationReductionPotentialSensor>
#   </sensor>
#   <sensor Channel="8" >
#     <!-- A/D voltage 4, Fluorometer, WET Labs ECO-AFL/FL -->
#     <FluoroWetlabECO_AFL_FL_Sensor SensorID="20" >
#       <SerialNumber>FLNTURT-2496</SerialNumber>
#       <CalibrationDate>08-May-2019</CalibrationDate>
#       <ScaleFactor>5.00000000e+001</ScaleFactor>
#       <!-- Dark output -->
#       <Vblank>0.0550</Vblank>
#     </FluoroWetlabECO_AFL_FL_Sensor>
#   </sensor>
#   <sensor Channel="9" >
#     <!-- A/D voltage 5, Turbidity Meter, WET Labs, ECO-NTU -->
#     <TurbidityMeter SensorID="67" >
#       <SerialNumber>FLNTURT-2496</SerialNumber>
#       <CalibrationDate>08-May-2019</CalibrationDate>
#       <ScaleFactor>189.000000</ScaleFactor>
#       <!-- Dark output -->
#       <DarkVoltage>0.071000</DarkVoltage>
#     </TurbidityMeter>
#   </sensor>
# </Sensors>
# datcnv_date = Jul 12 2019 13:13:02, 7.26.7.129 [datcnv_vars = 17]
# datcnv_in = C:\DATA\071019_bvr50_c.hex C:\DATA\SBE19plusV2_7809.xmlcon
# datcnv_skipover = 0
# datcnv_ox_hysteresis_correction = yes
# datcnv_ox_tau_correction = yes
# filter_date = Jul 12 2019 13:13:33, 7.26.7.129
# filter_in = C:\DATA\071019_bvr50_c.cnv
# filter_low_pass_tc_A = 0.030
# filter_low_pass_tc_B = 0.150
# filter_low_pass_A_vars = tv290C c0uS/cm par/sat/log density00
# filter_low_pass_B_vars = prdM prdE
# alignctd_date = Jul 12 2019 13:14:04, 7.26.7.129
# alignctd_in = C:\DATA\071019_bvr50_c.cnv
# alignctd_adv = tv290C 0.500, sbeox0Mg/L 3.000, sbeox0PS 3.000                                                                                                                                                                      
# file_type = ascii
*END*
     -0.677    23.7053     8.1270     96.015   0.472280      0.504      6.259   502.9595     0.0691    -0.3691     0.0114 4.2106e-16     -0.664     -0.963          1 1.2371e-01   997.3759 0.0000e+00
     -0.678    23.7049     8.1240     95.979   0.402993      0.389      6.262   489.5580     0.0577    -0.3258     0.0114     -0.000     -0.664     -0.964          2 1.2373e-01   997.3759 0.0000e+00
     -0.678    23.7047     8.1295     96.044   0.411073      0.447      6.261   481.6080     0.0386    -0.2537     0.0114     -0.000     -0.664     -0.964          3 1.2372e-01   997.3760 0.0000e+00
     -0.677    23.7045     8.1299     96.049   0.403062      0.389      6.259   478.3901     0.0653    -0.1816     0.0114     -0.000     -0.664     -0.964          4 1.2373e-01   997.3761 0.0000e+00
     -0.678    23.7046     8.1238     95.976   0.412963      0.447      6.257   473.7337     0.0348    -0.3114     0.0114     -0.000     -0.664     -0.964          5 1.2367e-01   997.3761 0.0000e+00
     -0.678    23.7044     8.1255     95.996   0.398750      0.389      6.258   465.9351     0.0538    -0.3403     0.0114     -0.000     -0.665     -0.964          6 1.2372e-01   997.3762 0.0000e+00
     -0.678    23.7040     8.1256     95.997   0.420748      0.447      6.257   461.6194     0.0805    -0.1528     0.0114     -0.001     -0.665     -0.964          7 1.2360e-01   997.3761 0.0000e+00
     -0.677    23.7040     8.1302     96.050   0.444750      0.447      6.259   457.9851     0.0805    -0.3114     0.0114     -0.000     -0.665     -0.964          8 1.2365e-01   997.3762 0.0000e+00
     -0.678    23.7039     8.1269     96.012   0.428043      0.447      6.258   454.1236     0.0348     0.0347     0.0114     -0.000     -0.665     -0.964          9 1.2376e-01   997.3763 0.0000e+00
     -0.678    23.7039     8.1273     96.016   0.500704      0.504      6.257   450.5272     0.0577    -0.0230     0.0114     -0.000     -0.665     -0.964         10 1.2361e-01   997.3763 0.0000e+00
     -0.678    23.7036     8.1253     95.992   0.531816      0.561      6.258   446.5143     0.0882    -0.0519     0.0114     -0.000     -0.665     -0.964         11 1.2375e-01   997.3763 0.0000e+00
     -0.678    23.7033     8.1251     95.989   0.507650      0.504      6.258   443.6750     0.0577    -0.1384     0.0114     -0.000     -0.665     -0.964         12 1.2378e-01   997.3763 0.0000e+00
     -0.678    23.7034     8.1247     95.985   0.530778      0.561      6.257   439.3972     0.0805    -0.0230     0.0114      0.000     -0.665     -0.964         13 1.2364e-01   997.3764 0.0000e+00
     -0.678    23.7031     8.1253     95.991   0.503035      0.504      6.256   437.5043     0.0538    -0.1240     0.0114      0.000     -0.665     -0.964         14 1.2370e-01   997.3764 0.0000e+00
     -0.678    23.7029     8.1242     95.978   0.483012      0.504      6.257   434.7407     0.0424    -0.0230     0.0114      0.000     -0.665     -0.964         15 1.2365e-01   997.3764 0.0000e+00
     -0.678    23.7030     8.1239     95.974   0.496533      0.504      6.259   433.6429     0.0615    -0.0519     0.0114     -0.000     -0.665     -0.965         16 1.2361e-01   997.3765 0.0000e+00
     -0.679    23.7027     8.1259     95.997   0.486209      0.504      6.256   431.8636     0.0462    -0.2682     0.0114     -0.000     -0.665     -0.965         17 1.2369e-01   997.3765 0.0000e+00
     -0.678    23.7025     8.1250     95.986   0.495859      0.504      6.252   423.6486     0.0615    -0.2393     0.0114     -0.000     -0.665     -0.965         18 1.2358e-01   997.3765 0.0000e+00
     -0.678    23.7026     8.1249     95.985   0.484523      0.504      6.254   434.2864     0.0691    -0.2249     0.0114     -0.000     -0.665     -0.965         19 1.2365e-01   997.3766 0.0000e+00
     -0.678    23.7023     8.1275     96.016   0.441154      0.447      6.255   434.5514     0.0462    -0.1672     0.0114     -0.000     -0.665     -0.965         20 1.2374e-01   997.3767 0.0000e+00
     -0.678    23.7018     8.1259     95.996   0.490668      0.504      6.254   434.2864     0.0615    -0.3114     0.0114     -0.000     -0.665     -0.964         21 1.2374e-01   997.3766 0.0000e+00
     -0.678    23.7017     8.1250     95.985   0.541230      0.561      6.255   435.5357     0.0767    -0.3114     0.0114      0.000     -0.665     -0.964         22 1.2386e-01   997.3767 0.0000e+00
     -0.678    23.7015     8.1270     96.008   0.496556      0.504      6.255   436.8986     0.0615    -0.3114     0.0114      0.000     -0.665     -0.964         23 1.2381e-01   997.3768 0.0000e+00
     -0.678    23.7015     8.1251     95.986   0.487101      0.504      6.254   439.6243     0.0386    -0.2393     0.0114      0.000     -0.665     -0.964         24 1.2371e-01   997.3768 0.0000e+00
     -0.678    23.7014     8.1255     95.991   0.493833      0.504      6.252   441.5172     0.0615    -0.2105     0.0114      0.000     -0.665     -0.965         25 1.2370e-01   997.3769 0.0000e+00
     -0.678    23.7012     8.1264     96.001   0.488178      0.504      6.256   442.5772     0.0767    -0.1961     0.0114     -0.000     -0.665     -0.965         26 1.2374e-01   997.3769 0.0000e+00
     -0.678    23.7009     8.1264     96.000   0.494139      0.504      6.255   443.8643     0.0538    -0.2393     0.0114     -0.000     -0.665     -0.965         27 1.2367e-01   997.3769 0.0000e+00
     -0.678    23.7007     8.1243     95.975   0.486415      0.504      6.256   447.3093     0.0615    -0.3258     0.0114     -0.000     -0.665     -0.965         28 1.2367e-01   997.3770 0.0000e+00
     -0.678    23.7008     8.1265     96.000   0.438627      0.447      6.254   450.0351     0.0538    -0.3403     0.0114     -0.000     -0.665     -0.965         29 1.2376e-01   997.3770 0.0000e+00
     -0.678    23.7006     8.1246     95.978   0.435282      0.447      6.257   451.3222     0.0805    -0.3403     0.0114     -0.000     -0.665     -0.965         30 1.2359e-01   997.3771 0.0000e+00
     -0.678    23.7004     8.1242     95.973   0.431415      0.447      6.258   452.5336     0.0577    -0.2682     0.0114     -0.000     -0.665     -0.965         31 1.2374e-01   997.3771 0.0000e+00
     -0.679    23.7001     8.1244     95.975   0.443439      0.447      6.256   453.0258     0.0615    -0.2970     0.0114     -0.000     -0.665     -0.965         32 1.2383e-01   997.3771 0.0000e+00
     -0.679    23.6998     8.1265     95.999   0.479480      0.504      6.256   453.0258     0.0615    -0.1816     0.0114     -0.000     -0.665     -0.965         33 1.2372e-01   997.3772 0.0000e+00
     -0.679    23.6999     8.1288     96.026   0.445727      0.447      6.258   453.4044     0.0691    -0.2105     0.0114     -0.000     -0.665     -0.965         34 1.2376e-01   997.3772 0.0000e+00
     -0.678    23.6999     8.1286     96.024   0.485446      0.504      6.258   453.2529     0.0538    -0.3691     0.0114     -0.000     -0.665     -0.965         35 1.2371e-01   997.3773 0.0000e+00
     -0.678    23.6996     8.1281     96.018   0.489215      0.504      6.257   453.1772     0.0538    -0.3114     0.0114     -0.000     -0.665     -0.965         36 1.2367e-01   997.3773 0.0000e+00
     -0.679    23.6993     8.1282     96.018   0.441036      0.447      6.256   453.4422     0.0615    -0.1816     0.0114     -0.000     -0.665     -0.965         37 1.2373e-01   997.3773 0.0000e+00
     -0.679    23.6991     8.1294     96.032   0.486240      0.504      6.258   453.8208     0.0310    -0.2537     0.0114     -0.000     -0.665     -0.965         38 1.2382e-01   997.3774 0.0000e+00
     -0.679    23.6989     8.1263     95.995   0.492125      0.504      6.257   453.3665     0.0043    -0.2970     0.0114     -0.000     -0.665     -0.965         39 1.2373e-01   997.3774 0.0000e+00
     -0.678    23.6987     8.1281     96.016   0.433712      0.447      6.259   453.2908     0.0081    -0.2249     0.0114      0.000     -0.665     -0.965         40 1.2375e-01   997.3775 0.0000e+00
     -0.679    23.6987     8.1270     96.002   0.440606      0.447      6.260   453.4422     0.0424    -0.2393     0.0114     -0.000     -0.665     -0.965         41 1.2365e-01   997.3775 0.0000e+00
     -0.679    23.6985     8.1249     95.977   0.424382      0.447      6.259   452.1929     0.0615    -0.2537     0.0114     -0.000     -0.665     -0.965         42 1.2371e-01   997.3776 0.0000e+00
     -0.679    23.6981     8.1269     96.001   0.453901      0.447      6.259   452.3822     0.0386    -0.2970     0.0114     -0.000     -0.665     -0.965         43 1.2374e-01   997.3776 0.0000e+00
     -0.679    23.6979     8.1239     95.965   0.522196      0.561      6.258   455.9786     0.0538    -0.3547     0.0114     -0.000     -0.665     -0.965         44 1.2376e-01   997.3776 0.0000e+00
     -0.678    23.6979     8.1268     95.999   0.457717      0.447      6.252   461.5058     0.0729    -0.2537     0.0114      0.000     -0.665     -0.965         45 1.2393e-01   997.3777 0.0000e+00
     -0.678    23.6976     8.1270     96.002   0.415817      0.447      6.248   465.5944     0.0386    -0.2682     0.0114      0.000     -0.665     -0.965         46 1.2366e-01   997.3778 0.0000e+00
     -0.678    23.6976     8.1299     96.036   0.456014      0.447      6.251   469.2665    -0.0034    -0.1816     0.0114      0.000     -0.665     -0.965         47 1.2365e-01   997.3778 0.0000e+00
     -0.678    23.6975     8.1314     96.054   0.466856      0.504      6.258   471.8408    -0.0186    -0.2682     0.0114      0.000     -0.665     -0.965         48 1.2371e-01   997.3778 0.0000e+00
     -0.678    23.6970     8.1310     96.048   0.461487      0.447      6.257   476.3837    -0.0186    -0.2682     0.0114      0.000     -0.665     -0.965         49 1.2361e-01   997.3779 0.0000e+00
     -0.678    23.6968     8.1294     96.029   0.521859      0.561      6.256   478.7309     0.0043    -0.1961     0.0114      0.000     -0.665     -0.965         50 1.2370e-01   997.3778 0.0000e+00
     -0.679    23.6967     8.1291     96.026   0.569214      0.561      6.258   479.7151    -0.0072    -0.2970     0.0114      0.000     -0.665     -0.965         51 1.2388e-01   997.3779 0.0000e+00
     -0.678    23.6969     8.1273     96.031   0.580046      0.618      6.262   484.4852     0.0081    -0.2105     0.0114      0.000     -0.665     -0.965         52 1.2379e-01   997.3780 0.0000e+00
     -0.678    23.6966     8.0391     96.021   0.626706      0.618      6.259   483.5387    -0.0186    -0.1816     0.0114     -0.000     -0.665     -0.964         53 1.2367e-01   997.3780 0.0000e+00
     -0.678    23.6967     7.8745     95.894   0.629472      0.676      6.258   482.4030     0.0119    -0.2393     0.0114      0.000     -0.665     -0.964         54 1.2363e-01   997.3780 0.0000e+00
     -0.678    23.6960     7.7703     95.839   0.576604      0.561      6.260   481.9109     0.0081    -0.3403     0.0114      0.000     -0.665     -0.965         55 1.2369e-01   997.3781 0.0000e+00
     -0.678    23.6969     7.7177     95.845   0.633336      0.676      6.260   481.6080     0.0043    -0.2826     0.0114     -0.000     -0.665     -0.965         56 1.2388e-01   997.3781 0.0000e+00
     -0.678    23.6951     7.6879     95.834   0.677197      0.676      6.259   482.4030    -0.0186    -0.2393     0.0114     -0.000     -0.665     -0.965         57 1.2364e-01   997.3782 0.0000e+00
     -0.678    23.6974     7.6720     95.823   0.729094      0.762      6.260   482.3652     0.0081    -0.2393     0.0114      0.000     -0.665     -0.965         58 1.2369e-01   997.3780 0.0000e+00
     -0.678    23.6934     7.6589     95.801   0.805407      0.819      6.260   483.5387    -0.0186    -0.3691     0.0114      0.000     -0.665     -0.965         59 1.2377e-01   997.3784 0.0000e+00
     -0.678    23.6996     7.6449     95.785   0.848465      0.876      6.260   483.5766    -0.0034    -0.1528     0.0114     -0.000     -0.665     -0.965         60 1.2363e-01   997.3778 0.0000e+00
     -0.679    23.6891     7.6285     95.707   1.207992      1.220      6.263   481.2673     0.0233    -0.2682     0.0114     -0.000     -0.665     -0.965         61 1.2366e-01   997.3788 0.0000e+00
     -0.677    23.7222     7.6241     95.764   1.215872      1.305      6.264   470.9323     0.0119    -0.2537     0.0114     -0.000     -0.663     -0.963         62 1.2383e-01   997.3774 0.0000e+00
     -0.677    24.3039     7.6098     95.785   1.489475      1.420      6.268   440.9493     0.0195    -0.1528     0.0114      0.000     -0.651     -0.945         63 1.2364e-01   997.3798 0.0000e+00
     -0.631    25.3202     7.6115     96.018   2.257923      2.450      6.313   281.1917     0.0233    -0.1672     0.0116      0.013     -0.626     -0.907         64 1.2393e-01   997.3723 0.0000e+00
     -0.610    26.0362     7.6296     96.417   2.004977      1.940      6.426   261.2409    -0.0110    -0.3403     0.0117      0.027     -0.604     -0.876         65 1.2347e-01   997.2285 0.0000e+00
     -0.607    26.4082     7.6542     96.844   1.419652      1.484      6.518   248.4073    -0.0110    -0.3114     0.0120      0.038     -0.596     -0.865         66 1.2423e-01   996.9700 0.0000e+00
     -0.607    26.6218     7.6867     97.336   1.595900      1.464      6.587   235.5359     0.0004    -0.2682     0.0122      0.045     -0.596     -0.864         67 1.2311e-01   996.7823 0.0000e+00
     -0.611    26.7283     7.7192     97.788   1.164379      1.291      6.630   222.4373     0.0386    -0.2970     0.0123      0.045     -0.594     -0.862         68 1.2491e-01   996.6826 0.0000e+00
     -0.600    26.8118     7.7514     98.214   2.104582      1.744      6.685   218.4244    -0.0263    -0.3403     0.0124      0.045     -0.582     -0.843         69 1.2169e-01   996.6251 0.0000e+00
     -0.569    26.9021     7.7804     98.599  12.853956     12.306      6.840   169.2478    -0.0186    -0.1240     0.0154      0.046     -0.552     -0.800         70 1.2680e-01   996.5985 0.0000e+00
     -0.521    26.9761     7.8005     98.853  25.198394     24.753      7.072   160.3135     0.0271    -0.2682     0.0201      0.054     -0.506     -0.734         71 1.4005e-01   996.5792 0.0000e+00
     -0.459    27.0451     7.8169     99.038  27.655418     26.429      7.187   183.1036     0.0653    -0.0230     0.0207      0.068     -0.447     -0.649         72 1.2683e-01   996.5555 0.0000e+00
     -0.388    27.1589     7.8224     99.081  27.474165     26.553      7.301   170.2321     0.0615    -0.0230     0.0208      0.101     -0.384     -0.558         73 1.2174e-01   996.5354 0.0000e+00
     -0.330    27.2833     7.8130     98.939  27.793531     26.626      7.320   165.0078     0.0424    -0.0374     0.0208      0.140     -0.327     -0.475         74 1.2493e-01   996.5168 0.0000e+00
     -0.283    27.3809     7.8123     98.900  27.672640     26.567      7.349   169.0964     0.0729     0.0058     0.0209      0.175     -0.280     -0.406         75 1.2288e-01   996.4856 0.0000e+00
     -0.241    27.4498     7.8280     99.088  27.743058     26.504      7.360   172.9578     0.8397    34.6277     0.0209      0.199     -0.241     -0.350         76 1.2412e-01   996.4513 0.0000e+00
     -0.214    27.4958     7.9488    100.616  27.587368     26.347      7.341   176.4407     0.8282    34.4835     0.0208      0.205     -0.212     -0.308         77 1.2351e-01   996.4242 0.0000e+00
     -0.194    27.5196     7.9579    100.731  27.510901     26.207      7.312   175.6836     0.8092    34.4691     0.0208      0.194     -0.187     -0.272         78 1.2388e-01   996.4051 0.0000e+00
     -0.164    27.5305     7.8580     99.482  27.423497     26.130      7.282   174.8507     0.8473    34.5123     0.0208      0.174     -0.159     -0.231         79 1.2360e-01   996.3924 0.0000e+00
     -0.126    27.5398     7.6649     97.065  27.370292     26.039      7.246   174.9264     0.7901     0.8998     0.0207      0.153     -0.130     -0.189         80 1.2383e-01   996.3858 0.0000e+00
     -0.107    27.5390     7.4484     94.351  27.340136     26.034      7.190   176.6300     0.7596     0.8710     0.0207      0.132     -0.111     -0.162         81 1.2375e-01   996.3828 0.0000e+00
     -0.106    27.5262     7.2490     91.840  27.312916     25.976      7.155   178.7879     0.7748     0.8710     0.0207      0.111     -0.106     -0.153         82 1.2368e-01   996.3803 0.0000e+00
     -0.107    27.5117     7.0474     89.284  27.285681     25.976      7.127   180.3779     0.7901     0.8133     0.0207      0.091     -0.107     -0.155         83 1.2371e-01   996.3804 0.0000e+00
     -0.113    27.4980     6.8867     87.248  27.374031     26.036      7.093   181.6650     0.7634     0.9431     0.0207      0.070     -0.112     -0.163         84 1.2384e-01   996.3840 0.0000e+00
     -0.124    27.4819     6.7570     85.609  27.528801     26.229      7.057   182.9521     0.7825     0.8566     0.0208      0.048     -0.120     -0.173         85 1.2365e-01   996.3880 0.0000e+00
     -0.129    27.4748     6.6854     84.717  27.567013     26.236      7.020   184.3150     0.7748     0.8422     0.0208      0.027     -0.125     -0.182         86 1.2366e-01   996.3919 0.0000e+00
     -0.132    27.4742     6.6264     83.985  27.593071     26.298      6.986   185.1479     0.7825     0.8710     0.0208      0.005     -0.129     -0.188         87 1.2380e-01   996.3964 0.0000e+00
     -0.135    27.4744     6.5836     83.457  27.674104     26.354      6.952   186.4729     0.7748     0.8133     0.0209     -0.011     -0.129     -0.188         88 1.2357e-01   996.3983 0.0000e+00
     -0.127    27.4832     6.5350     82.850  27.703141     26.407      6.917   186.7757     0.8549     0.8566     0.0209     -0.015     -0.125     -0.181         89 1.2375e-01   996.3986 0.0000e+00
     -0.120    27.4991     6.4830     82.189  27.675420     26.354      6.869   187.2679     0.8473     0.9287     0.0209     -0.011     -0.120     -0.174         90 1.2358e-01   996.3986 0.0000e+00
     -0.119    27.5156     6.4318     81.529  27.708601     26.403      6.812   187.9114     0.8321     0.8998     0.0209     -0.005     -0.118     -0.170         91 1.2396e-01   996.3960 0.0000e+00
     -0.120    27.5244     6.3588     80.593  27.721088     26.395      6.766   188.6686     0.8168     0.8133     0.0209      0.000     -0.117     -0.170         92 1.2326e-01   996.3917 0.0000e+00
     -0.119    27.5240     6.2687     79.446  27.659875     26.333      6.737   189.5772     0.8549     0.9287     0.0209      0.006     -0.114     -0.165         93 1.2428e-01   996.3870 0.0000e+00
     -0.109    27.5232     6.1795     78.311  27.725532     26.382      6.720   190.5236     0.8244     0.8854     0.0209      0.010     -0.106     -0.153         94 1.2259e-01   996.3846 0.0000e+00
     -0.094    27.5266     6.0927     77.206  27.757863     26.436      6.696   190.7507     0.8435     0.8422     0.0209      0.016     -0.096     -0.139         95 1.2536e-01   996.3848 0.0000e+00
     -0.092    27.5358     6.0173     76.253  27.678882     26.330      6.656   192.0000     0.8244     0.8710     0.0209      0.019     -0.092     -0.134         96 1.2064e-01   996.3851 0.0000e+00
     -0.097    27.5466     5.9712     75.670  27.646093     26.328      6.626   192.0757     0.9160     1.0296     0.0209      0.018     -0.094     -0.137         97 1.2841e-01   996.3840 0.0000e+00
     -0.099    27.5559     5.9602     75.525  27.620937     26.270      6.601   192.9086     0.8893     0.8854     0.0208      0.015     -0.098     -0.142         98 1.7572e-01   996.3814 0.0000e+00
     -0.103    27.5631     5.9957     75.966  27.591700     26.265      6.572   194.0822     0.8740     0.8998     0.0208      0.012     -0.101     -0.146         99 1.9296e-01   996.3784 0.0000e+00
     -0.105    27.5618     6.0828     77.067  27.623233     26.260      6.558   194.7258     0.8778     0.8710     0.0208      0.008     -0.102     -0.148        100 1.6422e-01   996.3758 0.0000e+00
     -0.103    27.5535     6.1991     78.538  27.700176     26.363      6.547   195.6343     0.9122     0.8566     0.0209      0.003     -0.101     -0.147        101 1.3103e-01   996.3739 0.0000e+00
     -0.103    27.5467     6.3225     80.097  27.673671     26.310      6.538   196.5429     0.9274     0.9719     0.0209     -0.003     -0.101     -0.147        102 1.2231e-01   996.3741 0.0000e+00
     -0.104    27.5435     6.4307     81.465  27.656219     26.315      6.527   197.1865     0.8969     0.9431     0.0209     -0.006     -0.101     -0.147        103 1.2452e-01   996.3765 0.0000e+00
     -0.103    27.5391     6.5299     82.719  27.721897     26.371      6.513   197.5272     0.8893     0.9719     0.0209     -0.005     -0.100     -0.145        104 1.2305e-01   996.3784 0.0000e+00
     -0.099    27.5361     6.5974     83.570  27.710423     26.373      6.501   198.7386     0.9084     0.8566     0.0209     -0.001     -0.099     -0.142        105 1.2415e-01   996.3793 0.0000e+00
     -0.099    27.5380     6.6590     84.350  27.670499     26.322      6.490   198.5493     0.9122     0.8422     0.0209      0.001     -0.097     -0.141        106 1.2349e-01   996.3805 0.0000e+00
     -0.098    27.5390     6.6865     84.699  27.653098     26.323      6.480   199.5715     0.8969     0.8854     0.0209      0.003     -0.096     -0.140        107 1.2374e-01   996.3813 0.0000e+00
     -0.096    27.5343     6.6874     84.709  27.672838     26.322      6.471   200.5936     0.8626     0.8422     0.0209      0.004     -0.095     -0.138        108 1.2358e-01   996.3809 0.0000e+00
     -0.096    27.5283     6.6773     84.580  27.705176     26.375      6.461   200.8965     0.9007     0.8710     0.0209      0.004     -0.095     -0.138        109 1.2376e-01   996.3806 0.0000e+00
     -0.098    27.5264     6.6647     84.421  27.672098     26.324      6.450   201.2751     0.8969     0.8710     0.0209      0.004     -0.097     -0.140        110 1.2379e-01   996.3819 0.0000e+00
     -0.101    27.5244     6.6564     84.313  27.714005     26.380      6.443   201.8808     0.8855     0.8854     0.0209      0.002     -0.099     -0.143        111 1.2367e-01   996.3836 0.0000e+00
     -0.102    27.5213     6.6414     84.118  27.771510     26.434      6.433   202.5622     0.8931     0.9719     0.0209      0.000     -0.100     -0.145        112 1.2358e-01   996.3841 0.0000e+00
     -0.104    27.5195     6.6208     83.856  27.719020     26.382      6.426   202.9408     0.9045     0.8998     0.0209     -0.002     -0.101     -0.146        113 1.2380e-01   996.3847 0.0000e+00
     -0.103    27.5175     6.6031     83.633  27.720085     26.384      6.420   203.4708     0.9007     0.8710     0.0209     -0.003     -0.101     -0.146        114 1.2375e-01   996.3855 0.0000e+00
     -0.103    27.5154     6.5806     83.349  27.710942     26.385      6.411   204.3036     0.8969     0.9864     0.0209     -0.004     -0.101     -0.147        115 1.2364e-01   996.3860 0.0000e+00
     -0.104    27.5151     6.5604     83.092  27.671156     26.333      6.402   204.9851     0.8969     0.8566     0.0209     -0.004     -0.102     -0.148        116 1.2364e-01   996.3866 0.0000e+00
     -0.105    27.5150     6.5399     82.834  27.651113     26.334      6.398   204.9851     0.8969     0.8133     0.0209     -0.004     -0.102     -0.148        117 1.2375e-01   996.3871 0.0000e+00
     -0.103    27.5139     6.5259     82.643  27.676644     26.334      6.392   205.6665     0.8397     0.8710     0.0209     -0.002     -0.101     -0.147        118 1.2384e-01   996.3872 0.0000e+00
     -0.102    27.5135     6.5222     82.574  27.698628     26.387      6.386   205.9315     0.8549     0.9143     0.0209     -0.001     -0.100     -0.145        119 1.2367e-01   996.3874 0.0000e+00
     -0.100    27.5133     6.5123     82.440  27.682998     26.334      6.381   206.7265     0.8282     0.8710     0.0209      0.001     -0.099     -0.143        120 1.2370e-01   996.3876 0.0000e+00
     -0.100    27.5118     6.4898     82.166  27.696095     26.388      6.378   207.2565     0.8282     0.8710     0.0209      0.002     -0.098     -0.142        121 1.2388e-01   996.3877 0.0000e+00
     -0.099    27.5089     6.4749     81.977  27.682329     26.335      6.372   208.1272     0.9579     0.9287     0.0209      0.002     -0.098     -0.142        122 1.2378e-01   996.3878 0.0000e+00
     -0.100    27.5078     6.4449     81.589  27.640886     26.335      6.366   208.5058     0.9656     0.9575     0.0209      0.002     -0.098     -0.142        123 1.2361e-01   996.3882 0.0000e+00
     -0.101    27.5093     6.4067     81.101  27.629184     26.284      6.361   208.6951     0.9618     0.8854     0.0208      0.002     -0.098     -0.142        124 1.2365e-01   996.3890 0.0000e+00
     -0.099    27.5091     6.3535     80.400  27.696893     26.391      6.357   209.1494     0.9618     0.8998     0.0209      0.002     -0.097     -0.141        125 1.2376e-01   996.3893 0.0000e+00
     -0.099    27.5090     6.3153     79.911  27.675108     26.337      6.353   209.9065     0.9503     0.8566     0.0209      0.002     -0.097     -0.141        126 1.2376e-01   996.3889 0.0000e+00
     -0.098    27.5092     6.2804     79.487  27.656294     26.337      6.349   209.8687     0.9122     0.9287     0.0209      0.001     -0.094     -0.138        127 1.2364e-01   996.3890 0.0000e+00
     -0.091    27.5005     6.2260     78.825  27.720308     26.390      6.344   209.9444     0.9045     0.9719     0.0209      0.003     -0.088     -0.128        128 1.2363e-01   996.3890 0.0000e+00
     -0.080    27.4851     6.1624     78.000  27.713930     26.390      6.325   210.2851     0.9084     0.8710     0.0209      0.007     -0.080     -0.117        129 1.2381e-01   996.3889 0.0000e+00
     -0.075    27.4797     6.0833     76.916  27.664233     26.341      6.277   210.8908     0.8893     0.8566     0.0209      0.011     -0.075     -0.109        130 1.2354e-01   996.3915 0.0000e+00
     -0.074    27.4869     6.0069     75.882  27.663673     26.349      6.217   211.1937     0.8893     0.8998     0.0209      0.015     -0.070     -0.103        131 1.2357e-01   996.3958 0.0000e+00
     -0.067    27.4862     5.9221     74.777  27.714630     26.405      6.190   211.4587     0.9122     0.8277     0.0209      0.018     -0.063     -0.092        132 1.2385e-01   996.3973 0.0000e+00
     -0.052    27.4817     5.8307     73.599  27.600820     26.295      6.189   212.0265     0.8969     0.8710     0.0208      0.023     -0.056     -0.082        133 1.2389e-01   996.3953 0.0000e+00
     -0.053    27.4766     5.7851     73.027  27.360989     26.056      6.152   211.4965     0.9084     0.8710     0.0207      0.025     -0.060     -0.087        134 1.2391e-01   996.3955 0.0000e+00
     -0.082    27.4603     5.7951     73.159  27.361432     26.058      6.154   211.0422     0.8473     0.8710     0.0207      0.016     -0.076     -0.111        135 1.2372e-01   996.3966 0.0000e+00
     -0.096    27.4542     5.8158     73.437  27.481787     26.193      6.167   211.9508     0.8549     0.9431     0.0208      0.003     -0.089     -0.130        136 1.2371e-01   996.3980 0.0000e+00
     -0.094    27.4677     5.8381     73.716  27.507422     26.202      6.169   212.5944     0.8549     0.9431     0.0208     -0.008     -0.094     -0.136        137 1.2377e-01   996.4025 0.0000e+00
     -0.098    27.4856     5.8559     73.851  27.477639     26.205      6.157   212.7079     0.8473     0.8566     0.0208     -0.016     -0.098     -0.141        138 1.2377e-01   996.4043 0.0000e+00
     -0.105    27.4705     5.8445     73.629  27.341126     26.039      6.149   212.8215     0.9732     0.8710     0.0207     -0.023     -0.102     -0.147        139 1.2379e-01   996.4004 0.0000e+00
     -0.107    27.4125     5.8172     73.264  27.292233     26.002      6.147   213.2380     0.9579     0.7845     0.0207     -0.027     -0.102     -0.147        140 1.2364e-01   996.3954 0.0000e+00
     -0.096    27.3625     5.8021     73.073  27.301514     26.010      6.160   213.4272     0.9541     0.8422     0.0207     -0.025     -0.097     -0.140        141 1.2360e-01   996.3996 0.0000e+00
     -0.091    27.3360     5.7935     72.957  27.240721     25.986      6.163   213.9951     0.9541     1.0296     0.0207     -0.015     -0.097     -0.140        142 1.2358e-01   996.4158 0.0000e+00
     -0.109    27.3189     5.7897     72.894  27.190184     25.958      6.152   213.8815     0.9465     0.8422     0.0207     -0.007     -0.108     -0.156        143 1.2353e-01   996.4297 0.0000e+00
     -0.129    27.3196     5.7860     72.832  27.245941     26.024      6.157   213.9951     0.9694     0.8422     0.0207     -0.010     -0.119     -0.172        144 1.2379e-01   996.4370 0.0000e+00
     -0.123    27.3253     5.7853     72.814  27.319447     26.113      6.158   214.2980     0.9694     0.8133     0.0207     -0.013     -0.118     -0.171        145 1.2374e-01   996.4418 0.0000e+00
     -0.109    27.3378     5.7772     72.706  27.306059     26.085      6.145   214.9037     0.9656     0.8998     0.0207     -0.010     -0.110     -0.159        146 1.2351e-01   996.4417 0.0000e+00
     -0.105    27.3326     5.7615     72.503  27.232982     26.029      6.121   216.0015     0.9618     0.9575     0.0207     -0.006     -0.105     -0.152        147 1.2364e-01   996.4401 0.0000e+00
     -0.107    27.2688     5.7419     72.257  27.143800     25.917      6.094   216.0015     0.8969     0.8422     0.0206     -0.005     -0.105     -0.152        148 1.2361e-01   996.4365 0.0000e+00
     -0.109    27.2086     5.7159     71.931  27.180077     25.971      6.084   216.2287     0.9312     0.9431     0.0207     -0.004     -0.107     -0.154        149 1.2359e-01   996.4380 0.0000e+00
     -0.109    27.1926     5.6835     71.523  27.187842     26.005      6.082   216.0772     0.9236     0.8854     0.0207     -0.000     -0.107     -0.155        150 1.2376e-01   996.4557 0.0000e+00
     -0.110    27.1913     5.6479     71.072  27.193396     26.034      6.088   216.6451     0.8931     0.8277     0.0207      0.006     -0.107     -0.155        151 1.2355e-01   996.4724 0.0000e+00
     -0.108    27.1856     5.6156     70.662  27.262047     26.122      6.097   217.3265     0.9618     0.7989     0.0207      0.008     -0.106     -0.154        152 1.2355e-01   996.4769 0.0000e+00
     -0.107    27.1738     5.5749     70.151  27.191278     26.042      6.104   217.9322     0.9427     0.8422     0.0207      0.004     -0.106     -0.153        153 1.2374e-01   996.4772 0.0000e+00
     -0.108    27.1625     5.5465     69.791  27.133366     25.992      6.110   217.9701     0.9465     0.8566     0.0206     -0.000     -0.106     -0.153        154 1.2362e-01   996.4788 0.0000e+00
     -0.107    27.1549     5.5075     69.297  27.126777     25.998      6.117   218.4244     0.9503     0.9287     0.0206     -0.000     -0.105     -0.151        155 1.2370e-01   996.4820 0.0000e+00
     -0.104    27.1503     5.4597     68.690  27.140240     26.004      6.122   218.5380     0.9503     0.8998     0.0206      0.001     -0.103     -0.148        156 1.2367e-01   996.4851 0.0000e+00
     -0.103    27.1470     5.4149     68.123  27.116614     26.007      6.123   219.4087     0.9579     0.9287     0.0206      0.003     -0.102     -0.147        157 1.2363e-01   996.4873 0.0000e+00
     -0.104    27.1469     5.3690     67.545  27.096941     25.956      6.122   219.1815     0.9618     0.9143     0.0206      0.003     -0.101     -0.146        158 1.2370e-01   996.4885 0.0000e+00
     -0.102    27.1481     5.3307     67.061  27.135105     26.038      6.123   219.5601     0.9427     1.0008     0.0206      0.004     -0.100     -0.144        159 1.2369e-01   996.4895 0.0000e+00
     -0.099    27.1469     5.2843     66.475  27.098741     25.958      6.123   220.3551     0.9045     0.8422     0.0206      0.004     -0.097     -0.140        160 1.2374e-01   996.4895 0.0000e+00
     -0.096    27.1446     5.2488     66.024  27.112574     26.011      6.123   220.2794     0.8664     0.8566     0.0206      0.005     -0.093     -0.134        161 1.2367e-01   996.4892 0.0000e+00
     -0.088    27.1430     5.2460     65.990  27.147509     26.011      6.124   220.3551     0.8855     0.8133     0.0206      0.008     -0.084     -0.122        162 1.2365e-01   996.4896 0.0000e+00
     -0.073    27.1427     5.3240     67.006  27.173747     26.066      6.128   219.9387     0.9084     0.9864     0.0207      0.013     -0.068     -0.099        163 1.2378e-01   996.4903 0.0000e+00
     -0.048    27.1413     5.4735     68.954  27.139163     26.013      6.119   218.9544     0.9122     0.7556     0.0206      0.023     -0.046     -0.067        164 1.2359e-01   996.4908 0.0000e+00
     -0.021    27.1380     5.6593     71.343  27.042448     25.933      6.083   218.5380     0.9236     0.8998     0.0206      0.037     -0.022     -0.032        165 1.2347e-01   996.4909 0.0000e+00
      0.002    27.1338     5.8138     73.347  27.086766     25.960      6.048   218.4623     0.8969     0.8998     0.0206      0.052      0.002      0.003        166 1.2381e-01   996.4915 0.0000e+00
      0.025    27.1311     5.9261     74.824  27.113630     26.016      6.020   218.3865     0.9122     0.8998     0.0206      0.066      0.026      0.037        167 1.2376e-01   996.4925 0.0000e+00
      0.052    27.1307     5.9842     75.575  27.097878     25.964      6.012   218.5380     0.9122     0.8422     0.0206      0.078      0.052      0.075        168 1.2359e-01   996.4938 0.0000e+00
      0.082    27.1297     5.9962     75.747  27.106372     26.019      6.012   218.5380     0.8511     0.8710     0.0206      0.090      0.079      0.114        169 1.2377e-01   996.4946 0.0000e+00
      0.107    27.1271     5.9561     75.270  27.043820     25.912      6.023   218.6894     0.8321     0.8854     0.0206      0.097      0.105      0.152        170 1.2386e-01   996.4948 0.0000e+00
      0.134    27.1235     5.9147     74.766  27.057242     25.966      6.014   219.3708     0.8511     0.8998     0.0206      0.101      0.130      0.190        171 1.2382e-01   996.4953 0.0000e+00
      0.160    27.1250     6.0639     76.746  27.060050     25.941      6.016   219.4844     0.8664     0.9143     0.0206      0.102      0.155      0.225        172 1.2372e-01   996.4961 0.0000e+00
      0.181    27.1546     6.4601     81.858  27.129188     26.023      6.029   219.5223     0.8549     1.1738     0.0206      0.102      0.179      0.260        173 1.2377e-01   996.4972 0.0000e+00
      0.207    27.2055     6.9502     88.137  27.237787     26.129      6.048   219.9765     0.8244     1.0440     0.0207      0.102      0.207      0.301        174 1.2382e-01   996.4969 0.0000e+00
      0.246    27.2459     7.3743     93.558  27.369207     26.222      6.060   221.1123     0.8549     1.1306     0.0207      0.105      0.242      0.351        175 1.2384e-01   996.4889 0.0000e+00
      0.287    27.2888     7.7325     98.129  27.380318     26.249      6.057   222.0208     0.8702     1.1306     0.0207      0.110      0.276      0.401        176 1.2376e-01   996.4750 0.0000e+00
      0.311    27.3324     7.9829    101.323  27.105462     25.909      6.041   222.6265     0.9503     1.0440     0.0206      0.113      0.301      0.437        177 1.2377e-01   996.4639 0.0000e+00
      0.321    27.3462     8.1409    103.337  27.059589     25.887      6.030   223.0808     0.9351     1.1161     0.0206      0.112      0.319      0.462        178 1.2381e-01   996.4520 0.0000e+00
      0.346    27.3625     8.1896    103.960  27.230044     25.999      6.028   223.4594     0.9389     1.1161     0.0207      0.109      0.339      0.492        179 1.2357e-01   996.4401 0.0000e+00
      0.371    27.3815     8.1321    103.233  27.159907     25.966      6.015   224.0273     0.9694     1.1161     0.0207      0.107      0.358      0.520        180 1.2353e-01   996.4363 0.0000e+00
      0.378    27.4007     8.0067    101.644  27.176488     25.905      6.016   224.2544     0.9198     1.1450     0.0206      0.099      0.369      0.536        181 1.2371e-01   996.4319 0.0000e+00
      0.382    27.4647     7.8793    100.028  27.624096     26.400      6.015   224.6708     0.8931     1.1161     0.0208      0.085      0.374      0.543        182 1.2360e-01   996.4267 0.0000e+00
      0.384    27.5339     7.7815     98.785  27.906181     26.606      6.015   225.3523     0.8740     1.1161     0.0209      0.067      0.379      0.550        183 1.2359e-01   996.4214 0.0000e+00
      0.395    27.5766     7.7099     97.875  27.951030     26.651      6.022   225.7687     0.8969     1.0729     0.0210      0.053      0.388      0.564        184 1.2373e-01   996.4036 0.0000e+00
      0.410    27.6033     7.6698     97.366  27.982962     26.617      6.034   226.2230     0.9198     1.0296     0.0210      0.046      0.399      0.579        185 1.2371e-01   996.3843 0.0000e+00
      0.416    27.6181     7.6434     97.031  27.955284     26.594      6.040   226.3744     0.9122     1.1161     0.0210      0.041      0.406      0.589        186 1.2373e-01   996.3724 0.0000e+00
      0.414    27.6275     7.6248     96.793  27.985459     26.581      6.039   226.1473     0.9045     1.0440     0.0210      0.032      0.411      0.596        187 1.2377e-01   996.3648 0.0000e+00
      0.429    27.6319     7.6168     96.691  28.004644     26.627      6.043   226.6773     0.9236     1.0440     0.0210      0.028      0.424      0.614        188 1.2394e-01   996.3608 0.0000e+00
      0.453    27.6345     7.6163     96.685  27.990648     26.569      6.028   226.9801     0.8855     1.1161     0.0210      0.034      0.439      0.636        189 1.2373e-01   996.3583 0.0000e+00
      0.457    27.6362     7.6217     96.752  28.002874     26.620      6.004   227.5858     0.8244     1.1738     0.0210      0.038      0.445      0.645        190 1.2349e-01   996.3571 0.0000e+00
      0.449    27.6380     7.6269     96.809  27.989427     26.566      6.000   227.8508     0.8015     1.0585     0.0210      0.036      0.442      0.641        191 1.2367e-01   996.3563 0.0000e+00
      0.446    27.6384     7.6357     96.915  27.948136     26.565      6.007   228.1916     0.8244     1.0585     0.0210      0.029      0.439      0.637        192 1.2372e-01   996.3558 0.0000e+00
      0.447    27.6382     7.6349     96.907  27.906150     26.484      6.014   228.3430     0.8282     1.1161     0.0209      0.022      0.438      0.636        193 1.2362e-01   996.3554 0.0000e+00
      0.447    27.6374     7.6410     96.990  27.952815     26.564      6.015   228.8351     0.8397     1.1450     0.0210      0.017      0.439      0.637        194 1.2377e-01   996.3552 0.0000e+00
      0.449    27.6371     7.6461     97.059  27.978927     26.564      6.015   228.9487     0.8092     1.1017     0.0210      0.011      0.441      0.638        195 1.2384e-01   996.3552 0.0000e+00
      0.450    27.6372     7.6502     97.114  27.962518     26.564      6.007   229.1759     0.8397     1.0585     0.0210      0.003      0.441      0.639        196 1.2360e-01   996.3555 0.0000e+00
      0.448    27.6365     7.6513     97.130  27.973235     26.564      6.011   229.4787     0.8321     1.1017     0.0210     -0.003      0.441      0.639        197 1.2364e-01   996.3556 0.0000e+00
      0.450    27.6363     7.6477     97.084  27.965588     26.564      6.017   229.7059     0.9007     1.2171     0.0210     -0.002      0.441      0.640        198 1.2380e-01   996.3555 0.0000e+00
      0.452    27.6364     7.6437     97.032  27.972035     26.565      6.021   230.1980     0.9122     1.1306     0.0210      0.002      0.442      0.641        199 1.2372e-01   996.3557 0.0000e+00
      0.450    27.6346     7.6394     96.976  27.965214     26.565      6.023   230.1601     0.8969     0.9719     0.0210      0.002      0.441      0.639        200 1.2367e-01   996.3558 0.0000e+00
      0.446    27.6302     7.6300     96.856  27.974077     26.565      6.020   230.2737     0.8664     1.2027     0.0210      0.001      0.439      0.637        201 1.2361e-01   996.3558 0.0000e+00
      0.446    27.6272     7.6144     96.657  28.020249     26.618      6.016   230.6901     0.8588     0.8998     0.0210     -0.001      0.439      0.637        202 1.2358e-01   996.3562 0.0000e+00
      0.450    27.6285     7.6041     96.526  28.026242     26.621      6.012   230.7659     0.8397     1.0008     0.0210     -0.001      0.447      0.648        203 1.2369e-01   996.3575 0.0000e+00
      0.471    27.6315     7.6026     96.507  28.025863     26.622      6.009   230.9930     0.8359     0.8133     0.0210      0.005      0.470      0.681        204 1.2364e-01   996.3584 0.0000e+00
      0.517    27.6337     7.6154     96.669  28.020720     26.622      5.994   231.2580     0.8168     0.8566     0.0210      0.022      0.505      0.732        205 1.2359e-01   996.3583 0.0000e+00
      0.553    27.6356     7.6306     96.861  27.973400     26.567      5.982   231.0309     0.8855     1.0873     0.0210      0.043      0.541      0.785        206 1.2360e-01   996.3576 0.0000e+00
      0.586    27.6368     7.6433     97.023  27.966266     26.566      5.976   231.4851     0.8969     1.1882     0.0210      0.066      0.572      0.831        207 1.2372e-01   996.3571 0.0000e+00
      0.614    27.6364     7.6425     97.012  27.970354     26.565      5.976   231.7123     0.9312     1.0729     0.0210      0.089      0.597      0.867        208 1.2378e-01   996.3567 0.0000e+00
      0.625    27.6356     7.6445     97.036  27.968313     26.564      5.974   231.8259     0.8778     1.1450     0.0210      0.103      0.612      0.889        209 1.2375e-01   996.3564 0.0000e+00
      0.636    27.6345     7.6430     97.016  27.968806     26.565      5.974   232.2801     0.8893     1.1017     0.0210      0.107      0.623      0.904        210 1.2377e-01   996.3565 0.0000e+00
      0.645    27.6340     7.6374     96.943  27.969741     26.565      5.975   232.3180     0.8855     1.1306     0.0210      0.101      0.633      0.918        211 1.2366e-01   996.3568 0.0000e+00
      0.652    27.6341     7.6346     96.907  27.967150     26.566      5.982   232.4316     0.9045     1.0729     0.0210      0.086      0.646      0.936        212 1.2368e-01   996.3571 0.0000e+00
      0.678    27.6341     7.6402     96.975  27.972029     26.566      5.987   232.7344     0.9007     1.0440     0.0210      0.071      0.667      0.967        213 1.2371e-01   996.3574 0.0000e+00
      0.709    27.6339     7.6490     97.085  28.022911     26.619      5.989   232.5451     0.8893     1.0585     0.0210      0.065      0.693      1.005        214 1.2374e-01   996.3576 0.0000e+00
      0.732    27.6336     7.6491     97.085  28.022316     26.619      5.984   233.1130     0.8588     1.1882     0.0210      0.065      0.715      1.036        215 1.2374e-01   996.3577 0.0000e+00
      0.744    27.6334     7.6528     97.130  27.972770     26.566      5.983   232.9616     0.8397     1.2027     0.0210      0.067      0.730      1.058        216 1.2362e-01   996.3578 0.0000e+00
      0.756    27.6332     7.6488     97.077  27.966083     26.566      5.983   233.5294     0.8168     1.1306     0.0210      0.071      0.741      1.074        217 1.2352e-01   996.3579 0.0000e+00
      0.765    27.6325     7.6474     97.058  27.971395     26.566      5.982   233.1887     0.8359     1.0585     0.0210      0.071      0.751      1.088        218 1.2366e-01   996.3580 0.0000e+00
      0.774    27.6323     7.6499     97.087  27.966160     26.566      5.978   233.9080     0.8931     0.9864     0.0210      0.068      0.761      1.104        219 1.2377e-01   996.3581 0.0000e+00
      0.790    27.6317     7.6579     97.184  27.972598     26.567      5.975   234.3623     0.9274     1.1161     0.0210      0.064      0.772      1.121        220 1.2367e-01   996.3583 0.0000e+00
      0.798    27.6306     7.6603     97.208  27.963383     26.567      5.963   234.6652     0.8893     1.1450     0.0210      0.054      0.781      1.133        221 1.2364e-01   996.3584 0.0000e+00
      0.802    27.6299     7.6543     97.125  27.977628     26.567      5.959   234.8544     0.8893     1.2171     0.0210      0.044      0.787      1.142        222 1.2370e-01   996.3586 0.0000e+00
      0.809    27.6287     7.6527     97.100  28.014114     26.621      5.961   234.9680     1.0152     0.8710     0.0210      0.039      0.795      1.153        223 1.2381e-01   996.3590 0.0000e+00
      0.821    27.6276     7.6483     97.041  27.977222     26.568      5.969   234.9680     1.0533     0.8133     0.0210      0.037      0.807      1.170        224 1.2382e-01   996.3592 0.0000e+00
      0.838    27.6269     7.6371     96.897  27.964297     26.569      5.979   235.6116     1.0457     0.9719     0.0210      0.038      0.822      1.192        225 1.2379e-01   996.3597 0.0000e+00
      0.854    27.6255     7.6323     96.836  27.970954     26.569      5.980   235.6494     1.0457     0.9143     0.0210      0.041      0.839      1.216        226 1.2378e-01   996.3600 0.0000e+00
      0.873    27.6241     7.6281     96.782  27.968937     26.570      5.984   235.5737     0.9465     1.0873     0.0210      0.045      0.859      1.246        227 1.2384e-01   996.3603 0.0000e+00
      0.901    27.6234     7.6286     96.787  27.966809     26.570      5.982   236.1037     0.9541     1.0873     0.0210      0.052      0.884      1.282        228 1.2380e-01   996.3608 0.0000e+00
      0.929    27.6221     7.6296     96.800  27.973606     26.571      5.976   235.8009     0.9503     1.1594     0.0210      0.064      0.910      1.319        229 1.2372e-01   996.3613 0.0000e+00
      0.952    27.6197     7.6302     96.807  27.960480     26.571      5.975   236.0659     0.9694     1.0729     0.0210      0.075      0.934      1.354        230 1.2374e-01   996.3616 0.0000e+00
      0.976    27.6158     7.6274     96.772  27.894277     26.492      5.969   236.4823     0.9465     1.1450     0.0209      0.084      0.956      1.387        231 1.2365e-01   996.3621 0.0000e+00
      0.999    27.6115     7.6251     96.744  27.967129     26.573      5.959   236.7852     0.9694     1.1306     0.0210      0.090      0.976      1.416        232 1.2364e-01   996.3629 0.0000e+00
      1.012    27.6087     7.6258     96.750  28.017928     26.628      5.955   236.7852     0.9541     1.1161     0.0210      0.091      0.991      1.436        233 1.2384e-01   996.3640 0.0000e+00
      1.020    27.6072     7.6383     96.905  27.979169     26.577      5.953   237.0502     0.9846     1.1738     0.0210      0.087      1.001      1.451        234 1.2387e-01   996.3652 0.0000e+00
      1.030    27.6064     7.6404     96.930  28.015365     26.632      5.958   237.6559     0.9618     1.1161     0.0210      0.078      1.010      1.465        235 1.2372e-01   996.3661 0.0000e+00
      1.041    27.6061     7.6350     96.862  27.972883     26.579      5.968   237.5802     0.9465     1.1594     0.0210      0.067      1.020      1.480        236 1.2364e-01   996.3666 0.0000e+00
      1.051    27.6056     7.6285     96.780  27.972794     26.580      5.973   237.8830     0.9694     1.1017     0.0210      0.058      1.030      1.495        237 1.2370e-01   996.3669 0.0000e+00
      1.063    27.6050     7.6285     96.779  28.015477     26.633      5.979   237.9587     0.9732     1.1306     0.0210      0.050      1.040      1.510        238 1.2373e-01   996.3670 0.0000e+00
      1.069    27.6048     7.6290     96.782  27.979010     26.580      5.980   237.9966     0.9694     1.1738     0.0210      0.043      1.047      1.520        239 1.2368e-01   996.3671 0.0000e+00
      1.074    27.6051     7.6300     96.789  27.958934     26.581      5.981   238.4130     1.0152     1.0873     0.0210      0.038      1.052      1.526        240 1.2374e-01   996.3673 0.0000e+00
      1.077    27.6054     7.6253     96.725  27.981216     26.581      5.980   238.4130     1.0381     1.1738     0.0210      0.034      1.057      1.532        241 1.2375e-01   996.3674 0.0000e+00
      1.082    27.6053     7.6273     96.747  28.010524     26.634      5.976   238.6402     1.0381     1.0585     0.0210      0.031      1.063      1.542        242 1.2376e-01   996.3673 0.0000e+00
      1.093    27.6039     7.6340     96.824  27.981706     26.580      5.981   238.5266     1.0457     1.1306     0.0210      0.029      1.073      1.556        243 1.2374e-01   996.3673 0.0000e+00
      1.108    27.6016     7.6395     96.880  28.017080     26.633      5.991   238.8295     1.0113     1.0873     0.0210      0.029      1.086      1.575        244 1.2375e-01   996.3674 0.0000e+00
      1.121    27.6006     7.6371     96.828  28.025745     26.634      5.997   238.9809     1.0381     1.0440     0.0210      0.031      1.098      1.592        245 1.2375e-01   996.3678 0.0000e+00
      1.129    27.6014     7.6246     96.647  27.970923     26.582      5.995   239.5866     1.0228     1.1594     0.0210      0.033      1.106      1.605        246 1.2356e-01   996.3685 0.0000e+00
      1.135    27.6019     7.6147     96.505  27.966818     26.583      5.996   239.3595     1.0342     1.0440     0.0210      0.036      1.115      1.618        247 1.2355e-01   996.3688 0.0000e+00
      1.148    27.6012     7.6059     96.375  27.971608     26.582      6.002   239.7002     1.0037     1.1161     0.0210      0.039      1.127      1.635        248 1.2372e-01   996.3686 0.0000e+00
      1.163    27.5990     7.5951     96.218  27.964961     26.582      6.001   239.5487     1.0457     1.1161     0.0210      0.042      1.142      1.656        249 1.2366e-01   996.3686 0.0000e+00
      1.182    27.5958     7.5765     95.976  27.975091     26.582      6.004   239.7759     1.0495     1.2315     0.0210      0.046      1.159      1.681        250 1.2363e-01   996.3689 0.0000e+00
      1.201    27.5932     7.5671     95.857  28.018247     26.637      5.995   240.2680     1.0495     1.1161     0.0210      0.049      1.175      1.705        251 1.2384e-01   996.3696 0.0000e+00
      1.214    27.5910     7.5674     95.855  28.029743     26.638      5.986   240.4952     1.0037     1.0152     0.0210      0.052      1.189      1.725        252 1.2367e-01   996.3705 0.0000e+00
      1.225    27.5867     7.5793     96.001  28.020028     26.640      5.985   240.3816     0.9541     1.1161     0.0210      0.055      1.203      1.745        253 1.2355e-01   996.3713 0.0000e+00
      1.243    27.5782     7.5963     96.216  28.030337     26.641      5.987   240.4195     0.9465     1.1161     0.0210      0.058      1.222      1.772        254 1.2366e-01   996.3720 0.0000e+00
      1.272    27.5656     7.6055     96.340  28.016916     26.643      5.983   240.4952     0.9808     1.1450     0.0210      0.064      1.246      1.808        255 1.2362e-01   996.3733 0.0000e+00
      1.298    27.5532     7.6074     96.363  27.977490     26.594      5.969   240.8737     0.9541     1.1882     0.0210      0.070      1.271      1.843        256 1.2372e-01   996.3758 0.0000e+00
      1.316    27.5435     7.6071     96.355  27.960918     26.600      5.960   240.4952     1.0381     1.1450     0.0210      0.074      1.297      1.881        257 1.2381e-01   996.3794 0.0000e+00
      1.357    27.5324     7.6037     96.313  27.978300     26.607      5.963   240.8737     1.0228     1.1306     0.0210      0.083      1.329      1.928        258 1.2370e-01   996.3831 0.0000e+00
      1.394    27.5212     7.5968     96.228  27.955864     26.612      5.967   241.0630     1.0113     1.0296     0.0210      0.094      1.358      1.970        259 1.2356e-01   996.3859 0.0000e+00
      1.402    27.5172     7.5866     96.101  27.899980     26.538      5.958   241.3280     1.0381     1.1161     0.0209      0.100      1.373      1.991        260 1.2355e-01   996.3892 0.0000e+00
      1.404    27.5168     7.5820     96.041  27.958987     26.623      5.961   240.9116     0.9427     1.0296     0.0210      0.098      1.379      2.000        261 1.2374e-01   996.3923 0.0000e+00
      1.413    27.5140     7.5762     95.967  27.971301     26.625      5.972   241.0630     0.9465     1.1450     0.0210      0.089      1.387      2.011        262 1.2376e-01   996.3935 0.0000e+00
      1.425    27.5108     7.5875     96.110  27.884657     26.545      5.980   241.5552     0.9846     1.1450     0.0209      0.077      1.395      2.023        263 1.2367e-01   996.3935 0.0000e+00
      1.428    27.5113     7.5927     96.166  27.889082     26.547      5.976   241.8202     0.9694     1.1450     0.0209      0.063      1.399      2.030        264 1.2375e-01   996.3944 0.0000e+00
      1.429    27.5148     7.5953     96.188  27.965793     26.628      5.975   242.0473     0.9694     1.2027     0.0210      0.048      1.402      2.035        265 1.2366e-01   996.3952 0.0000e+00
      1.434    27.5148     7.5981     96.218  27.966923     26.628      5.982   241.9716     0.9541     1.2171     0.0210      0.032      1.408      2.043        266 1.2371e-01   996.3951 0.0000e+00
      1.446    27.5120     7.6072     96.323  27.976543     26.626      5.990   242.4637     0.9427     1.0873     0.0210      0.024      1.415      2.053        267 1.2382e-01   996.3943 0.0000e+00
      1.450    27.5121     7.6044     96.277  27.953820     26.626      5.994   242.1987     0.9770     1.0873     0.0210      0.024      1.420      2.060        268 1.2371e-01   996.3942 0.0000e+00
      1.449    27.5141     7.6078     96.317  27.906335     26.548      6.004   242.0852     0.9465     1.0873     0.0209      0.022      1.421      2.061        269 1.2374e-01   996.3950 0.0000e+00
      1.449    27.5149     7.6074     96.313  27.946773     26.628      6.011   242.9559     0.9198     1.2171     0.0210      0.018      1.421      2.062        270 1.2377e-01   996.3950 0.0000e+00
      1.449    27.5140     7.6037     96.267  27.933118     26.573      6.015   242.5773     0.9541     1.1450     0.0209      0.014      1.422      2.063        271 1.2376e-01   996.3944 0.0000e+00
      1.453    27.5139     7.5959     96.171  27.952951     26.626      6.021   243.0316     0.9618     1.0729     0.0210      0.013      1.426      2.067        272 1.2378e-01   996.3942 0.0000e+00
      1.457    27.5135     7.5896     96.093  27.981336     26.627      6.023   243.1073     0.9503     1.0873     0.0210      0.012      1.433      2.077        273 1.2371e-01   996.3944 0.0000e+00
      1.472    27.5082     7.5860     96.046  27.957036     26.627      6.028   242.9938     1.0113     1.0873     0.0210      0.013      1.446      2.097        274 1.2362e-01   996.3946 0.0000e+00
      1.494    27.5020     7.5809     95.978  27.894325     26.547      6.027   243.2588     0.9961     1.1306     0.0209      0.018      1.463      2.122        275 1.2385e-01   996.3948 0.0000e+00
      1.506    27.4980     7.5776     95.932  27.881649     26.550      6.009   243.3345     1.0266     1.0585     0.0209      0.027      1.477      2.142        276 1.2396e-01   996.3963 0.0000e+00
      1.516    27.4922     7.5728     95.870  27.883947     26.553      6.004   243.2966     1.0152     1.1738     0.0209      0.036      1.489      2.159        277 1.2376e-01   996.3981 0.0000e+00
      1.534    27.4864     7.5679     95.804  27.921090     26.581      5.999   243.5238     0.8969     1.1017     0.0209      0.044      1.501      2.177        278 1.2366e-01   996.3993 0.0000e+00
      1.540    27.4844     7.5593     95.689  27.953915     26.638      5.996   243.2966     0.9084     1.0873     0.0210      0.049      1.512      2.192        279 1.2367e-01   996.4010 0.0000e+00
      1.551    27.4850     7.5475     95.533  27.902341     26.561      6.000   243.5238     0.8778     1.1161     0.0209      0.051      1.526      2.212        280 1.2375e-01   996.4026 0.0000e+00
      1.578    27.4858     7.5283     95.278  27.955653     26.642      6.006   244.0916     0.9045     1.1306     0.0210      0.055      1.546      2.242        281 1.2362e-01   996.4033 0.0000e+00
      1.599    27.4875     7.5104     95.036  27.976435     26.641      6.002   243.8645     0.9618     1.0729     0.0210      0.057      1.567      2.272        282 1.2368e-01   996.4033 0.0000e+00
      1.614    27.4883     7.4981     94.866  27.965344     26.641      6.001   244.0538     0.9618     1.0440     0.0210      0.059      1.583      2.296        283 1.2385e-01   996.4031 0.0000e+00
      1.630    27.4871     7.4881     94.728  27.969457     26.640      5.996   244.3945     0.9236     1.0729     0.0210      0.063      1.597      2.317        284 1.2381e-01   996.4027 0.0000e+00
      1.642    27.4852     7.4685     94.476  27.971317     26.640      5.990   244.0916     0.9541     1.1161     0.0210      0.065      1.611      2.336        285 1.2380e-01   996.4025 0.0000e+00
      1.656    27.4831     7.4469     94.206  27.963029     26.640      5.987   244.5459     1.1105     1.3613     0.0210      0.065      1.623      2.354        286 1.2362e-01   996.4029 0.0000e+00
      1.665    27.4822     7.4341     94.040  27.979771     26.641      5.981   244.5459     1.0686     1.3180     0.0210      0.064      1.634      2.369        287 1.2356e-01   996.4035 0.0000e+00
      1.677    27.4799     7.4292     93.977  27.950481     26.642      5.983   244.8866     1.0876     1.3324     0.0210      0.059      1.644      2.384        288 1.2372e-01   996.4041 0.0000e+00
      1.688    27.4763     7.4275     93.955  27.910615     26.563      5.987   245.3030     1.0762     1.3036     0.0209      0.052      1.654      2.399        289 1.2373e-01   996.4044 0.0000e+00
      1.693    27.4723     7.4366     94.064  27.940521     26.644      5.982   245.3030     0.8969     1.1161     0.0210      0.047      1.663      2.412        290 1.2372e-01   996.4051 0.0000e+00
      1.706    27.4654     7.4506     94.231  27.942887     26.593      5.986   245.0380     0.8969     1.1306     0.0209      0.044      1.676      2.431        291 1.2354e-01   996.4061 0.0000e+00
      1.728    27.4564     7.4615     94.361  27.937292     26.648      5.987   245.1516     0.9274     1.1594     0.0210      0.045      1.695      2.459        292 1.2356e-01   996.4073 0.0000e+00
      1.751    27.4480     7.4718     94.486  27.917863     26.571      5.991   245.3030     0.8740     1.0873     0.0209      0.049      1.716      2.489        293 1.2373e-01   996.4093 0.0000e+00
      1.773    27.4411     7.4698     94.460  27.996692     26.709      5.990   246.0980     0.8702     1.0585     0.0210      0.055      1.734      2.515        294 1.2369e-01   996.4120 0.0000e+00
      1.782    27.4391     7.4691     94.456  27.987303     26.660      5.969   245.6059     0.9770     1.3324     0.0210      0.060      1.744      2.529        295 1.2365e-01   996.4143 0.0000e+00
      1.779    27.4401     7.4583     94.322  27.959172     26.664      5.960   245.9088     0.9389     1.3613     0.0210      0.058      1.747      2.534        296 1.2361e-01   996.4162 0.0000e+00
      1.785    27.4387     7.4454     94.160  28.031703     26.718      5.970   245.7952     0.9389     1.3613     0.0210      0.055      1.751      2.541        297 1.2365e-01   996.4170 0.0000e+00
      1.795    27.4378     7.4427     94.114  28.015528     26.717      5.974   246.0223     0.9541     1.2748     0.0210      0.051      1.758      2.551        298 1.2369e-01   996.4167 0.0000e+00
      1.799    27.4372     7.4376     94.026  27.979302     26.665      5.972   246.0223     0.9618     1.2027     0.0210      0.042      1.767      2.563        299 1.2376e-01   996.4170 0.0000e+00
      1.813    27.4336     7.4315     93.935  28.017544     26.718      5.985   245.8709     0.9885     1.1306     0.0210      0.035      1.781      2.582        300 1.2375e-01   996.4174 0.0000e+00
      1.837    27.4275     7.4388     94.018  28.027181     26.719      5.992   246.0602     0.9465     1.1594     0.0210      0.034      1.800      2.609        301 1.2373e-01   996.4177 0.0000e+00
      1.855    27.4229     7.4428     94.064  27.967308     26.667      6.000   246.2116     0.9503     1.0873     0.0210      0.037      1.816      2.634        302 1.2384e-01   996.4188 0.0000e+00
      1.864    27.4201     7.4565     94.235  28.032812     26.724      5.997   246.8552     0.9618     1.1161     0.0210      0.044      1.827      2.650        303 1.2362e-01   996.4204 0.0000e+00
      1.871    27.4194     7.4804     94.537  28.064151     26.779      5.997   246.8173     0.9579     1.1306     0.0210      0.050      1.837      2.664        304 1.2355e-01   996.4218 0.0000e+00
      1.884    27.4222     7.5004     94.785  27.987553     26.674      6.001   246.7795     0.9732     1.1017     0.0210      0.052      1.850      2.682        305 1.2380e-01   996.4226 0.0000e+00
      1.903    27.4243     7.5078     94.873  28.009651     26.728      6.006   246.8552     0.9618     1.0873     0.0210      0.054      1.866      2.707        306 1.2385e-01   996.4229 0.0000e+00
      1.921    27.4241     7.5077     94.867  27.977406     26.673      6.009   247.0823     1.0915     1.0873     0.0210      0.057      1.884      2.733        307 1.2387e-01   996.4222 0.0000e+00
      1.941    27.4168     7.5042     94.817  27.968436     26.672      6.010   247.3473     1.0953     1.2603     0.0210      0.058      1.904      2.761        308 1.2371e-01   996.4217 0.0000e+00
      1.962    27.4041     7.4884     94.609  27.961571     26.672      6.010   247.4988     1.0876     1.0585     0.0210      0.059      1.924      2.790        309 1.2362e-01   996.4218 0.0000e+00
      1.982    27.3953     7.4724     94.402  27.985952     26.676      6.008   247.7638     1.0686     1.0296     0.0210      0.064      1.944      2.819        310 1.2364e-01   996.4240 0.0000e+00
      2.003    27.3902     7.4386     93.971  27.997342     26.736      5.998   248.2938     0.9541     1.3757     0.0210      0.071      1.961      2.845        311 1.2356e-01   996.4276 0.0000e+00
      2.014    27.3870     7.4124     93.635  27.917780     26.607      5.970   247.9909     0.9618     1.3180     0.0209      0.074      1.973      2.861        312 1.2369e-01   996.4301 0.0000e+00
      2.018    27.3858     7.3934     93.379  27.936860     26.690      5.963   248.2559     0.9618     1.4334     0.0210      0.070      1.978      2.870        313 1.2375e-01   996.4316 0.0000e+00
      2.021    27.3852     7.3835     93.237  27.914355     26.611      5.958   248.2181     0.9694     1.3036     0.0209      0.062      1.983      2.876        314 1.2374e-01   996.4324 0.0000e+00
      2.026    27.3831     7.3679     93.027  27.945787     26.692      5.962   248.5966     0.9541     1.4045     0.0210      0.052      1.990      2.887        315 1.2372e-01   996.4327 0.0000e+00
      2.043    27.3795     7.3447     92.725  27.986609     26.692      5.973   248.6345     0.9541     1.1306     0.0210      0.045      2.003      2.906        316 1.2362e-01   996.4330 0.0000e+00
      2.057    27.3767     7.3287     92.516  27.952418     26.693      5.981   248.8616     0.9465     1.1306     0.0210      0.040      2.018      2.926        317 1.2367e-01   996.4337 0.0000e+00
      2.071    27.3731     7.3153     92.338  27.988337     26.695      5.986   248.7481     0.9618     1.1017     0.0210      0.038      2.033      2.948        318 1.2377e-01   996.4347 0.0000e+00
      2.093    27.3686     7.3008     92.136  28.060398     26.803      5.984   249.2781     0.9465     1.0152     0.0210      0.041      2.049      2.972        319 1.2378e-01   996.4357 0.0000e+00
      2.104    27.3653     7.2897     91.951  28.040474     26.752      5.971   248.8616     0.9694     1.1161     0.0210      0.047      2.063      2.992        320 1.2363e-01   996.4367 0.0000e+00
      2.115    27.3634     7.2840     91.831  28.013135     26.754      5.977   249.3538     0.9389     1.1161     0.0210      0.052      2.076      3.011        321 1.2361e-01   996.4379 0.0000e+00
      2.132    27.3597     7.2796     91.750  28.035177     26.756      5.981   249.4295     0.9770     1.0873     0.0210      0.057      2.092      3.035        322 1.2379e-01   996.4390 0.0000e+00
      2.153    27.3505     7.2818     91.771  28.013043     26.757      5.997   249.0131     0.9541     1.0440     0.0210      0.060      2.115      3.068        323 1.2380e-01   996.4397 0.0000e+00
      2.186    27.3402     7.3028     92.028  28.040682     26.758      6.009   249.6188     0.9465     1.3901     0.0210      0.066      2.143      3.108        324 1.2380e-01   996.4408 0.0000e+00
      2.216    27.3323     7.3185     92.221  28.060027     26.817      6.012   249.9973     0.9694     1.3324     0.0210      0.074      2.169      3.146        325 1.2382e-01   996.4435 0.0000e+00
      2.232    27.3267     7.3309     92.375  28.048216     26.768      6.012   249.6945     0.9656     1.3613     0.0210      0.079      2.187      3.172        326 1.2377e-01   996.4464 0.0000e+00
      2.242    27.3222     7.3389     92.468  28.114628     26.879      6.017   250.3759     0.9503     1.3469     0.0210      0.081      2.199      3.188        327 1.2375e-01   996.4487 0.0000e+00
      2.251    27.3174     7.3442     92.527  28.036624     26.775      6.018   250.6409     1.0190     1.3613     0.0210      0.080      2.208      3.202        328 1.2368e-01   996.4503 0.0000e+00
      2.260    27.3050     7.3600     92.698  28.026805     26.778      6.017   250.4138     1.0228     1.4622     0.0210      0.076      2.219      3.218        329 1.2362e-01   996.4515 0.0000e+00
      2.277    27.2783     7.3817     92.940  28.126851     26.887      6.021   250.4138     1.0381     1.3757     0.0210      0.069      2.234      3.241        330 1.2376e-01   996.4530 0.0000e+00
      2.298    27.2495     7.4106     93.256  28.030610     26.786      6.022   250.4138     1.0113     1.4334     0.0210      0.063      2.252      3.267        331 1.2391e-01   996.4566 0.0000e+00
      2.316    27.2340     7.4542     93.716  27.879984     26.667      6.024   251.1709     0.9007     1.5343     0.0209      0.057      2.270      3.293        332 1.2378e-01   996.4639 0.0000e+00
      2.332    27.2295     7.4910     94.076  27.899606     26.681      6.026   251.0952     0.8816     1.5920     0.0209      0.056      2.285      3.314        333 1.2370e-01   996.4720 0.0000e+00
      2.341    27.2245     7.4925     94.006  28.006201     26.823      6.025   251.2845     0.9236     1.6352     0.0210      0.057      2.295      3.329        334 1.2367e-01   996.4764 0.0000e+00
      2.349    27.2219     7.4472     93.370  27.984309     26.772      6.025   251.6252     0.9274     1.5776     0.0210      0.057      2.304      3.342        335 1.2364e-01   996.4777 0.0000e+00
      2.358    27.2203     7.3755     92.385  28.015718     26.828      6.027   251.8145     0.8969     1.5631     0.0210      0.056      2.315      3.357        336 1.2369e-01   996.4790 0.0000e+00
      2.374    27.2164     7.2872     91.200  27.967115     26.776      6.029   251.7009     0.8855     1.2459     0.0210      0.054      2.330      3.380        337 1.2357e-01   996.4798 0.0000e+00
      2.395    27.2105     7.1956     89.995  27.837446     26.643      6.032   251.7388     0.9122     1.3324     0.0209      0.052      2.351      3.410        338 1.2367e-01   996.4804 0.0000e+00
      2.423    27.1945     7.1012     88.753  27.821629     26.645      6.027   252.0038     0.9045     1.3324     0.0209      0.055      2.378      3.449        339 1.2367e-01   996.4816 0.0000e+00
      2.457    27.1749     7.0272     87.761  27.720205     26.540      6.024   252.4959     0.8855     1.2603     0.0209      0.063      2.408      3.493        340 1.2358e-01   996.4833 0.0000e+00
      2.488    27.1456     6.9787     87.084  27.726698     26.549      6.023   252.2309     0.8397     1.3036     0.0209      0.076      2.438      3.536        341 1.2359e-01   996.4879 0.0000e+00
      2.514    27.0939     6.9346     86.459  27.961662     26.800      6.019   252.5338     0.8473     1.3613     0.0209      0.089      2.465      3.575        342 1.2361e-01   996.4934 0.0000e+00
      2.539    27.0327     6.8993     85.954  28.138725     26.975      6.023   252.6852     0.8473     1.4334     0.0210      0.099      2.488      3.608        343 1.2375e-01   996.5018 0.0000e+00
      2.557    26.9811     6.8692     85.523  28.246905     27.109      6.021   252.9502     0.8321     1.4766     0.0210      0.104      2.505      3.633        344 1.2369e-01   996.5162 0.0000e+00
      2.565    26.9388     6.8392     85.085  28.241762     27.141      6.014   252.6852     0.9045     1.3324     0.0210      0.101      2.515      3.648        345 1.2371e-01   996.5330 0.0000e+00
      2.572    26.8885     6.8162     84.701  28.204391     27.115      6.011   252.9881     0.8855     1.2603     0.0210      0.091      2.524      3.661        346 1.2369e-01   996.5473 0.0000e+00
      2.586    26.8399     6.7987     84.387  28.293432     27.244      6.015   253.0638     0.9007     1.3469     0.0211      0.078      2.536      3.679        347 1.2360e-01   996.5590 0.0000e+00
      2.600    26.8032     6.8131     84.501  28.367949     27.324      6.019   252.9502     0.9007     1.4189     0.0211      0.066      2.551      3.699        348 1.2359e-01   996.5728 0.0000e+00
      2.617    26.7649     6.8589     85.049  28.348654     27.350      6.024   253.1395     0.8931     1.3613     0.0211      0.058      2.567      3.723        349 1.2374e-01   996.5862 0.0000e+00
      2.635    26.7222     6.9338     85.976  28.376707     27.369      6.025   253.5181     0.8931     1.3036     0.0211      0.054      2.584      3.748        350 1.2384e-01   996.5963 0.0000e+00
      2.652    26.6769     7.0239     87.011  28.510788     27.551      6.025   253.4802     0.9236     1.4189     0.0211      0.054      2.604      3.777        351 1.2380e-01   996.6069 0.0000e+00
      2.680    26.6297     7.1076     87.800  28.507655     27.547      6.024   253.6316     0.9198     1.3757     0.0211      0.060      2.628      3.812        352 1.2370e-01   996.6187 0.0000e+00
      2.707    26.5870     7.1785     88.357  28.499113     27.571      6.021   253.7452     0.9198     1.3324     0.0211      0.069      2.653      3.847        353 1.2357e-01   996.6312 0.0000e+00
      2.726    26.5512     7.2401     88.745  28.551061     27.651      6.013   254.1238     0.8893     1.2315     0.0211      0.077      2.673      3.877        354 1.2375e-01   996.6440 0.0000e+00
      2.744    26.5082     7.2815     88.827  28.443024     27.565      6.014   254.1238     0.9045     1.3757     0.0211      0.081      2.693      3.906        355 1.2389e-01   996.6557 0.0000e+00
      2.769    26.4455     7.2828     88.412  28.307730     27.449      6.012   254.4645     0.9045     1.3613     0.0210      0.085      2.715      3.938        356 1.2388e-01   996.6655 0.0000e+00
      2.791    26.3811     7.2462     87.615  28.245489     27.417      6.008   254.8052     0.8740     1.3180     0.0210      0.087      2.737      3.970        357 1.2383e-01   996.6773 0.0000e+00
      2.813    26.3398     7.1690     86.535  28.194657     27.397      6.008   255.1459     0.9198     1.3324     0.0210      0.088      2.758      4.001        358 1.2361e-01   996.6943 0.0000e+00
      2.836    26.3263     7.0992     85.633  28.193280     27.431      6.001   255.7516     0.8778     1.3757     0.0210      0.088      2.780      4.031        359 1.2349e-01   996.7116 0.0000e+00
      2.854    26.3248     7.0313     84.743  28.187980     27.454      5.994   256.1681     0.9122     1.3324     0.0210      0.085      2.800      4.061        360 1.2348e-01   996.7229 0.0000e+00
      2.877    26.2699     6.9800     84.063  28.142024     27.406      5.994   256.4331     0.9122     1.4045     0.0210      0.084      2.823      4.095        361 1.2347e-01   996.7267 0.0000e+00
      2.907    26.1177     6.9319     83.507  28.013501     27.298      5.992   256.4709     1.0075     1.3324     0.0209      0.087      2.850      4.133        362 1.2367e-01   996.7272 0.0000e+00
      2.934    25.9182     6.8943     83.207  27.903600     27.190      5.996   256.7359     1.0266     1.3469     0.0209      0.091      2.877      4.172        363 1.2368e-01   996.7420 0.0000e+00
      2.960    25.6893     6.8693     82.979  27.804870     27.218      5.999   256.8116     1.0304     1.3757     0.0208      0.093      2.903      4.211        364 1.2371e-01   996.7828 0.0000e+00
      2.989    25.4300     6.8669     82.899  27.632857     27.105      6.002   257.1524     1.0342     1.3613     0.0207      0.097      2.931      4.251        365 1.2381e-01   996.8360 0.0000e+00
      3.017    25.1636     6.8679     82.885  27.525312     27.172      6.011   257.4552     1.0342     1.3613     0.0207      0.101      2.956      4.287        366 1.2360e-01   996.8965 0.0000e+00
      3.037    24.9495     6.8771     83.011  27.375989     27.119      6.011   257.6824     1.0266     1.3324     0.0206      0.103      2.975      4.315        367 1.2360e-01   996.9643 0.0000e+00
      3.048    24.8544     6.8884     83.046  27.285601     27.207      6.011   258.0988     1.0381     1.4045     0.0206      0.100      2.987      4.333        368 1.2364e-01   997.0334 0.0000e+00
      3.053    24.8165     6.9063     82.927  27.312061     27.326      6.010   257.8717     1.0190     1.3324     0.0206      0.091      2.995      4.344        369 1.2353e-01   997.0885 0.0000e+00
      3.062    24.7719     6.9121     82.605  27.372756     27.460      6.013   258.1745     1.1029     1.5487     0.0206      0.079      3.003      4.355        370 1.2365e-01   997.1128 0.0000e+00
      3.070    24.7313     6.8988     82.137  27.358213     27.452      6.019   258.2124     1.0915     1.6064     0.0206      0.066      3.011      4.367        371 1.2374e-01   997.1224 0.0000e+00
      3.079    24.7503     6.8582     81.448  27.300559     27.421      6.021   258.3638     1.0457     1.5487     0.0205      0.054      3.021      4.381        372 1.2375e-01   997.1338 0.0000e+00
      3.092    24.8446     6.8234     80.917  27.296418     27.443      6.025   258.7424     1.0762     1.5776     0.0205      0.045      3.034      4.400        373 1.2377e-01   997.1442 0.0000e+00
      3.110    24.8928     6.7765     80.310  27.304134     27.435      6.028   258.8559     1.1449     1.6497     0.0205      0.040      3.051      4.425        374 1.2368e-01   997.1396 0.0000e+00
      3.131    24.8626     6.7405     79.858  27.290946     27.380      6.029   259.2724     1.1525     1.5487     0.0206      0.043      3.070      4.452        375 1.2376e-01   997.1156 0.0000e+00
      3.149    24.8450     6.7108     79.448  27.312806     27.354      6.025   259.0074     1.1372     1.6064     0.0206      0.049      3.087      4.476        376 1.2366e-01   997.1034 0.0000e+00
      3.162    24.8538     6.6971     79.213  27.306537     27.400      6.027   259.4995     1.1487     1.5776     0.0206      0.055      3.101      4.498        377 1.2356e-01   997.1112 0.0000e+00
      3.177    24.7835     6.6894     79.052  27.209889     27.269      6.027   259.5752     1.1411     1.5776     0.0205      0.060      3.116      4.519        378 1.2364e-01   997.1157 0.0000e+00
      3.193    24.5703     6.6758     78.812  27.107259     27.208      6.030   259.9917     1.1182     1.4478     0.0205      0.063      3.133      4.543        379 1.2367e-01   997.1134 0.0000e+00
      3.214    24.3161     6.6578     78.477  26.960331     27.048      6.028   259.7645     1.1411     1.5920     0.0204      0.066      3.153      4.571        380 1.2366e-01   997.1313 0.0000e+00
      3.237    24.1151     6.6498     78.229  26.918837     27.167      6.026   259.9538     1.1411     1.6208     0.0204      0.068      3.173      4.601        381 1.2377e-01   997.1856 0.0000e+00
      3.254    23.9796     6.6512     78.090  26.892383     27.250      6.020   260.2188     1.1487     1.6208     0.0204      0.069      3.189      4.626        382 1.2382e-01   997.2495 0.0000e+00
      3.265    23.9020     6.6630     78.137  26.815619     27.305      6.019   260.5974     1.2135     1.5631     0.0203      0.068      3.200      4.641        383 1.2366e-01   997.2994 0.0000e+00
      3.271    23.8687     6.6772     78.226  26.866340     27.409      6.013   260.7109     1.2250     1.6785     0.0203      0.065      3.207      4.650        384 1.2361e-01   997.3330 0.0000e+00
      3.272    23.8497     6.6881     78.244  26.858933     27.481      6.010   261.0517     1.2059     1.6497     0.0203      0.059      3.212      4.659        385 1.2374e-01   997.3522 0.0000e+00
      3.284    23.8121     6.7002     78.294  26.795246     27.386      6.011   261.1274     1.2173     1.6208     0.0203      0.053      3.223      4.674        386 1.2381e-01   997.3604 0.0000e+00
      3.303    23.7620     6.7082     78.377  26.797510     27.453      6.017   261.3545     1.2860     1.5776     0.0203      0.048      3.239      4.697        387 1.2367e-01   997.3651 0.0000e+00
      3.320    23.7154     6.7209     78.487  26.737646     27.360      6.024   261.3167     1.2631     1.5920     0.0203      0.045      3.256      4.722        388 1.2364e-01   997.3744 0.0000e+00
      3.338    23.6601     6.7287     78.492  26.692039     27.388      6.024   261.4302     1.2479     1.5776     0.0202      0.045      3.276      4.751        389 1.2378e-01   997.3867 0.0000e+00
      3.363    23.5793     6.7253     78.359  26.676562     27.357      6.027   262.0738     1.2669     1.6497     0.0202      0.051      3.301      4.788        390 1.2377e-01   997.3981 0.0000e+00
      3.400    23.4735     6.7127     78.200  26.608822     27.359      6.023   262.3388     1.2517     1.4766     0.0202      0.064      3.332      4.832        391 1.2365e-01   997.4118 0.0000e+00
      3.429    23.3709     6.7142     78.171  26.480161     27.233      6.022   262.6795     1.2746     1.4189     0.0201      0.079      3.357      4.869        392 1.2371e-01   997.4315 0.0000e+00
      3.438    23.3061     6.7198     78.094  26.451649     27.292      6.011   262.6038     1.2746     1.3324     0.0201      0.087      3.373      4.892        393 1.2377e-01   997.4571 0.0000e+00
      3.452    23.2550     6.7164     77.901  26.466621     27.351      6.014   262.8310     1.2669     1.2748     0.0201      0.089      3.391      4.917        394 1.2364e-01   997.4819 0.0000e+00
      3.485    23.1791     6.6976     77.558  26.402323     27.328      6.014   263.7017     1.5187     1.4045     0.0201      0.091      3.416      4.955        395 1.2379e-01   997.4976 0.0000e+00
      3.513    23.1217     6.6715     77.130  26.353974     27.300      6.016   263.3231     1.5187     1.3036     0.0201      0.094      3.438      4.987        396 1.2390e-01   997.5099 0.0000e+00
      3.517    23.1097     6.6360     76.685  26.349093     27.342      6.014   263.2474     1.5302     1.3324     0.0201      0.089      3.449      5.003        397 1.2382e-01   997.5281 0.0000e+00
      3.525    23.0869     6.5962     76.209  26.349181     27.377      6.021   263.3231     1.5263     1.3324     0.0201      0.079      3.459      5.018        398 1.2372e-01   997.5419 0.0000e+00
      3.542    23.0263     6.5370     75.426  26.294644     27.323      6.021   263.7017     1.5187     1.3901     0.0200      0.070      3.473      5.038        399 1.2373e-01   997.5449 0.0000e+00
      3.559    22.9686     6.4854     74.718  26.239255     27.280      6.025   263.6260     1.5721     1.4334     0.0200      0.066      3.487      5.058        400 1.2378e-01   997.5504 0.0000e+00
      3.565    22.9553     6.4294     74.012  26.240405     27.313      6.021   264.0045     1.5721     1.3757     0.0200      0.063      3.497      5.072        401 1.2365e-01   997.5648 0.0000e+00
      3.572    22.9249     6.3719     73.345  26.233992     27.348      6.022   263.8152     1.5683     1.3613     0.0200      0.055      3.507      5.087        402 1.2371e-01   997.5785 0.0000e+00
      3.592    22.8294     6.3113     72.647  26.188013     27.295      6.025   263.9667     1.5950     1.3901     0.0200      0.048      3.525      5.113        403 1.2367e-01   997.5816 0.0000e+00
      3.621    22.7284     6.2410     71.757  26.149537     27.284      6.024   264.4210     1.5759     1.4045     0.0200      0.051      3.550      5.150        404 1.2366e-01   997.5890 0.0000e+00
      3.648    22.6403     6.1775     70.870  26.074554     27.251      6.024   264.6102     1.5836     1.3613     0.0199      0.060      3.576      5.188        405 1.2374e-01   997.6116 0.0000e+00
      3.673    22.5595     6.1223     70.082  25.985163     27.222      6.024   265.0267     1.5874     1.2459     0.0199      0.069      3.598      5.219        406 1.2381e-01   997.6354 0.0000e+00
      3.686    22.5331     6.0896     69.619  25.994242     27.270      6.016   264.9888     1.5836     1.4622     0.0199      0.074      3.613      5.240        407 1.2389e-01   997.6560 0.0000e+00
      3.694    22.5205     6.0902     69.588  26.063287     27.407      6.015   264.5724     1.6980     1.3613     0.0199      0.076      3.627      5.260        408 1.2369e-01   997.6749 0.0000e+00
      3.716    22.4535     6.1140     69.822  25.988122     27.333      6.017   265.0267     1.7056     1.4334     0.0199      0.079      3.648      5.291        409 1.2363e-01   997.6812 0.0000e+00
      3.750    22.3753     6.1537     70.158  25.939701     27.281      6.019   265.3295     1.6866     1.4045     0.0198      0.083      3.676      5.331        410 1.2367e-01   997.6842 0.0000e+00
      3.777    22.3325     6.2012     70.556  25.975460     27.379      6.015   265.8217     1.6980     1.3036     0.0199      0.084      3.701      5.367        411 1.2378e-01   997.6999 0.0000e+00
      3.794    22.3288     6.2561     71.043  25.943641     27.366      6.015   265.7838     1.7209     1.1161     0.0198      0.083      3.720      5.396        412 1.2380e-01   997.7181 0.0000e+00
      3.811    22.3268     6.3029     71.408  25.979324     27.449      6.014   266.0867     1.6980     1.1882     0.0199      0.082      3.739      5.423        413 1.2359e-01   997.7280 0.0000e+00
      3.833    22.2686     6.3326     71.563  25.931069     27.392      6.016   266.0488     1.7094     1.1738     0.0198      0.084      3.761      5.454        414 1.2371e-01   997.7289 0.0000e+00
      3.862    22.1535     6.3419     71.543  25.766746     27.215      6.017   266.6924     1.7018     1.1161     0.0198      0.089      3.786      5.491        415 1.2384e-01   997.7294 0.0000e+00
      3.887    22.0408     6.3272     71.307  25.650683     27.131      6.015   266.7302     1.6713     1.1450     0.0197      0.092      3.808      5.523        416 1.2368e-01   997.7429 0.0000e+00
      3.900    21.9726     6.3102     71.019  25.660860     27.198      6.012   266.9574     1.6522     1.2315     0.0197      0.089      3.821      5.543        417 1.2365e-01   997.7692 0.0000e+00
      3.903    21.9463     6.2979     70.715  25.694878     27.323      6.005   267.2224     1.6255     1.1450     0.0197      0.080      3.831      5.557        418 1.2365e-01   997.7950 0.0000e+00
      3.917    21.9146     6.2832     70.349  25.667623     27.303      6.011   266.9952     1.6408     1.1306     0.0197      0.073      3.845      5.577        419 1.2355e-01   997.8106 0.0000e+00
      3.943    21.8300     6.2630     69.950  25.635566     27.319      6.013   267.3738     1.6179     1.0873     0.0197      0.072      3.865      5.607        420 1.2377e-01   997.8167 0.0000e+00
      3.964    21.7251     6.2571     69.744  25.527455     27.187      6.014   267.6010     1.5721     1.2603     0.0196      0.070      3.886      5.637        421 1.2386e-01   997.8238 0.0000e+00
      3.982    21.6252     6.2629     69.645  25.446755     27.178      6.015   267.9795     1.5950     1.1882     0.0196      0.067      3.908      5.668        422 1.2362e-01   997.8429 0.0000e+00
      4.011    21.5042     6.2836     69.666  25.410216     27.179      6.019   268.1310     1.5836     1.1882     0.0196      0.069      3.933      5.705        423 1.2362e-01   997.8666 0.0000e+00
      4.039    21.3750     6.2999     69.674  25.336013     27.177      6.016   268.3581     1.5874     1.1161     0.0195      0.075      3.958      5.740        424 1.2376e-01   997.8892 0.0000e+00
      4.057    21.2856     6.3203     69.721  25.302189     27.187      6.016   268.5095     1.5874     1.0440     0.0195      0.083      3.977      5.768        425 1.2373e-01   997.9161 0.0000e+00
      4.070    21.2337     6.3199     69.625  25.274640     27.264      6.016   268.5474     1.5836     1.1450     0.0195      0.087      3.993      5.792        426 1.2354e-01   997.9448 0.0000e+00
      4.091    21.1637     6.2609     68.948  25.251865     27.256      6.018   268.8503     1.5950     1.1017     0.0195      0.086      4.013      5.821        427 1.2364e-01   997.9646 0.0000e+00
      4.115    21.0438     6.2152     68.379  25.212091     27.286      6.016   268.8124     1.5721     1.1161     0.0194      0.084      4.034      5.851        428 1.2374e-01   997.9760 0.0000e+00
      4.135    20.9001     6.1564     67.642  25.057598     27.116      6.019   269.4181     1.6408     1.1161     0.0194      0.083      4.053      5.879        429 1.2360e-01   997.9915 0.0000e+00
      4.148    20.7733     6.1047     66.914  24.970266     27.126      6.017   269.4181     1.6255     1.1450     0.0193      0.080      4.067      5.899        430 1.2358e-01   998.0176 0.0000e+00
      4.158    20.6714     6.0598     66.316  24.935778     27.151      6.016   269.0774     1.6446     1.2027     0.0193      0.073      4.081      5.919        431 1.2371e-01   998.0487 0.0000e+00
      4.179    20.5494     6.0313     65.903  24.893238     27.195      6.021   269.4181     1.6675     1.1161     0.0193      0.069      4.101      5.949        432 1.2374e-01   998.0760 0.0000e+00
      4.212    20.4033     6.0147     65.601  24.815924     27.165      6.019   269.8724     1.6866     1.1161     0.0192      0.073      4.129      5.988        433 1.2372e-01   998.0981 0.0000e+00
      4.240    20.2726     6.0141     65.458  24.706237     27.113      6.020   270.2131     1.6866     1.2315     0.0192      0.078      4.156      6.028        434 1.2376e-01   998.1241 0.0000e+00
      4.263    20.1475     6.0119     65.364  24.703989     27.203      6.018   269.9481     1.7209     1.1882     0.0191      0.082      4.179      6.061        435 1.2373e-01   998.1550 0.0000e+00
      4.282    20.0804     6.0038     65.226  24.700299     27.279      6.017   270.7053     1.6866     1.0585     0.0191      0.084      4.197      6.086        436 1.2371e-01   998.1826 0.0000e+00
      4.292    20.0563     5.9961     65.058  24.651640     27.295      6.018   270.8188     1.7018     1.0729     0.0191      0.085      4.208      6.102        437 1.2362e-01   998.2087 0.0000e+00
      4.297    20.0138     5.9888     64.876  24.646111     27.336      6.013   270.6674     1.8201     1.3036     0.0191      0.082      4.216      6.114        438 1.2370e-01   998.2226 0.0000e+00
      4.307    19.9397     6.0004     64.738  24.647968     27.348      6.014   270.6295     1.8124     1.3613     0.0191      0.075      4.227      6.130        439 1.2380e-01   998.2277 0.0000e+00
      4.327    19.8283     6.0062     64.509  24.560489     27.284      6.020   270.9324     1.8124     1.4045     0.0191      0.067      4.242      6.153        440 1.2377e-01   998.2365 0.0000e+00
      4.342    19.7414     6.0077     64.232  24.518054     27.263      6.017   271.0838     1.8353     1.3613     0.0190      0.058      4.257      6.174        441 1.2374e-01   998.2518 0.0000e+00
      4.353    19.6686     6.0026     63.940  24.493482     27.335      6.021   271.0838     1.6866     1.1594     0.0190      0.052      4.269      6.191        442 1.2361e-01   998.2748 0.0000e+00
      4.364    19.5737     6.0172     63.903  24.472630     27.322      6.022   271.0460     1.7171     1.2315     0.0190      0.049      4.279      6.206        443 1.2363e-01   998.2926 0.0000e+00
      4.375    19.4731     6.0396     63.959  24.484799     27.431      6.022   271.1974     1.6980     1.2459     0.0190      0.048      4.292      6.226        444 1.2372e-01   998.3075 0.0000e+00
      4.395    19.4186     6.0834     64.268  24.419131     27.363      6.028   271.5760     1.6827     1.0873     0.0189      0.051      4.310      6.251        445 1.2369e-01   998.3266 0.0000e+00
      4.415    19.3772     6.1382     64.723  24.406298     27.458      6.027   271.9545     1.7133     1.2171     0.0189      0.056      4.328      6.276        446 1.2370e-01   998.3470 0.0000e+00
      4.426    19.3198     6.2046     65.320  24.352714     27.397      6.028   271.8031     1.7171     1.0440     0.0189      0.057      4.343      6.300        447 1.2379e-01   998.3580 0.0000e+00
      4.446    19.2304     6.2852     66.095  24.337751     27.420      6.027   271.9924     1.7056     1.1450     0.0189      0.058      4.363      6.328        448 1.2375e-01   998.3664 0.0000e+00
      4.476    19.0389     6.3590     66.788  24.336085     27.460      6.027   272.2195     1.6942     1.0296     0.0189      0.064      4.387      6.363        449 1.2366e-01   998.3779 0.0000e+00
      4.498    18.8090     6.4213     67.329  24.177104     27.320      6.025   272.5981     1.8620     1.1450     0.0188      0.071      4.411      6.398        450 1.2362e-01   998.3957 0.0000e+00
      4.521    18.5900     6.4613     67.616  24.091378     27.350      6.024   272.5603     1.9002     1.1306     0.0188      0.078      4.434      6.432        451 1.2360e-01   998.4336 0.0000e+00
      4.547    18.4052     6.4642     67.524  24.028192     27.426      6.025   273.0146     1.8849     1.1450     0.0187      0.084      4.459      6.467        452 1.2373e-01   998.4785 0.0000e+00
      4.572    18.2586     6.4497     67.266  23.989261     27.503      6.026   273.5446     1.8887     1.1450     0.0187      0.088      4.483      6.502        453 1.2372e-01   998.5208 0.0000e+00
      4.595    18.1195     6.4237     66.889  23.962197     27.618      6.027   273.4688     2.0528     0.7989     0.0186      0.092      4.504      6.532        454 1.2360e-01   998.5560 0.0000e+00
      4.609    18.0028     6.3978     66.474  23.884233     27.583      6.024   273.6960     2.0451     0.8133     0.0186      0.093      4.519      6.555        455 1.2369e-01   998.5837 0.0000e+00
      4.622    17.9085     6.3760     66.044  23.908637     27.737      6.026   273.9610     2.0680     0.9719     0.0186      0.088      4.533      6.574        456 1.2375e-01   998.6098 0.0000e+00
      4.635    17.8332     6.3721     65.786  23.872639     27.747      6.028   274.6046     2.0604     0.8422     0.0186      0.081      4.544      6.591        457 1.2366e-01   998.6315 0.0000e+00
      4.643    17.7770     6.3794     65.710  23.869837     27.808      6.026   274.7938     2.0299     0.8710     0.0186      0.072      4.552      6.603        458 1.2363e-01   998.6489 0.0000e+00
      4.649    17.7173     6.4199     66.113  23.912155     27.923      6.026   274.7938     2.0757     0.9287     0.0186      0.062      4.562      6.617        459 1.2371e-01   998.6628 0.0000e+00
      4.666    17.6358     6.5151     67.036  23.879233     27.893      6.026   274.9831     2.0413     0.9719     0.0185      0.054      4.578      6.640        460 1.2354e-01   998.6732 0.0000e+00
      4.690    17.5423     6.6492     68.234  23.881212     27.965      6.028   274.9074     2.0680     0.9719     0.0186      0.051      4.599      6.671        461 1.2349e-01   998.6842 0.0000e+00
      4.713    17.4541     6.7706     69.345  23.820864     27.920      6.027   275.2103     2.0528     0.8998     0.0185      0.053      4.622      6.704        462 1.2368e-01   998.6990 0.0000e+00
      4.737    17.3780     6.8874     70.500  23.747045     27.917      6.027   275.3238     2.0184     0.8710     0.0185      0.060      4.646      6.738        463 1.2374e-01   998.7160 0.0000e+00
      4.763    17.3013     6.9898     71.551  23.706559     27.909      6.027   275.6267     1.9803     0.8998     0.0184      0.068      4.672      6.776        464 1.2369e-01   998.7319 0.0000e+00
      4.794    17.1948     7.0942     72.474  23.693578     27.959      6.028   276.4217     1.9994     0.9719     0.0184      0.080      4.701      6.819        465 1.2367e-01   998.7456 0.0000e+00
      4.826    17.0495     7.1823     73.164  23.496679     27.778      6.025   276.3838     2.0070     0.8998     0.0183      0.092      4.731      6.863        466 1.2372e-01   998.7593 0.0000e+00
      4.855    16.8908     7.2406     73.529  23.300066     27.583      6.024   276.9896     2.1405     1.0585     0.0182      0.102      4.759      6.903        467 1.2369e-01   998.7782 0.0000e+00
      4.878    16.7836     7.2689     73.622  23.257123     27.680      6.023   276.8003     2.1291     0.8998     0.0182      0.106      4.779      6.932        468 1.2373e-01   998.8038 0.0000e+00
      4.885    16.7690     7.2902     73.654  23.254006     27.718      6.018   277.1410     2.1253     0.9287     0.0182      0.103      4.790      6.948        469 1.2374e-01   998.8314 0.0000e+00
      4.890    16.7261     7.2940     73.481  23.303992     27.925      6.017   277.0274     2.1481     0.9431     0.0182      0.094      4.802      6.964        470 1.2382e-01   998.8499 0.0000e+00
      4.915    16.6057     7.2855     73.167  23.165332     27.698      6.020   277.7467     2.2397     0.8566     0.0181      0.087      4.822      6.994        471 1.2376e-01   998.8523 0.0000e+00
      4.946    16.5091     7.2628     72.743  23.011960     27.591      6.023   277.7467     2.2321     1.0296     0.0180      0.082      4.849      7.033        472 1.2370e-01   998.8597 0.0000e+00
      4.971    16.4861     7.2413     72.401  22.991412     27.608      6.025   277.7089     2.2664     0.8566     0.0180      0.078      4.874      7.069        473 1.2384e-01   998.8804 0.0000e+00
      4.994    16.4789     7.2238     72.184  23.013240     27.737      6.026   278.1253     2.2321     0.9287     0.0180      0.077      4.896      7.101        474 1.2375e-01   998.8968 0.0000e+00
      5.014    16.3916     7.2093     71.965  22.984822     27.688      6.028   278.2389     2.2473     0.8133     0.0180      0.079      4.916      7.130        475 1.2372e-01   998.9008 0.0000e+00
      5.030    16.2513     7.2088     71.845  22.908328     27.620      6.029   278.2767     2.2550     0.8133     0.0180      0.082      4.933      7.156        476 1.2357e-01   998.9021 0.0000e+00
      5.048    16.1082     7.2189     71.827  22.871523     27.615      6.029   278.5039     2.2626     0.9143     0.0179      0.086      4.952      7.184        477 1.2355e-01   998.9167 0.0000e+00
      5.072    15.9812     7.2249     71.768  22.852959     27.706      6.030   278.1253     2.2511     1.0440     0.0179      0.088      4.975      7.216        478 1.2373e-01   998.9402 0.0000e+00
      5.099    15.8650     7.2372     71.762  22.813010     27.738      6.029   278.3524     2.2321     0.9864     0.0179      0.085      5.003      7.255        479 1.2369e-01   998.9638 0.0000e+00
      5.133    15.7288     7.2559     71.799  22.802822     27.822      6.031   279.0339     2.5830     1.2027     0.0179      0.086      5.033      7.300        480 1.2370e-01   998.9846 0.0000e+00
      5.166    15.5848     7.2591     71.655  22.747218     27.833      6.029   279.1853     2.6135     1.1594     0.0178      0.092      5.063      7.344        481 1.2374e-01   999.0035 0.0000e+00
      5.191    15.4577     7.2682     71.573  22.674941     27.823      6.027   279.2989     2.6174     1.1882     0.0178      0.098      5.088      7.379        482 1.2377e-01   999.0254 0.0000e+00
      5.208    15.3790     7.2733     71.478  22.626274     27.889      6.026   278.9581     2.6250     1.0585     0.0177      0.101      5.108      7.408        483 1.2379e-01   999.0483 0.0000e+00
      5.227    15.3480     7.2854     71.448  22.570906     27.872      6.027   279.1474     2.7051     1.3324     0.0177      0.103      5.126      7.435        484 1.2375e-01   999.0684 0.0000e+00
      5.247    15.3020     7.3014     71.439  22.595809     27.997      6.026   279.1474     2.6708     1.3324     0.0177      0.100      5.144      7.461        485 1.2375e-01   999.0807 0.0000e+00
      5.262    15.2269     7.3094     71.337  22.565693     27.947      6.025   279.2231     2.6898     1.3613     0.0177      0.094      5.160      7.484        486 1.2375e-01   999.0856 0.0000e+00
      5.276    15.1506     7.3209     71.310  22.549169     27.980      6.028   279.5260     2.6708     1.3324     0.0177      0.085      5.175      7.505        487 1.2365e-01   999.0928 0.0000e+00
      5.293    15.0737     7.3142     71.186  22.497929     27.963      6.030   279.5260     2.3122     1.3613     0.0176      0.075      5.191      7.529        488 1.2372e-01   999.1044 0.0000e+00
      5.311    14.9911     7.3168     71.163  22.451793     27.947      6.030   279.8289     2.3084     1.3324     0.0176      0.069      5.211      7.558        489 1.2374e-01   999.1162 0.0000e+00
      5.338    14.8948     7.3304     71.195  22.458533     28.035      6.031   279.7153     2.3198     1.4478     0.0176      0.069      5.239      7.598        490 1.2358e-01   999.1280 0.0000e+00
      5.379    14.7822     7.3343     71.178  22.400720     27.988      6.029   280.3210     2.3122     1.3613     0.0175      0.077      5.273      7.648        491 1.2360e-01   999.1406 0.0000e+00
      5.414    14.6730     7.3298     71.137  22.375692     28.055      6.026   280.6239     2.3694     1.3036     0.0175      0.087      5.306      7.695        492 1.2362e-01   999.1552 0.0000e+00
      5.438    14.5783     7.3330     71.167  22.341636     28.065      6.023   281.0024     2.3580     1.3613     0.0175      0.096      5.333      7.735        493 1.2368e-01   999.1721 0.0000e+00
      5.463    14.4832     7.3327     71.128  22.265448     28.072      6.022   281.0781     2.3961     1.3613     0.0175      0.105      5.359      7.773        494 1.2379e-01   999.1883 0.0000e+00
      5.494    14.3758     7.3314     71.133  22.292853     28.139      6.022   281.4567     2.3999     1.3757     0.0174      0.112      5.389      7.815        495 1.2370e-01   999.2023 0.0000e+00
      5.528    14.2615     7.3416     71.229  22.307563     28.278      6.019   281.6460     2.4190     1.8948     0.0175      0.117      5.419      7.860        496 1.2378e-01   999.2164 0.0000e+00
      5.557    14.1726     7.3573     71.299  22.247171     28.213      6.018   281.7596     2.4610     1.7939     0.0174      0.120      5.447      7.900        497 1.2381e-01   999.2320 0.0000e+00
      5.579    14.1348     7.3691     71.277  22.338426     28.473      6.017   282.1003     2.4266     1.9092     0.0175      0.116      5.470      7.933        498 1.2371e-01   999.2484 0.0000e+00
      5.597    14.1009     7.3782     71.198  22.342106     28.502      6.017   281.9867     2.4381     1.8515     0.0174      0.109      5.488      7.960        499 1.2375e-01   999.2611 0.0000e+00
      5.615    14.0407     7.3712     70.949  22.272233     28.459      6.020   281.6839     2.4114     1.7506     0.0174      0.103      5.503      7.981        500 1.2380e-01   999.2665 0.0000e+00
      5.621    14.0037     7.3596     70.621  22.277322     28.481      6.018   281.9110     2.3503     2.0390     0.0174      0.095      5.512      7.994        501 1.2371e-01   999.2713 0.0000e+00
      5.623    14.0063     7.3452     70.263  22.276554     28.528      6.021   281.8731     2.3618     2.0246     0.0174      0.081      5.519      8.004        502 1.2365e-01   999.2797 0.0000e+00
      5.640    14.0025     7.3409     70.032  22.273204     28.554      6.023   282.1760     2.3694     2.1111     0.0174      0.068      5.533      8.024        503 1.2387e-01   999.2849 0.0000e+00
      5.662    13.9839     7.3591     70.036  22.281503     28.553      6.022   282.3653     2.3885     2.0102     0.0174      0.059      5.549      8.049        504 1.2382e-01   999.2846 0.0000e+00
      5.672    13.9920     7.4179     70.470  22.266227     28.553      6.026   282.4031     2.3618     2.1976     0.0174      0.052      5.564      8.069        505 1.2363e-01   999.2852 0.0000e+00
      5.687    13.9903     7.5045     71.301  22.232986     28.498      6.026   282.2896     2.3732     2.2409     0.0174      0.050      5.580      8.092        506 1.2360e-01   999.2878 0.0000e+00
      5.712    13.9380     7.6191     72.340  22.322876     28.633      6.027   282.2517     2.3732     2.3274     0.0174      0.053      5.600      8.122        507 1.2364e-01   999.2868 0.0000e+00
      5.732    13.8512     7.7214     73.168  22.272820     28.563      6.026   282.4410     2.3808     2.2986     0.0174      0.059      5.620      8.151        508 1.2377e-01   999.2872 0.0000e+00
      5.747    13.7460     7.7860     73.674  22.147209     28.422      6.030   282.8953     2.3961     2.4716     0.0173      0.065      5.638      8.178        509 1.2375e-01   999.2945 0.0000e+00
      5.770    13.6287     7.8159     73.881  22.123837     28.486      6.029   282.4789     2.3541     2.5725     0.0173      0.071      5.660      8.211        510 1.2375e-01   999.3065 0.0000e+00
      5.800    13.4919     7.7951     73.648  21.976174     28.348      6.029   282.8574     2.3961     2.5293     0.0172      0.076      5.689      8.253        511 1.2374e-01   999.3210 0.0000e+00
      5.836    13.3507     7.7087     72.734  21.916405     28.361      6.024   283.1982     2.3847     2.5293     0.0171      0.084      5.722      8.299        512 1.2370e-01   999.3370 0.0000e+00
      5.867    13.2303     7.5572     71.154  21.931725     28.499      6.023   283.1982     2.3046     2.6302     0.0171      0.094      5.753      8.343        513 1.2356e-01   999.3555 0.0000e+00
      5.895    13.1192     7.3511     69.078  21.868305     28.494      6.021   283.6146     2.2855     2.6735     0.0171      0.102      5.779      8.380        514 1.2356e-01   999.3741 0.0000e+00
      5.915    13.0447     7.1217     66.847  21.906528     28.658      6.021   283.6903     2.3351     2.6158     0.0171      0.105      5.796      8.406        515 1.2375e-01   999.3900 0.0000e+00
      5.918    13.0436     6.8546     64.310  21.913809     28.740      6.019   283.9174     2.3122     2.6879     0.0171      0.102      5.803      8.418        516 1.2368e-01   999.4044 0.0000e+00
      5.920    13.0133     6.6063     61.902  21.918504     28.800      6.019   284.1824     2.8119     2.7888     0.0171      0.093      5.811      8.429        517 1.2373e-01   999.4138 0.0000e+00
      5.942    12.9293     6.3812     59.676  21.900705     28.796      6.021   284.2582     2.8195     2.8898     0.0171      0.082      5.828      8.453        518 1.2377e-01   999.4141 0.0000e+00
      5.967    12.8618     6.1917     57.801  21.935968     28.820      6.021   284.2960     2.8005     3.0051     0.0171      0.073      5.848      8.482        519 1.2363e-01   999.4181 0.0000e+00
      5.980    12.8194     6.0197     56.137  22.081932     29.144      6.022   284.1067     2.8119     2.8177     0.0172      0.064      5.863      8.505        520 1.2373e-01   999.4288 0.0000e+00
      5.991    12.7934     5.8091     54.131  22.044834     29.083      6.020   284.3339     2.7967     2.8753     0.0171      0.058      5.877      8.524        521 1.2383e-01   999.4373 0.0000e+00
      6.009    12.7351     5.5192     51.357  22.070999     29.192      6.022   284.5610     2.8615     3.1205     0.0172      0.056      5.895      8.549        522 1.2377e-01   999.4427 0.0000e+00
      6.031    12.6417     5.0882     47.268  22.138228     29.282      6.025   284.5610     2.8272     3.1061     0.0172      0.060      5.915      8.579        523 1.2370e-01   999.4461 0.0000e+00
      6.054    12.5549     4.6182     42.833  22.079639     29.255      6.025   284.4853     2.8539     3.1205     0.0171      0.068      5.937      8.611        524 1.2380e-01   999.4534 0.0000e+00
      6.077    12.5057     4.0434     37.450  22.025472     29.253      6.025   284.3717     2.8615     3.1205     0.0171      0.073      5.959      8.642        525 1.2381e-01   999.4649 0.0000e+00
      6.097    12.4818     3.3240     30.765  21.968747     29.247      6.025   284.4096     2.7814     3.3800     0.0171      0.074      5.979      8.672        526 1.2365e-01   999.4756 0.0000e+00
      6.119    12.4271     2.5035     23.149  22.031799     29.361      6.023   284.5232     2.8043     3.4810     0.0171      0.077      6.002      8.706        527 1.2365e-01   999.4817 0.0000e+00
      6.149    12.3414     1.6711     15.433  22.332012     29.787      6.026   285.0532     2.7890     3.4377     0.0173      0.084      6.028      8.742        528 1.2370e-01   999.4848 0.0000e+00
      6.172    12.2632     0.8690      8.015  22.661281     30.279      6.021   284.9774     2.7890     3.3368     0.0174      0.089      6.048      8.771        529 1.2374e-01   999.4916 0.0000e+00
      6.179    12.2171     0.1464      1.349  22.747416     30.460      6.023   285.4317     3.2086     3.5387     0.0175      0.087      6.059      8.787        530 1.2366e-01   999.5019 0.0000e+00
      6.185    12.1809    -0.3908     -3.597  22.609839     30.338      6.023   285.2046     3.2086     3.5098     0.0174      0.081      6.069      8.802        531 1.2363e-01   999.5111 0.0000e+00
      6.204    12.1194    -0.7721     -7.105  23.010211     30.862      6.021   285.4317     3.2392     3.6540     0.0176      0.074      6.085      8.826        532 1.2375e-01   999.5168 0.0000e+00
      6.227    12.0469    -0.9962     -9.170  23.759601     32.017      6.022   285.2803     3.2354     3.6108     0.0181      0.071      6.106      8.856        533 1.2374e-01   999.5215 0.0000e+00
      6.247    11.9754    -1.0572     -9.733  23.898478     32.146      6.023   285.4696     3.3345     3.7982     0.0181      0.069      6.126      8.886        534 1.2379e-01   999.5288 0.0000e+00
      6.268    11.9171    -1.0150     -9.345  23.962832     32.360      6.021   285.6967     3.3536     3.7694     0.0182      0.067      6.147      8.916        535 1.2374e-01   999.5373 0.0000e+00
      6.290    11.8832    -0.9034     -8.316  24.034944     32.498      6.022   286.0374     3.3689     3.7550     0.0182      0.067      6.170      8.949        536 1.2367e-01   999.5455 0.0000e+00
      6.316    11.8425    -0.7709     -7.093  23.986464     32.475      6.024   286.3782     3.3536     3.7838     0.0181      0.073      6.196      8.986        537 1.2375e-01   999.5523 0.0000e+00
      6.346    11.7874    -0.6301     -5.789  24.023184     32.579      6.024   286.6053     5.4136     3.7694     0.0182      0.083      6.226      9.030        538 1.2370e-01   999.5563 0.0000e+00
      6.383    11.7332    -0.4951     -4.545  24.107730     32.691      6.017   287.3624     5.4250     3.7117     0.0182      0.094      6.262      9.082        539 1.2372e-01   999.5611 0.0000e+00
      6.428    11.6822    -0.3703     -3.395  24.325527     33.082      6.011   287.6653     5.4327     3.8126     0.0183      0.105      6.299      9.135        540 1.2374e-01   999.5676 0.0000e+00
      6.457    11.6435    -0.2577     -2.360  24.285276     33.054      6.005   288.2710     5.4517     3.8126     0.0183      0.114      6.325      9.175        541 1.2362e-01   999.5737 0.0000e+00
      6.466    11.6346    -0.1651     -1.509  24.276309     33.062      6.001   287.5517     5.4327     3.7261     0.0183      0.117      6.337      9.192        542 1.2361e-01   999.5794 0.0000e+00
      6.465    11.6463    -0.0912     -0.832  24.425557     33.364      5.998   287.1353    19.9821     4.8653     0.0184      0.110      6.340      9.196        543 1.2370e-01   999.5838 0.0000e+00
      6.464    11.6553    -0.0313     -0.284  24.306877     33.144      5.996   286.2646    20.0050     4.8941     0.0183      0.095      6.342      9.198        544 1.2372e-01   999.5846 0.0000e+00
      6.471    11.6526     0.0170      0.155  24.335153     33.208      5.997   285.0532    20.0012     4.9951     0.0183      0.077      6.348      9.208        545 1.2383e-01   999.5834 0.0000e+00
      6.486    11.6479     0.0557      0.505  24.331129     33.201      5.997   283.9174    20.0165     4.9230     0.0183      0.059      6.363      9.228        546 1.2376e-01   999.5824 0.0000e+00
      6.508    11.6232     0.0788      0.713  24.430354     33.278      5.999   283.2360    28.6874     4.9230     0.0184      0.046      6.383      9.257        547 1.2366e-01   999.5829 0.0000e+00
      6.532    11.5692     0.1025      0.926  24.952129     34.085      6.000   282.7060    28.6531     4.9085     0.0187      0.040      6.406      9.292        548 1.2377e-01   999.5838 0.0000e+00
      6.558    11.5245     0.1257      1.135  25.014623     34.141      5.998   281.7596    28.6760     4.9518     0.0187      0.046      6.431      9.328        549 1.2361e-01   999.5867 0.0000e+00
      6.584    11.4763     0.1367      1.232  24.885723     34.007      5.998   281.6839    28.6760     4.8797     0.0186      0.060      6.456      9.365        550 1.2358e-01   999.5926 0.0000e+00
      6.609    11.4149     0.1525      1.373  24.845990     34.043      5.996   281.2296    20.1080     5.6728     0.0186      0.076      6.484      9.405        551 1.2372e-01   999.5975 0.0000e+00
      6.645    11.3391     0.1672      1.504  25.182563     34.436      5.995   280.7753    20.1309     5.5142     0.0188      0.091      6.517      9.452        552 1.2365e-01   999.6031 0.0000e+00
      6.683    11.2358     0.1758      1.580  27.191947     37.328      5.992   279.9424    20.0966     5.6007     0.0200      0.103      6.551      9.501        553 1.2382e-01   999.6107 0.0000e+00
      6.712    11.1251     0.1824      1.638  29.839707     41.095      5.988   278.5039    20.1156     5.7016     0.0216      0.112      6.578      9.541        554 1.2381e-01   999.6201 0.0000e+00
      6.728    11.0403     0.1899      1.704  30.833827     42.597      5.986   276.4596    11.8910     5.9468     0.0222      0.113      6.597      9.567        555 1.2362e-01   999.6315 0.0000e+00
      6.740    10.9773     0.1844      1.653  30.961500     42.769      5.981   273.6581    11.8300     6.0621     0.0222      0.109      6.611      9.587        556 1.2381e-01   999.6432 0.0000e+00
      6.755    10.9152     0.1921      1.722  31.577019     43.875      5.981   269.4181    11.8643     6.1919     0.0226      0.102      6.626      9.610        557 1.2388e-01   999.6523 0.0000e+00
      6.773    10.8585     0.1912      1.713  32.527034     45.116      5.981   265.7460    11.8529     5.9756     0.0231      0.093      6.644      9.637        558 1.2380e-01   999.6592 0.0000e+00
      6.799    10.8018     0.1910      1.712  33.779263     47.099      5.981   257.9474     9.6594     6.3794     0.0240      0.086      6.668      9.672        559 1.2364e-01   999.6662 0.0000e+00
      6.829    10.7361     0.1979      1.772  34.315135     47.836      5.982   251.2466     9.6785     6.3361     0.0243      0.081      6.694      9.709        560 1.2368e-01   999.6723 0.0000e+00
      6.851    10.6770     0.1963      1.755  34.378859     47.989      5.983   247.1202     9.6327     6.2640     0.0243      0.078      6.716      9.740        561 1.2379e-01   999.6781 0.0000e+00
      6.865    10.6371     0.1927      1.722  34.826030     48.742      5.976   244.3188     9.6556     6.2784     0.0246      0.079      6.733      9.765        562 1.2376e-01   999.6849 0.0000e+00
      6.879    10.6040     0.1934      1.726  35.003262     49.058      5.972   240.6845     9.6632     6.2928     0.0247      0.080      6.750      9.791        563 1.2361e-01   999.6907 0.0000e+00
      6.906    10.5665     0.1970      1.756  34.958422     49.034      5.971   235.5737     6.0201     6.6677     0.0247      0.083      6.775      9.826        564 1.2355e-01   999.6947 0.0000e+00
      6.940    10.5220     0.1893      1.685  35.000387     49.158      5.965   232.2801     6.0278     6.5524     0.0247      0.087      6.804      9.868        565 1.2381e-01   999.6981 0.0000e+00
      6.968    10.4955     0.1922      1.709  35.277027     49.563      5.961   229.6680     6.0316     6.5091     0.0249      0.091      6.831      9.906        566 1.2372e-01   999.7020 0.0000e+00
      6.988    10.4806     0.1915      1.701  35.325381     49.782      5.953   227.3587     6.0239     6.5668     0.0250      0.091      6.851      9.935        567 1.2366e-01   999.7064 0.0000e+00
      7.000    10.4709     0.1857      1.648  35.325474     49.664      5.945   224.4058     4.3836     6.5524     0.0249      0.089      6.866      9.957        568 1.2367e-01   999.7090 0.0000e+00
      7.015    10.4707     0.1896      1.682  35.276926     49.838      5.942   213.8437     4.3912     6.5235     0.0250      0.088      6.882      9.981        569 1.2377e-01   999.7105 0.0000e+00
      7.039    10.4340     0.1865      1.654  35.504342     49.858      5.937   206.6129     4.3645     6.5091     0.0250      0.088      6.902     10.010        570 1.2383e-01   999.7116 0.0000e+00
      7.057    10.3876     0.1805      1.601  36.050047     51.031      5.934   202.2972     4.3950     6.4947     0.0255      0.085      6.922     10.040        571 1.2367e-01   999.7120 0.0000e+00
      7.079    10.3552     0.1732      1.536  36.761169     51.603      5.933   198.3601     3.7694     6.0621     0.0257      0.079      6.945     10.074        572 1.2380e-01   999.7159 0.0000e+00
      7.112    10.3109     0.1761      1.560  38.323939     54.390      5.927   194.0443     3.7465     6.0765     0.0269      0.079      6.973     10.113        573 1.2371e-01   999.7211 0.0000e+00
      7.139    10.2613     0.1724      1.526  39.173250     55.231      5.924   190.9022     3.7770     6.1054     0.0273      0.082      6.999     10.151        574 1.2359e-01   999.7246 0.0000e+00
      7.160    10.2118     0.1677      1.484  39.112633     55.537      5.920   187.8736     3.7694     6.1342     0.0274      0.088      7.022     10.184        575 1.2358e-01   999.7289 0.0000e+00
      7.182    10.1589     0.1586      1.403  38.843988     54.943      5.915   185.4507     3.9563     4.9230     0.0271      0.093      7.043     10.215        576 1.2367e-01   999.7334 0.0000e+00
      7.205    10.1070     0.1606      1.420  39.329766     55.892      5.908   183.4064     3.9487     4.9518     0.0275      0.095      7.066     10.248        577 1.2380e-01   999.7384 0.0000e+00
      7.229    10.0656     0.1689      1.493  41.620452     59.075      5.906   181.5893     3.9602     4.9951     0.0289      0.095      7.089     10.281        578 1.2372e-01   999.7444 0.0000e+00
      7.251    10.0434     0.1618      1.429  45.093827     64.295      5.901   179.7721     3.9411     4.9806     0.0312      0.095      7.109     10.310        579 1.2379e-01   999.7508 0.0000e+00
      7.266    10.0381     0.1635      1.443  47.458609     67.717      5.897   178.3714     3.7694     3.7405     0.0327      0.091      7.125     10.334        580 1.2363e-01   999.7559 0.0000e+00
      7.279    10.0381     0.1610      1.421  47.483153     67.761      5.893   176.9707     3.7885     3.7838     0.0327      0.084      7.140     10.355        581 1.2354e-01   999.7580 0.0000e+00
      7.297    10.0328     0.1647      1.453  46.605084     66.494      5.892   174.8507     3.7809     3.7982     0.0321      0.079      7.156     10.379        582 1.2375e-01   999.7581 0.0000e+00
      7.315    10.0043     0.1606      1.416  45.853104     65.419      5.890   172.3521     3.7770     3.8126     0.0316      0.075      7.172     10.402        583 1.2370e-01   999.7577 0.0000e+00
      7.328     9.9687     0.1564      1.378  46.165518     65.825      5.886   170.3078     3.7770     3.8415     0.0318      0.070      7.182     10.418        584 1.2375e-01   999.7584 0.0000e+00
      7.329     9.9563     0.1523      1.342  46.453494     66.479      5.883   169.0207     3.7236     3.3224     0.0321      0.062      7.187     10.424        585 1.2376e-01   999.7611 0.0000e+00
      7.329     9.9475     0.1541      1.357  46.562147     66.387      5.881   166.9385     3.6969     3.3368     0.0320      0.052      7.191     10.430        586 1.2355e-01   999.7643 0.0000e+00
      7.341     9.9184     0.1513      1.332  47.572187     68.209      5.878   164.4021     3.7198     3.3656     0.0328      0.044      7.203     10.447        587 1.2359e-01   999.7660 0.0000e+00
      7.366     9.8850     0.1470      1.293  47.983781     68.544      5.876   162.9257     3.7046     3.2935     0.0330      0.043      7.223     10.477        588 1.2368e-01   999.7671 0.0000e+00
      7.389     9.8603     0.1479      1.300  48.362799     69.283      5.875   161.7899     3.5215     3.4233     0.0333      0.046      7.244     10.508        589 1.2365e-01   999.7700 0.0000e+00
      7.407     9.8410     0.1458      1.281  49.739711     71.232      5.869   160.5028     3.5176     3.3224     0.0341      0.049      7.264     10.536        590 1.2368e-01   999.7736 0.0000e+00
      7.425     9.8325     0.1535      1.348  50.837100     73.006      5.865   159.1021     3.5253     3.2791     0.0349      0.055      7.284     10.564        591 1.2365e-01   999.7765 0.0000e+00
      7.451     9.8200     0.1447      1.271  51.801408     74.210      5.865   156.6792     3.5100     3.3368     0.0355      0.064      7.307     10.597        592 1.2364e-01   999.7788 0.0000e+00
      7.477     9.7945     0.1447      1.271  53.640875     77.077      5.860   155.2406     3.7046     4.1443     0.0367      0.076      7.330     10.631        593 1.2361e-01   999.7806 0.0000e+00
      7.496     9.7732     0.1457      1.279  54.806176     78.707      5.855   153.3478     3.7160     4.2452     0.0375      0.084      7.350     10.661        594 1.2360e-01   999.7823 0.0000e+00
      7.512     9.7622     0.1417      1.244  54.711387     78.608      5.853   151.7199     3.7046     4.1875     0.0374      0.084      7.368     10.686        595 1.2375e-01   999.7845 0.0000e+00
      7.531     9.7537     0.1436      1.260  54.263100     78.050      5.852   147.5935     3.6893     4.1443     0.0371      0.082      7.388     10.716        596 1.2368e-01   999.7861 0.0000e+00
      7.559     9.7276     0.1369      1.200  55.097116     79.084      5.848   143.6185     3.7122     3.5675     0.0376      0.083      7.413     10.752        597 1.2367e-01   999.7876 0.0000e+00
      7.587     9.6907     0.1447      1.268  57.203524     82.476      5.843   141.0442     3.6817     3.5531     0.0391      0.086      7.438     10.788        598 1.2370e-01   999.7896 0.0000e+00
      7.606     9.6581     0.1401      1.227  57.366993     82.542      5.841   138.9242     3.7351     3.6396     0.0391      0.087      7.459     10.818        599 1.2357e-01   999.7920 0.0000e+00
      7.626     9.6358     0.1346      1.178  57.326220     82.548      5.836   136.8420     3.7236     3.5963     0.0391      0.086      7.479     10.847        600 1.2370e-01   999.7952 0.0000e+00
      7.647     9.6329     0.1397      1.222  58.737677     84.804      5.833   134.6842     3.4833     3.3800     0.0401      0.086      7.497     10.874        601 1.2372e-01   999.7988 0.0000e+00
      7.662     9.6364     0.1363      1.192  59.407981     85.748      5.830   132.4127     3.4681     3.2503     0.0405      0.085      7.512     10.896        602 1.2374e-01   999.8010 0.0000e+00
      7.674     9.6272     0.1377      1.203  59.785266     86.279      5.830   130.6334     3.4528     3.2935     0.0408      0.082      7.526     10.916        603 1.2382e-01   999.8016 0.0000e+00
      7.687     9.6073     0.1331      1.163  60.374726     87.197      5.830   128.7406     3.4757     3.3656     0.0412      0.076      7.540     10.937        604 1.2372e-01   999.8017 0.0000e+00
      7.706     9.5963     0.1296      1.132  60.246943     86.978      5.825   125.1441     3.5787     2.9186     0.0411      0.069      7.558     10.963        605 1.2376e-01   999.8025 0.0000e+00
      7.729     9.5818     0.1289      1.126  59.825610     86.424      5.823   122.9863     3.5939     2.8753     0.0408      0.067      7.580     10.994        606 1.2377e-01   999.8040 0.0000e+00
      7.753     9.5475     0.1320      1.153  59.712255     86.289      5.822   120.8663     3.5825     2.9474     0.0408      0.068      7.601     11.025        607 1.2370e-01   999.8050 0.0000e+00
      7.772     9.5158     0.1309      1.143  59.764943     86.403      5.820   119.2005     3.5825     2.8753     0.0408      0.070      7.620     11.052        608 1.2374e-01   999.8063 0.0000e+00
      7.786     9.4939     0.1276      1.114  59.819395     86.574      5.819   116.7777     3.5978     2.8177     0.0409      0.071      7.636     11.075        609 1.2364e-01   999.8092 0.0000e+00
      7.803     9.4732     0.1276      1.113  60.030227     86.935      5.820   115.6420     2.7394     2.8753     0.0410      0.073      7.651     11.097        610 1.2382e-01   999.8121 0.0000e+00
      7.816     9.4552     0.1280      1.116  60.036659     87.072      5.815   114.4684     2.7471     2.8898     0.0411      0.073      7.666     11.118        611 1.2384e-01   999.8140 0.0000e+00
      7.832     9.4384     0.1239      1.080  59.870753     86.759      5.817   112.2348     2.7127     2.8609     0.0409      0.071      7.686     11.146        612 1.2361e-01   999.8156 0.0000e+00
      7.864     9.4190     0.1263      1.101  60.444413     87.738      5.813   110.4177     2.7280     2.8898     0.0414      0.072      7.711     11.183        613 1.2358e-01   999.8176 0.0000e+00
      7.892     9.4003     0.1258      1.096  61.132708     88.754      5.813   108.8655     2.1825     2.8898     0.0418      0.074      7.734     11.217        614 1.2356e-01   999.8194 0.0000e+00
      7.902     9.3897     0.1233      1.074  61.180213     88.886      5.811   107.7676     2.1748     2.9907     0.0419      0.075      7.747     11.236        615 1.2376e-01   999.8210 0.0000e+00
      7.906     9.3875     0.1234      1.075  61.156778     88.854      5.809   107.2755     2.1748     2.8177     0.0418      0.073      7.754     11.246        616 1.2379e-01   999.8226 0.0000e+00
      7.913     9.3873     0.1287      1.121  61.250904     89.084      5.810   105.9505     2.1901     2.9042     0.0419      0.069      7.763     11.259        617 1.2357e-01   999.8235 0.0000e+00
      7.928     9.3779     0.1245      1.084  61.419151     89.252      5.808   103.6033     1.6370     2.5725     0.0420      0.064      7.778     11.281        618 1.2363e-01   999.8238 0.0000e+00
      7.954     9.3551     0.1204      1.048  61.748563     89.821      5.809   101.6726     1.6293     2.6735     0.0423      0.062      7.800     11.313        619 1.2386e-01   999.8241 0.0000e+00
      7.980     9.3303     0.1192      1.038  61.998206     90.131      5.807   101.0669     1.6446     2.6014     0.0424      0.061      7.821     11.344        620 1.2362e-01   999.8251 0.0000e+00
      7.992     9.3146     0.1182      1.029  61.998680     90.272      5.810   100.1205     1.6560     2.6014     0.0424      0.059      7.836     11.365        621 1.2351e-01   999.8271 0.0000e+00
      7.999     9.3041     0.1194      1.038  62.015051     90.257      5.808    99.1741     1.9956     3.0628     0.0424      0.058      7.848     11.382        622 1.2391e-01   999.8291 0.0000e+00
      8.017     9.2924     0.1139      0.990  62.037198     90.461      5.810    97.0162     2.0032     2.9330     0.0425      0.062      7.865     11.408        623 1.2381e-01   999.8305 0.0000e+00
      8.047     9.2795     0.1147      0.996  62.742654     91.303      5.808    95.6533     2.0070     2.9042     0.0429      0.069      7.888     11.442        624 1.2351e-01   999.8318 0.0000e+00
      8.068     9.2696     0.1177      1.022  63.689156     93.047      5.807    94.5933     1.9917     2.9186     0.0437      0.074      7.907     11.469        625 1.2375e-01   999.8333 0.0000e+00
      8.074     9.2655     0.1113      0.966  63.500375     92.470      5.806    93.2305     2.0528     2.9186     0.0434      0.071      7.917     11.483        626 1.2375e-01   999.8343 0.0000e+00
      8.077     9.2634     0.1164      1.010  63.333684     92.497      5.805    91.4890     2.0909     3.0051     0.0434      0.064      7.923     11.491        627 1.2360e-01   999.8350 0.0000e+00
      8.086     9.2608     0.1159      1.005  63.837255     93.038      5.807    89.8612     2.0680     2.9474     0.0437      0.058      7.933     11.505        628 1.2377e-01   999.8356 0.0000e+00
      8.103     9.2601     0.1197      1.038  64.209121     93.820      5.810    88.2712     2.0680     2.8753     0.0440      0.056      7.951     11.532        629 1.2390e-01   999.8361 0.0000e+00
      8.134     9.2563     0.1171      1.015  64.770203     94.357      5.809    86.8326     2.0451     2.8753     0.0442      0.058      7.984     11.579        630 1.2374e-01   999.8367 0.0000e+00
      8.186     9.2394     0.1166      1.010  66.373899     96.972      5.807    85.8483     1.8926     2.8321     0.0454      0.067      8.029     11.645        631 1.2369e-01   999.8379 0.0000e+00
      8.240     9.2122     0.1216      1.053  67.288454     98.206      5.805    85.1290     1.8620     2.8753     0.0460      0.083      8.074     11.712        632 1.2388e-01   999.8389 0.0000e+00
      8.274     9.1867     0.1155      1.001  66.985850     97.805      5.802    84.5612     1.8773     2.9042     0.0458      0.104      8.109     11.762        633 1.2388e-01   999.8401 0.0000e+00
      8.294     9.1668     0.1252      1.085  66.869214     97.720      5.802    83.8797     1.8887     2.9330     0.0457      0.122      8.134     11.798        634 1.2378e-01   999.8423 0.0000e+00
      8.318     9.1475     0.1156      1.002  66.632247     97.466      5.802    83.1604     1.5263     3.1349     0.0456      0.133      8.157     11.832        635 1.2369e-01   999.8443 0.0000e+00
      8.343     9.1287     0.1245      1.079  66.271641     96.950      5.799    82.5926     1.5263     3.1205     0.0454      0.136      8.179     11.862        636 1.2362e-01   999.8459 0.0000e+00
      8.357     9.1156     0.1104      0.956  66.130797     96.840      5.800    81.7597     1.5035     3.0051     0.0453      0.128      8.194     11.884        637 1.2366e-01   999.8473 0.0000e+00
      8.366     9.1076     0.1151      0.997  66.095227     96.813      5.799    80.5861     1.4844     3.1349     0.0453      0.111      8.204     11.898        638 1.2372e-01   999.8488 0.0000e+00
      8.373     9.0999     0.1107      0.959  66.108168     96.891      5.801    78.6933     1.2784     3.0916     0.0453      0.088      8.213     11.912        639 1.2372e-01   999.8498 0.0000e+00
      8.386     9.0892     0.1075      0.931  66.025665     96.790      5.804    77.4061     1.2784     3.0772     0.0453      0.070      8.226     11.931        640 1.2374e-01   999.8505 0.0000e+00
      8.406     9.0754     0.1143      0.989  65.604323     96.197      5.807    76.5733     1.2784     3.1349     0.0450      0.062      8.244     11.957        641 1.2367e-01   999.8509 0.0000e+00
      8.427     9.0626     0.1046      0.904  65.386008     95.858      5.806    76.1947     1.2708     3.1493     0.0448      0.059      8.264     11.986        642 1.2361e-01   999.8517 0.0000e+00
      8.446     9.0597     0.1064      0.920  65.466355     96.102      5.807    75.8161     1.2593     3.2935     0.0449      0.058      8.284     12.015        643 1.2358e-01   999.8529 0.0000e+00
      8.469     9.0673     0.1109      0.959  65.652738     96.302      5.808    75.0211     1.2631     3.2647     0.0450      0.061      8.308     12.050        644 1.2362e-01   999.8542 0.0000e+00
      8.501     9.0696     0.1169      1.010  65.777323     96.640      5.809    74.3018     1.2822     3.4089     0.0452      0.070      8.336     12.091        645 1.2360e-01   999.8545 0.0000e+00
      8.533     9.0552     0.1089      0.941  65.489389     96.042      5.809    73.7340     1.2669     3.3224     0.0449      0.082      8.363     12.131        646 1.2370e-01   999.8539 0.0000e+00
      8.552     9.0443     0.1139      0.984  65.328452     95.912      5.811    73.3175     1.2212     2.9907     0.0449      0.091      8.382     12.157        647 1.2382e-01   999.8537 0.0000e+00
      8.557     9.0465     0.1111      0.959  65.384032     95.953      5.810    72.7497     1.1983     3.0484     0.0449      0.090      8.393     12.173        648 1.2369e-01   999.8549 0.0000e+00
      8.568     9.0430     0.1059      0.914  65.479587     96.193      5.812    71.2354     1.1868     3.1205     0.0450      0.086      8.405     12.191        649 1.2362e-01   999.8559 0.0000e+00
      8.590     9.0288     0.1169      1.009  65.179867     95.729      5.813    70.4404     1.1945     3.0772     0.0448      0.081      8.425     12.220        650 1.2366e-01   999.8557 0.0000e+00
      8.618     9.0018     0.1141      0.984  64.629263     94.880      5.813    69.8347     1.2173     2.8177     0.0444      0.079      8.450     12.255        651 1.2370e-01   999.8558 0.0000e+00
      8.640     8.9732     0.1118      0.964  64.324782     94.546      5.815    69.3047     1.2059     2.8177     0.0442      0.076      8.470     12.284        652 1.2361e-01   999.8568 0.0000e+00
      8.651     8.9568     0.1074      0.926  64.223318     94.378      5.817    68.8882     1.2135     2.9042     0.0441      0.071      8.482     12.303        653 1.2366e-01   999.8588 0.0000e+00
      8.658     8.9495     0.1033      0.891  64.340078     94.745      5.817    67.8282     1.2097     2.8177     0.0443      0.067      8.492     12.316        654 1.2369e-01   999.8611 0.0000e+00
      8.669     8.9436     0.1046      0.901  64.387239     94.750      5.817    67.1847     1.2250     2.8898     0.0443      0.065      8.503     12.333        655 1.2370e-01   999.8624 0.0000e+00
      8.685     8.9320     0.1031      0.889  64.431735     94.934      5.818    66.2004     1.2021     2.8609     0.0444      0.065      8.518     12.355        656 1.2370e-01   999.8631 0.0000e+00
      8.704     8.9179     0.1026      0.884  64.195681     94.539      5.822    65.5568     1.2250     2.8465     0.0442      0.062      8.536     12.380        657 1.2371e-01   999.8634 0.0000e+00
      8.722     8.9053     0.1052      0.907  64.176504     94.529      5.822    65.3675     1.2097     2.8321     0.0442      0.058      8.555     12.407        658 1.2379e-01   999.8644 0.0000e+00
      8.743     8.8976     0.1125      0.969  64.307225     94.858      5.824    64.5725     1.1906     2.8032     0.0443      0.057      8.575     12.438        659 1.2373e-01   999.8656 0.0000e+00
      8.769     8.8927     0.1076      0.927  64.092367     94.439      5.823    64.5347     1.4386     3.1493     0.0441      0.062      8.600     12.474        660 1.2369e-01   999.8665 0.0000e+00
      8.798     8.8819     0.1038      0.894  64.117456     94.627      5.828    63.8532     1.4272     3.1493     0.0442      0.072      8.625     12.510        661 1.2378e-01   999.8673 0.0000e+00
      8.820     8.8693     0.1070      0.922  64.157301     94.597      5.826    64.1182     1.4767     3.1061     0.0442      0.081      8.646     12.541        662 1.2379e-01   999.8677 0.0000e+00
      8.833     8.8603     0.1098      0.946  64.161495     94.712      5.828    63.4747     1.4615     3.1493     0.0442      0.085      8.665     12.567        663 1.2366e-01   999.8686 0.0000e+00
      8.853     8.8525     0.1084      0.933  64.260631     94.829      5.829    61.9982     1.3356     2.9474     0.0443      0.086      8.687     12.600        664 1.2372e-01   999.8697 0.0000e+00
      8.890     8.8449     0.1085      0.934  64.568125     95.350      5.827    61.4682     1.3051     2.8321     0.0445      0.090      8.717     12.644        665 1.2371e-01   999.8707 0.0000e+00
      8.924     8.8376     0.1036      0.892  65.381418     96.528      5.829    61.0897     1.3318     2.8753     0.0450      0.095      8.746     12.685        666 1.2368e-01   999.8719 0.0000e+00
      8.941     8.8320     0.0973      0.837  65.860177     97.376      5.829    60.4461     1.3165     2.9186     0.0454      0.097      8.766     12.713        667 1.2369e-01   999.8728 0.0000e+00
      8.951     8.8282     0.1063      0.915  65.723352     97.025      5.831    60.2947     1.5988     3.1061     0.0452      0.093      8.778     12.732        668 1.2365e-01   999.8733 0.0000e+00
      8.962     8.8247     0.1041      0.895  65.967204     97.537      5.831    59.8025     1.5988     3.2214     0.0455      0.088      8.791     12.751        669 1.2371e-01   999.8739 0.0000e+00
      8.981     8.8201     0.1046      0.899  66.269018     97.920      5.835    59.3482     1.5607     3.0628     0.0456      0.083      8.809     12.776        670 1.2365e-01   999.8744 0.0000e+00
      9.004     8.8143     0.0911      0.784  66.505258     98.302      5.836    58.5532     1.5645     3.0772     0.0458      0.081      8.832     12.809        671 1.2378e-01   999.8749 0.0000e+00
      9.032     8.8072     0.1044      0.898  66.860414     98.853      5.835    58.0989     1.0457     3.2503     0.0461      0.078      8.857     12.847        672 1.2377e-01   999.8755 0.0000e+00
      9.060     8.8003     0.1018      0.876  66.984573     99.036      5.836    57.3039     1.0304     3.3800     0.0461      0.076      8.884     12.886        673 1.2374e-01   999.8761 0.0000e+00
      9.085     8.7941     0.1071      0.921  67.033405     99.140      5.837    56.5468     1.0381     3.4089     0.0462      0.079      8.909     12.923        674 1.2377e-01   999.8768 0.0000e+00
      9.110     8.7871     0.1014      0.872  67.155821     99.325      5.836    56.4711     1.0419     3.4666     0.0463      0.087      8.934     12.959        675 1.2360e-01   999.8775 0.0000e+00
      9.136     8.7794     0.0954      0.820  67.277452     99.550      5.836    55.9032     1.0304     2.8898     0.0464      0.095      8.961     12.997        676 1.2357e-01   999.8781 0.0000e+00
      9.168     8.7710     0.1024      0.880  67.416306     99.737      5.837    55.5625     1.0037     2.8177     0.0465      0.102      8.990     13.038        677 1.2371e-01   999.8789 0.0000e+00
      9.197     8.7619     0.1116      0.959  67.695382    100.215      5.838    55.6004     1.0190     2.9186     0.0467      0.106      9.017     13.077        678 1.2383e-01   999.8797 0.0000e+00
      9.218     8.7539     0.1137      0.976  67.820606    100.405      5.839    55.1839     1.0381     2.8465     0.0467      0.106      9.039     13.109        679 1.2373e-01   999.8805 0.0000e+00
      9.236     8.7475     0.1019      0.875  67.854113    100.474      5.839    54.8432     1.0495     3.1926     0.0468      0.103      9.056     13.135        680 1.2378e-01   999.8812 0.0000e+00
      9.251     8.7423     0.0983      0.844  67.920830    100.622      5.838    55.1461     1.0342     3.2214     0.0468      0.098      9.071     13.156        681 1.2370e-01   999.8819 0.0000e+00
      9.261     8.7383     0.1044      0.896  68.004726    100.724      5.840    54.5404     1.0190     3.1349     0.0469      0.090      9.083     13.173        682 1.2363e-01   999.8825 0.0000e+00
      9.274     8.7343     0.1053      0.904  68.076220    100.905      5.841    54.0861     1.0457     2.9907     0.0470      0.080      9.098     13.195        683 1.2375e-01   999.8829 0.0000e+00
      9.297     8.7285     0.1029      0.884  68.069322    100.834      5.844    53.4046     1.0342     3.0340     0.0469      0.073      9.119     13.226        684 1.2372e-01   999.8834 0.0000e+00
      9.327     8.7208     0.1011      0.867  68.221092    101.137      5.842    52.4961     1.2631     2.9763     0.0471      0.070      9.146     13.265        685 1.2368e-01   999.8839 0.0000e+00
      9.356     8.7129     0.0949      0.815  68.421638    101.403      5.841    52.3825     1.2593     2.9474     0.0472      0.072      9.173     13.305        686 1.2370e-01   999.8845 0.0000e+00
      9.380     8.7065     0.0963      0.826  68.532141    101.633      5.842    51.6253     1.2669     2.9763     0.0473      0.078      9.198     13.341        687 1.2374e-01   999.8852 0.0000e+00
      9.403     8.7013     0.1026      0.880  68.617874    101.740      5.844    51.0575     1.2631     2.9186     0.0473      0.085      9.220     13.373        688 1.2370e-01   999.8860 0.0000e+00
      9.421     8.6968     0.0953      0.818  68.700834    101.925      5.844    50.4139     1.0991     2.8753     0.0474      0.090      9.239     13.401        689 1.2364e-01   999.8866 0.0000e+00
      9.440     8.6927     0.0900      0.772  68.844473    102.107      5.844    49.7703     1.0915     2.8465     0.0475      0.093      9.259     13.430        690 1.2367e-01   999.8871 0.0000e+00
      9.466     8.6874     0.0903      0.774  69.003110    102.411      5.843    49.6946     1.0609     3.0195     0.0476      0.094      9.284     13.466        691 1.2376e-01   999.8876 0.0000e+00
      9.496     8.6804     0.0874      0.749  69.037724    102.424      5.848    49.0132     1.0915     2.8898     0.0476      0.093      9.312     13.506        692 1.2372e-01   999.8880 0.0000e+00
      9.524     8.6733     0.0986      0.845  69.127924    102.605      5.845    49.0132     1.1487     2.8177     0.0477      0.093      9.339     13.546        693 1.2369e-01   999.8886 0.0000e+00
      9.551     8.6672     0.0976      0.836  69.306441    102.877      5.847    48.1046     1.1601     2.8898     0.0478      0.094      9.363     13.580        694 1.2367e-01   999.8894 0.0000e+00
      9.570     8.6629     0.0977      0.837  69.409254    103.064      5.847    47.7260     1.1449     2.8032     0.0479      0.096      9.381     13.605        695 1.2362e-01   999.8900 0.0000e+00
      9.577     8.6625     0.1049      0.898  69.356193    103.000      5.848    47.5368     1.1601     2.9042     0.0479      0.093      9.391     13.620        696 1.2368e-01   999.8904 0.0000e+00
      9.582     8.6628     0.1105      0.945  69.313112    102.930      5.847    46.6660     1.3280     2.9186     0.0478      0.086      9.397     13.629        697 1.2369e-01   999.8907 0.0000e+00
      9.588     8.6634     0.1142      0.977  69.344133    103.014      5.850    45.8710     1.3356     2.9330     0.0479      0.075      9.406     13.642        698 1.2368e-01   999.8908 0.0000e+00
      9.604     8.6603     0.1019      0.872  69.376956    103.013      5.852    45.0382     1.3547     2.8898     0.0479      0.063      9.421     13.665        699 1.2356e-01   999.8909 0.0000e+00
      9.630     8.6477     0.1079      0.922  69.925329    103.843      5.852    44.7732     1.3394     2.8177     0.0483      0.056      9.446     13.701        700 1.2355e-01   999.8913 0.0000e+00
      9.664     8.6321     0.1043      0.891  70.620916    104.931      5.851    44.0160     1.1563     3.0772     0.0487      0.057      9.476     13.742        701 1.2373e-01   999.8920 0.0000e+00
      9.691     8.6170     0.0992      0.848  70.945536    105.388      5.855    43.4860     1.1525     3.1061     0.0489      0.064      9.503     13.782        702 1.2365e-01   999.8932 0.0000e+00
      9.714     8.6021     0.0962      0.822  71.450971    106.225      5.852    42.9939     1.1678     3.1061     0.0493      0.074      9.528     13.817        703 1.2350e-01   999.8947 0.0000e+00
      9.741     8.5843     0.0886      0.758  72.307543    107.523      5.854    42.1989     1.1754     3.1349     0.0499      0.086      9.553     13.855        704 1.2362e-01   999.8963 0.0000e+00
      9.769     8.5633     0.0885      0.756  74.065682    110.151      5.852    41.9339     1.2898     3.5531     0.0511      0.097      9.578     13.892        705 1.2369e-01   999.8984 0.0000e+00
      9.792     8.5443     0.0863      0.737  75.854314    113.042      5.853    41.5932     1.2631     3.4954     0.0524      0.104      9.602     13.927        706 1.2354e-01   999.9008 0.0000e+00
      9.814     8.5293     0.0960      0.820  77.267195    114.947      5.854    40.8360     1.2479     3.5242     0.0533      0.104      9.626     13.961        707 1.2368e-01   999.9031 0.0000e+00
      9.840     8.5188     0.0895      0.764  79.493647    118.600      5.854    40.4575     1.2708     3.4666     0.0549      0.101      9.651     13.998        708 1.2374e-01   999.9057 0.0000e+00
      9.869     8.5078     0.0926      0.790  81.398968    121.325      5.854    40.2682     1.2708     3.5675     0.0562      0.099      9.678     14.038        709 1.2371e-01   999.9080 0.0000e+00
      9.899     8.4933     0.0942      0.804  82.469577    123.074      5.853    39.8896     1.1754     3.3656     0.0570      0.101      9.707     14.078        710 1.2381e-01   999.9094 0.0000e+00
      9.925     8.4803     0.1004      0.857  82.557193    123.197      5.852    39.5867     1.1678     3.4089     0.0570      0.103      9.732     14.115        711 1.2380e-01   999.9103 0.0000e+00
      9.947     8.4760     0.1006      0.859  83.012729    123.795      5.851    39.7760     1.1449     3.3224     0.0573      0.102      9.755     14.148        712 1.2370e-01   999.9117 0.0000e+00
      9.969     8.4776     0.0971      0.829  86.091249    128.567      5.851    39.2460     1.1525     3.3800     0.0594      0.101      9.776     14.180        713 1.2357e-01   999.9144 0.0000e+00
      9.992     8.4737     0.0996      0.850  88.410733    132.223      5.850    39.4353     1.0876     3.2791     0.0611      0.100      9.801     14.215        714 1.2361e-01   999.9160 0.0000e+00
     10.021     8.4638     0.0968      0.826  89.306386    133.134      5.850    39.2082     1.0419     3.2503     0.0615      0.100      9.829     14.256        715 1.2358e-01   999.9165 0.0000e+00
     10.055     8.4559     0.1010      0.862  91.513491    136.873      5.850    39.2082     1.0800     3.3656     0.0633      0.101      9.858     14.298        716 1.2369e-01   999.9182 0.0000e+00
     10.080     8.4511     0.0998      0.851  92.706600    138.461      5.848    39.2082     1.0876     3.4233     0.0640      0.101      9.883     14.334        717 1.2385e-01   999.9196 0.0000e+00
     10.097     8.4459     0.0988      0.844  92.665374    138.495      5.849    39.1703     1.0991     3.4521     0.0640      0.100      9.904     14.365        718 1.2390e-01   999.9202 0.0000e+00
     10.122     8.4396     0.0948      0.809  92.664367    138.514      5.846    38.6024     1.1182     3.3800     0.0640      0.100      9.929     14.400        719 1.2389e-01   999.9208 0.0000e+00
     10.154     8.4363     0.0957      0.817  92.529550    138.285      5.847    37.7317     1.0953     3.2503     0.0639      0.102      9.955     14.438        720 1.2371e-01   999.9211 0.0000e+00
     10.175     8.4371     0.0973      0.831  92.714285    138.646      5.842    37.5046     1.0915     3.3224     0.0641      0.102      9.976     14.469        721 1.2369e-01   999.9217 0.0000e+00
     10.190     8.4374     0.0937      0.799  92.909975    138.912      5.839    37.6939     1.0266     3.2791     0.0642      0.098      9.995     14.497        722 1.2376e-01   999.9222 0.0000e+00
     10.213     8.4368     0.0939      0.802  93.355905    139.577      5.843    37.3153     1.0037     3.3800     0.0645      0.093     10.017     14.528        723 1.2375e-01   999.9224 0.0000e+00
     10.241     8.4341     0.0934      0.797  94.477479    141.252      5.842    36.3689     1.0457     3.3945     0.0653      0.090     10.042     14.564        724 1.2368e-01   999.9232 0.0000e+00
     10.266     8.4282     0.0942      0.804  95.288714    142.551      5.840    35.6496     1.0457     3.3079     0.0659      0.091     10.065     14.597        725 1.2369e-01   999.9238 0.0000e+00
     10.283     8.4225     0.0853      0.729  95.734585    143.067      5.841    35.3089     1.1029     3.3800     0.0661      0.091     10.081     14.620        726 1.2378e-01   999.9242 0.0000e+00
     10.288     8.4206     0.0881      0.753  95.557332    143.091      5.839    34.9682     1.1258     3.3656     0.0661      0.084     10.089     14.633        727 1.2357e-01   999.9246 0.0000e+00
     10.293     8.4198     0.0868      0.742  95.301255    142.321      5.842    33.5296     1.0915     3.3512     0.0657      0.074     10.098     14.647        728 1.2362e-01   999.9249 0.0000e+00
     10.312     8.4182     0.0861      0.736  96.588325    144.675      5.840    32.0910     1.0953     3.2647     0.0668      0.068     10.115     14.672        729 1.2375e-01   999.9258 0.0000e+00
     10.340     8.4189     0.0933      0.797  97.998081    146.480      5.843    31.0689     1.3051     2.9474     0.0677      0.067     10.140     14.707        730 1.2361e-01   999.9268 0.0000e+00
     10.368     8.4217     0.0926      0.791  97.886640    146.655      5.841    30.2739     1.3203     3.1349     0.0677      0.067     10.166     14.745        731 1.2357e-01   999.9269 0.0000e+00
     10.392     8.4241     0.0919      0.785  97.916028    146.191      5.842    29.2896     1.3547     3.1349     0.0675      0.068     10.191     14.781        732 1.2362e-01   999.9270 0.0000e+00
     10.416     8.4238     0.0897      0.767 101.558748    152.004      5.840    28.4946     1.3394     3.1782     0.0702      0.074     10.213     14.813        733 1.2377e-01   999.9290 0.0000e+00
     10.435     8.4258     0.0900      0.769 104.918547    157.107      5.842    27.6238     1.2021     3.9857     0.0726      0.082     10.233     14.842        734 1.2371e-01   999.9307 0.0000e+00
     10.452     8.4361     0.0878      0.750 108.096157    161.300      5.842    26.2610     1.2402     4.0578     0.0745      0.088     10.251     14.868        735 1.2363e-01   999.9325 0.0000e+00
     10.472     8.4506     0.0910      0.777 112.622861    168.966      5.843    24.9738     1.1983     4.0145     0.0781      0.090     10.269     14.893        736 1.2362e-01   999.9350 0.0000e+00
     10.489     8.4655     0.0914      0.780 113.264532    169.079      5.844    24.5195     1.1983     4.0289     0.0781      0.086     10.284     14.915        737 1.2368e-01   999.9347 0.0000e+00
     10.497     8.4794     0.0919      0.785 114.525821    171.185      5.840    24.1031     1.1906     3.9712     0.0791      0.078     10.294     14.930        738 1.2367e-01   999.9345 0.0000e+00
     10.505     8.4847     0.0963      0.823 115.842981    173.328      5.844    23.4595     1.3318     4.5769     0.0801      0.068     10.302     14.942        739 1.2365e-01   999.9342 0.0000e+00
     10.515     8.4825     0.0930      0.794 115.909454    172.671      5.845    22.2481     1.3089     4.5913     0.0798      0.060     10.312     14.955        740 1.2376e-01   999.9333 0.0000e+00
     10.524     8.4809     0.0944      0.806 118.221790    176.912      5.844    21.3774     1.3470     4.4327     0.0818      0.052     10.320     14.968        741 1.2368e-01   999.9343 0.0000e+00
     10.531     8.4818     0.0939      0.802 120.106533    179.022      5.844    21.1881     1.3242     4.4615     0.0828      0.046     10.327     14.978        742 1.2366e-01   999.9355 0.0000e+00
     10.537     8.4799     0.0920      0.786 124.157907    185.476      5.845    21.2260     1.2212     4.0289     0.0858      0.039     10.334     14.989        743 1.2367e-01   999.9379 0.0000e+00
     10.546     8.4628     0.0860      0.734 129.014087    192.764      5.846    20.7338     1.1983     4.0145     0.0892      0.034     10.343     15.001        744 1.2387e-01   999.9406 0.0000e+00
     10.557     8.4398     0.0859      0.734 145.744118    216.325      5.846    19.4845     1.2173     3.9424     0.1002      0.033     10.353     15.015        745 1.2380e-01   999.9500 0.0000e+00
     10.566     8.4297     0.0855      0.731 167.961091    253.002      5.848    18.3488     1.2440     3.9136     0.1175      0.033     10.360     15.027        746 1.2349e-01   999.9637 0.0000e+00
     10.570     8.4290 -9.990e-29 -9.990e-29 166.965567    248.850      5.844    17.6295     1.2173     4.2308     0.1155      0.032     10.365     15.034        747 1.2373e-01   999.9647 0.0000e+00
     10.574     8.4307 -9.990e-29 -9.990e-29 159.886753    239.173      5.846    17.3645     1.2021     4.2741     0.1109      0.030     10.369     15.038        748 1.2375e-01   999.9614 0.0000e+00
     10.575     8.4360 -9.990e-29 -9.990e-29 157.922875    236.445      5.846    16.8724     1.2021     4.2741     0.1097      0.027     10.371     15.041        749 1.2363e-01   999.9604 0.0000e+00
     10.576     8.4432 -9.990e-29 -9.990e-29 149.761820    223.956      5.847    15.8881     1.2250     4.2020     0.1038      0.024     10.372     15.043        750 1.2366e-01   999.9557 0.0000e+00
     10.577     8.4504 -9.990e-29 -9.990e-29 140.089798    209.393      5.850    14.9795     1.2936     3.7550     0.0969      0.019     10.373     15.045        751 1.2356e-01   999.9500 0.0000e+00
     10.579     8.4531 -9.990e-29 -9.990e-29 134.233701    200.535      5.850    13.7681     1.2669     3.7550     0.0928      0.014     10.374     15.047        752 1.2373e-01   999.9462 0.0000e+00
     10.579     8.4538 -9.990e-29 -9.990e-29 135.958653    202.926      5.853    12.7838     1.2402     3.7550     0.0939      0.010     10.375     15.048        753 1.2363e-01   999.9467 0.0000e+00
     10.580     8.4602 -9.990e-29 -9.990e-29 139.610810    209.199      5.853    12.2159     1.2555     3.7261     0.0969      0.006     10.376     15.049        754 1.2351e-01   999.9486 0.0000e+00
     10.583     8.4718 -9.990e-29 -9.990e-29 138.623735    206.768      5.853    11.1559     1.1334     3.1061     0.0957      0.005     10.378     15.051        755 1.2371e-01   999.9480 0.0000e+00
     10.584     8.4789 -9.990e-29 -9.990e-29 134.178840    201.060      5.858    10.0959     1.1258     3.0916     0.0931      0.005     10.379     15.053        756 1.2382e-01   999.9450 0.0000e+00
     10.586 -9.990e-29 -9.990e-29 -9.990e-29 129.924378    193.326      5.858     9.0738     1.1525     3.0484     0.0894      0.005     10.381     15.055        757 1.2379e-01   999.9419 0.0000e+00
     10.586 -9.990e-29 -9.990e-29 -9.990e-29 128.820926    193.025      5.858     8.5059     1.1449     3.2214     0.0893      0.005     10.381     15.056        758 1.2368e-01   999.9408 0.0000e+00
