* Sea-Bird SBE19plus  Data File:
* FileName = C:\DATA\071519_fcr_0003.hex
* Software version 2.8.0.119 SB_Terminal.dll
* Temperature SN = 7809
* Conductivity SN = 7809
* System UpLoad Time = Jul 15 2019 16:38:05
* <ApplicationData>
* <Seaterm232>
* <SoftwareVersion>2.8.0.119</SoftwareVersion>
* <BuildDate>07-Nov-2018</BuildDate>
* </Seaterm232>
* </ApplicationData>
* cast   3 15 Jul 2019 11:06:12 samples 1538 to 1873, avg = 1, stop = mag switch
# nquan = 16
# nvalues = 283                         
# units = specified
# name 0 = depFM: Depth [fresh water, m]
# name 1 = dz/dtM: Descent Rate [m/s]
# name 2 = sbeox0Mg/L: Oxygen, SBE 43 [mg/l]
# name 3 = sbeox0PS: Oxygen, SBE 43 [% saturation]
# name 4 = specc: Specific Conductance [uS/cm]
# name 5 = c0uS/cm: Conductivity [uS/cm]
# name 6 = flECO-AFL: Fluorescence, WET Labs ECO-AFL/FL [mg/m^3]
# name 7 = ph: pH
# name 8 = orp: Oxidation Reduction Potential [mV]
# name 9 = par/sat/log: PAR/Logarithmic, Satlantic
# name 10 = turbWETntu0: Turbidity, WET Labs ECO [NTU]
# name 11 = prdM: Pressure, Strain Gauge [db]
# name 12 = prdE: Pressure, Strain Gauge [psi]
# name 13 = tv290C: Temperature [ITS-90, deg C]
# name 14 = density00: Density [density, kg/m^3]
# name 15 = flag:  0.000e+00
# span 0 =     -0.542,      3.168       
# span 1 =     -0.069,      0.308       
# span 2 =    -0.8124,    13.9467       
# span 3 =     -8.747,    160.530       
# span 4 =      1.195,    209.904       
# span 5 =   1.277796, 178.297927       
# span 6 =    -0.1202,    10.9851       
# span 7 =      6.396,      8.392       
# span 8 =    33.1951,   935.6885       
# span 9 = 2.9552e+01, 2.4613e+03       
# span 10 =    -1.3953,    13.1212      
# span 11 =     -0.533,      3.107      
# span 12 =     -0.773,      4.507      
# span 13 =    17.2823,    28.4840      
# span 14 =   996.1040,   998.8161      
# span 15 = 0.0000e+00, 0.0000e+00      
# interval = seconds: 0.25
# start_time = Jul 15 2019 11:06:12 [Instrument's time stamp, header]
# bad_flag = -9.990e-29
# <Sensors count="9" >
#   <sensor Channel="1" >
#     <!-- Count, Temperature -->
#     <TemperatureSensor SensorID="58" >
#       <SerialNumber>7809</SerialNumber>
#       <CalibrationDate>24-Mar-19</CalibrationDate>
#       <A0>1.21792325e-003</A0>
#       <A1>2.81669265e-004</A1>
#       <A2>-1.60333336e-006</A2>
#       <A3>1.98414625e-007</A3>
#       <Slope>1.00000000</Slope>
#       <Offset>0.0000</Offset>
#     </TemperatureSensor>
#   </sensor>
#   <sensor Channel="2" >
#     <!-- Frequency 0, Conductivity -->
#     <ConductivitySensor SensorID="3" >
#       <SerialNumber>7809</SerialNumber>
#       <CalibrationDate>24-Mar-19</CalibrationDate>
#       <UseG_J>1</UseG_J>
#       <!-- Cell const and series R are applicable only for wide range sensors. -->
#       <SeriesR>0.0000</SeriesR>
#       <CellConst>2000.0000</CellConst>
#       <ConductivityType>0</ConductivityType>
#       <Coefficients equation="0" >
#         <A>0.00000000e+000</A>
#         <B>0.00000000e+000</B>
#         <C>0.00000000e+000</C>
#         <D>0.00000000e+000</D>
#         <M>0.0</M>
#         <CPcor>-9.57000000e-008</CPcor>
#       </Coefficients>
#       <Coefficients equation="1" >
#         <G>-1.00589325e+000</G>
#         <H>1.26816302e-001</H>
#         <I>-1.51560448e-004</I>
#         <J>2.67137274e-005</J>
#         <CPcor>-9.57000000e-008</CPcor>
#         <CTcor>3.2500e-006</CTcor>
#         <!-- WBOTC not applicable unless ConductivityType = 1. -->
#         <WBOTC>0.00000000e+000</WBOTC>
#       </Coefficients>
#       <Slope>1.00000000</Slope>
#       <Offset>0.00000</Offset>
#     </ConductivitySensor>
#   </sensor>
#   <sensor Channel="3" >
#     <!-- Count, Pressure, Strain Gauge -->
#     <PressureSensor SensorID="46" >
#       <SerialNumber>7809</SerialNumber>
#       <CalibrationDate>11-Mar-19</CalibrationDate>
#       <PA0>4.56561833e-002</PA0>
#       <PA1>4.85095118e-004</PA1>
#       <PA2>-2.88327090e-012</PA2>
#       <PTEMPA0>-5.48784562e+001</PTEMPA0>
#       <PTEMPA1>5.53756816e+001</PTEMPA1>
#       <PTEMPA2>-5.86727098e-001</PTEMPA2>
#       <PTCA0>5.25246745e+005</PTCA0>
#       <PTCA1>1.22304214e+001</PTCA1>
#       <PTCA2>-3.56745036e-001</PTCA2>
#       <PTCB0>2.51668750e+001</PTCB0>
#       <PTCB1>3.75000000e-004</PTCB1>
#       <PTCB2>0.00000000e+000</PTCB2>
#       <Offset>0.000000</Offset>
#     </PressureSensor>
#   </sensor>
#   <sensor Channel="4" >
#     <!-- A/D voltage 0, Oxygen, SBE 43 -->
#     <OxygenSensor SensorID="38" >
#       <SerialNumber>0434</SerialNumber>
#       <CalibrationDate>13-Apr-19</CalibrationDate>
#       <Use2007Equation>1</Use2007Equation>
#       <CalibrationCoefficients equation="0" >
#         <!-- Coefficients for Owens-Millard equation. -->
#         <Boc>0.0000</Boc>
#         <Soc>0.0000e+000</Soc>
#         <offset>0.0000</offset>
#         <Pcor>0.00e+000</Pcor>
#         <Tcor>0.0000</Tcor>
#         <Tau>0.0</Tau>
#       </CalibrationCoefficients>
#       <CalibrationCoefficients equation="1" >
#         <!-- Coefficients for Sea-Bird equation - SBE calibration in 2007 and later. -->
#         <Soc>4.2007e-001</Soc>
#         <offset>-0.6109</offset>
#         <A>-4.3656e-003</A>
#         <B> 1.7017e-004</B>
#         <C>-2.5341e-006</C>
#         <D0> 2.5826e+000</D0>
#         <D1> 1.92634e-004</D1>
#         <D2>-4.64803e-002</D2>
#         <E> 3.6000e-002</E>
#         <Tau20> 1.1800</Tau20>
#         <H1>-3.3000e-002</H1>
#         <H2> 5.0000e+003</H2>
#         <H3> 1.4500e+003</H3>
#       </CalibrationCoefficients>
#     </OxygenSensor>
#   </sensor>
#   <sensor Channel="5" >
#     <!-- A/D voltage 1, PAR/Logarithmic, Satlantic -->
#     <PARLog_SatlanticSensor SensorID="76" >
#       <SerialNumber>1122</SerialNumber>
#       <CalibrationDate>08-May-2019</CalibrationDate>
#       <a0>9.7456e-001</a0>
#       <a1>8.1640e-001</a1>
#       <Im>1.3589e+000</Im>
#       <Multiplier>1.0000e+000</Multiplier>
#     </PARLog_SatlanticSensor>
#   </sensor>
#   <sensor Channel="6" >
#     <!-- A/D voltage 2, pH -->
#     <pH_Sensor SensorID="43" >
#       <SerialNumber>0363</SerialNumber>
#       <CalibrationDate>15-Apr-19</CalibrationDate>
#       <Slope>4.5952</Slope>
#       <Offset>2.5370</Offset>
#     </pH_Sensor>
#   </sensor>
#   <sensor Channel="7" >
#     <!-- A/D voltage 3, Oxidation Reduction Potential -->
#     <OxidationReductionPotentialSensor SensorID="41" >
#       <SerialNumber>0363</SerialNumber>
#       <CalibrationDate>15-Apr-19</CalibrationDate>
#       <B>2.499480</B>
#       <M>-0.496195</M>
#       <Offset>0.0</Offset>
#     </OxidationReductionPotentialSensor>
#   </sensor>
#   <sensor Channel="8" >
#     <!-- A/D voltage 4, Fluorometer, WET Labs ECO-AFL/FL -->
#     <FluoroWetlabECO_AFL_FL_Sensor SensorID="20" >
#       <SerialNumber>FLNTURT-2496</SerialNumber>
#       <CalibrationDate>08-May-2019</CalibrationDate>
#       <ScaleFactor>5.00000000e+001</ScaleFactor>
#       <!-- Dark output -->
#       <Vblank>0.0550</Vblank>
#     </FluoroWetlabECO_AFL_FL_Sensor>
#   </sensor>
#   <sensor Channel="9" >
#     <!-- A/D voltage 5, Turbidity Meter, WET Labs, ECO-NTU -->
#     <TurbidityMeter SensorID="67" >
#       <SerialNumber>FLNTURT-2496</SerialNumber>
#       <CalibrationDate>08-May-2019</CalibrationDate>
#       <ScaleFactor>189.000000</ScaleFactor>
#       <!-- Dark output -->
#       <DarkVoltage>0.071000</DarkVoltage>
#     </TurbidityMeter>
#   </sensor>
# </Sensors>
# datcnv_date = Jul 15 2019 16:42:06, 7.26.7.129 [datcnv_vars = 15]
# datcnv_in = C:\DATA\071519_fcr20.hex C:\DATA\SBE19plusV2_7809.xmlcon
# datcnv_skipover = 0
# datcnv_ox_hysteresis_correction = yes
# datcnv_ox_tau_correction = yes
# filter_date = Jul 15 2019 16:42:28, 7.26.7.129
# filter_in = C:\DATA\071519_fcr20.cnv
# filter_low_pass_tc_A = 0.030
# filter_low_pass_tc_B = 0.150
# filter_low_pass_A_vars = prdM prdE tv290C density00
# filter_low_pass_B_vars = depFM dz/dtM sbeox0Mg/L sbeox0PS specc c0uS/cm flECO-AFL ph orp par/sat/log turbWETntu0
# alignctd_date = Jul 15 2019 16:42:44, 7.26.7.129
# alignctd_in = C:\DATA\071519_fcr20.cnv
# alignctd_adv = dz/dtM 1.000, sbeox0Mg/L 1.000, sbeox0PS 1.000, specc 1.000, c0uS/cm 1.000, flECO-AFL 1.000, ph 1.000, orp 1.000, turbWETntu0 1.000                                                                                 
# file_type = ascii
*END*
     -0.542 1.1458e-08     7.4556     96.068      1.216   1.300976    -0.0980      6.756   218.9230 1.6762e+03    -0.4994     -0.531     -0.770    28.4840   996.1040 0.0000e+00
     -0.541 1.2604e-07     7.4556     96.067      1.195   1.277796    -0.0922      6.758   192.9009 1.6382e+03    -0.4591     -0.531     -0.770    28.4837   996.1041 0.0000e+00
     -0.541      0.000     7.4551     96.060      1.226   1.311972    -0.1044      6.762   171.1960 1.6134e+03    -0.4172     -0.531     -0.770    28.4832   996.1043 0.0000e+00
     -0.541      0.000     7.4548     96.054      1.366   1.460749    -0.1157      6.768   150.2519 1.6219e+03    -0.2880     -0.531     -0.771    28.4830   996.1043 0.0000e+00
     -0.541      0.000     7.4542     96.045      1.632   1.746072    -0.1074      6.773   130.3308 1.6365e+03    -0.1425     -0.531     -0.770    28.4825   996.1046 0.0000e+00
     -0.541      0.002     7.4544     96.046      2.971   3.177774    -0.1004      6.772   131.7497 1.7637e+03    -0.0673     -0.531     -0.770    28.4819   996.1047 0.0000e+00
     -0.542      0.010     7.4562     96.058      8.072   8.632479    -0.1087      6.804   188.6590 2.0628e+03    -0.0671     -0.531     -0.771    28.4817   996.1048 0.0000e+00
     -0.542      0.028     7.4597     96.066     15.836  16.926621    -0.1202      6.934   480.1090 2.3107e+03    -0.4024     -0.531     -0.771    28.4808   996.1049 0.0000e+00
     -0.541      0.051     7.4650     96.070     23.801  25.422572    -0.1182      7.142   935.6885 2.4085e+03    -1.0408     -0.531     -0.771    28.4804   996.1052 0.0000e+00
     -0.534      0.072     7.4704     96.075     31.355  33.470693    -0.1027      7.379   931.1457 2.2580e+03    -1.3953     -0.533     -0.773    28.4794   996.1052 0.0000e+00
     -0.507      0.090     7.4744     96.081     35.170  37.526421    -0.0801      7.613   472.2452 1.8427e+03    -1.3121     -0.507     -0.735    28.4790   996.1066 0.0000e+00
     -0.463      0.106     7.4778     96.088     35.664  38.038942     0.1816      7.813   198.9939 1.3972e+03     0.0630     -0.448     -0.650    28.4581   996.1153 0.0000e+00
     -0.425      0.123     7.4828     96.112     35.839  38.207570     0.6860      7.981   164.9290 1.1336e+03     2.5808     -0.411     -0.597    28.4080   996.1315 0.0000e+00
     -0.402      0.142     7.4929     96.193     35.941  38.295732     0.9716      8.122   154.9268 1.4428e+03     3.9287     -0.394     -0.571    28.3657   996.1471 0.0000e+00
     -0.379      0.167     7.5116     96.374     36.009  38.343151     1.0605      8.233   143.0183 2.1253e+03     3.9724     -0.379     -0.548    28.3429   996.1545 0.0000e+00
     -0.344      0.200     7.5426     96.683     36.038  38.336529     1.7697      8.315   130.2135 2.4613e+03     3.5019     -0.344     -0.500    28.3235   996.1597 0.0000e+00
     -0.291      0.241     7.5918     97.174     36.039  38.279089     3.0705      8.366   127.1858 2.4589e+03     2.6648     -0.287     -0.418    28.3002   996.1670 0.0000e+00
     -0.223      0.281     7.6606     97.884     36.050  38.219835     3.7830      8.389   132.0500 2.3990e+03     2.2409     -0.227     -0.330    28.2703   996.1757 0.0000e+00
     -0.133      0.306     7.7407     98.753     36.083  38.191271     3.8644      8.392   126.8199 2.2766e+03     2.2433     -0.135     -0.197    28.2392   996.1851 0.0000e+00
     -0.031      0.308     7.8238     99.698     36.124  38.187527     4.0377      8.382   117.8951 1.6932e+03     2.2357     -0.026     -0.038    28.1976   996.1975 0.0000e+00
      0.064      0.287     7.9028    100.631     36.140  38.174498     4.3356      8.367   115.1709 7.1388e+02     2.2132      0.067      0.096    28.1093   996.2232 0.0000e+00
      0.143      0.247     7.9668    101.401     36.144  38.160645     4.4921      8.351   114.8749 1.6953e+02     2.2337      0.149      0.217    27.9976   996.2553 0.0000e+00
      0.200      0.197     8.0125    101.943     36.146  38.146955     4.5084      8.333   114.9191 9.4692e+01     2.2537      0.204      0.297    27.9079   996.2811 0.0000e+00
      0.235      0.147     8.0444    102.299     36.154  38.135896     4.5067      8.313   114.7593 7.9203e+01     2.2262      0.235      0.342    27.8405   996.3003 0.0000e+00
      0.255      0.104     8.0646    102.497     36.193  38.153854     4.4710      8.290   114.8349 7.5712e+01     2.1627      0.253      0.365    27.8015   996.3113 0.0000e+00
      0.267      0.072     8.0728    102.543     36.234  38.173620     4.4141      8.264   115.3173 7.5673e+01     2.0758      0.260      0.377    27.7835   996.3164 0.0000e+00
      0.281      0.049     8.0699    102.461     36.261  38.184417     4.3917      8.237   115.9462 7.7518e+01     2.0286      0.275      0.400    27.7632   996.3223 0.0000e+00
      0.294      0.035     8.0617    102.330     36.306  38.220895     4.3994      8.212   116.5882 8.1173e+01     2.0501      0.290      0.421    27.7358   996.3300 0.0000e+00
      0.302      0.025     8.0484    102.150     36.383  38.297276     4.3777      8.189   117.3152 8.5055e+01     2.0736      0.298      0.433    27.7025   996.3395 0.0000e+00
      0.305      0.017     8.0196    101.784     36.490  38.409680     4.3371      8.167   118.1108 8.7553e+01     2.0836      0.301      0.436    27.6665   996.3496 0.0000e+00
      0.305      0.011     7.9718    101.195     36.570  38.500850     4.3242      8.146   118.8947 8.8340e+01     2.0731      0.299      0.434    27.6405   996.3569 0.0000e+00
      0.305      0.006     7.9068    100.398     36.569  38.510939     4.3268      8.126   119.6517 8.7967e+01     2.0450      0.298      0.432    27.6282   996.3604 0.0000e+00
      0.306      0.004     7.8172     99.284     36.519  38.468203     4.2997      8.110   120.2946 8.6723e+01     2.0051      0.299      0.433    27.6218   996.3622 0.0000e+00
      0.307      0.004     7.6975     97.773     36.477  38.428489     4.2384      8.096   120.9027 8.5308e+01     1.9195      0.301      0.437    27.6199   996.3627 0.0000e+00
      0.309      0.005     7.5615     96.044     36.462  38.411635     4.2017      8.082   121.4982 8.4365e+01     1.8294      0.304      0.441    27.6304   996.3599 0.0000e+00
      0.311      0.005     7.4415     94.520     36.443  38.391374     4.2018      8.067   122.0738 8.4291e+01     1.7999      0.305      0.443    27.6511   996.3540 0.0000e+00
      0.311      0.004     7.3590     93.473     36.426  38.373948     4.2313      8.049   122.7857 8.5355e+01     1.8575      0.305      0.443    27.6665   996.3497 0.0000e+00
      0.312      0.002     7.3010     92.737     36.441  38.391368     4.2903      8.030   123.4810 8.7070e+01     1.9691      0.306      0.444    27.6698   996.3487 0.0000e+00
      0.313      0.000     7.2442     92.017     36.461  38.411564     4.3246      8.013   124.0277 8.9050e+01     2.0358      0.307      0.445    27.6670   996.3496 0.0000e+00
      0.313     -0.001     7.1853     91.270     36.476  38.427701     4.3247      7.998   124.5781 9.1226e+01     2.0083      0.308      0.447    27.6658   996.3499 0.0000e+00
      0.313     -0.001     7.1327     90.602     36.505  38.459523     4.3355      7.984   125.3169 9.3361e+01     1.9641      0.307      0.445    27.6679   996.3493 0.0000e+00
      0.310      0.000     7.0883     90.038     36.523  38.478939     4.3682      7.972   126.1635 9.4560e+01     1.9934      0.303      0.440    27.6690   996.3490 0.0000e+00
      0.308      0.003     7.0428     89.457     36.518  38.472020     4.3917      7.960   126.8983 9.4254e+01     2.0349      0.301      0.437    27.6689   996.3489 0.0000e+00
      0.309      0.006     6.9856     88.727     36.489  38.439347     4.3933      7.941   127.5767 9.3360e+01     2.0064      0.302      0.439    27.6696   996.3488 0.0000e+00
      0.312      0.010     6.9170     87.852     36.455  38.401280     4.3888      7.907   128.1712 9.2255e+01     1.9769      0.306      0.444    27.6707   996.3486 0.0000e+00
      0.317      0.012     6.8455     86.938     36.449  38.392615     4.3880      7.860   128.5796 9.0785e+01     2.0057      0.311      0.451    27.6709   996.3485 0.0000e+00
      0.322      0.012     6.7855     86.171     36.456  38.398056     4.3925      7.817   128.8151 8.9593e+01     2.0268      0.315      0.458    27.6690   996.3490 0.0000e+00
      0.327      0.011     6.7555     85.785     36.463  38.403583     4.3917      7.794   129.0391 8.8961e+01     2.0350      0.321      0.465    27.6661   996.3499 0.0000e+00
      0.330      0.009     6.7737     86.012     36.458  38.395961     4.3864      7.784   129.3956 8.8907e+01     2.0729      0.324      0.470    27.6632   996.3506 0.0000e+00
      0.330      0.006     6.8549     87.040     36.434  38.369381     4.3983      7.772   129.8565 8.9508e+01     2.0581      0.323      0.469    27.6598   996.3516 0.0000e+00
      0.330      0.003     7.0013     88.897     36.404  38.336111     4.4307      7.759   130.3952 9.0331e+01     2.0196      0.323      0.468    27.6562   996.3526 0.0000e+00
      0.330     -0.001     7.1965     91.373     36.381  38.311079     4.4577      7.751   131.0054 9.1166e+01     2.0340      0.322      0.467    27.6532   996.3535 0.0000e+00
      0.331     -0.003     7.4075     94.048     36.392  38.320619     4.4649      7.751   131.6417 9.2283e+01     2.0355      0.326      0.472    27.6507   996.3542 0.0000e+00
      0.331     -0.003     7.5968     96.445     36.398  38.324500     4.4838      7.754   132.1520 9.3535e+01     2.0380      0.327      0.474    27.6480   996.3550 0.0000e+00
      0.328     -0.003     7.7372     98.219     36.373  38.294530     4.5294      7.756   132.5295 9.4271e+01     2.0636      0.322      0.466    27.6467   996.3553 0.0000e+00
      0.325     -0.004     7.8147     99.198     36.357  38.275628     4.5649      7.753   132.9355 9.4132e+01     2.0837      0.317      0.460    27.6456   996.3555 0.0000e+00
      0.325     -0.004     7.8326     99.420     36.369  38.286398     4.5752      7.748   133.3622 9.3599e+01     2.0838      0.318      0.461    27.6433   996.3562 0.0000e+00
      0.325     -0.003     7.8105     99.134     36.383  38.297787     4.5756      7.744   133.7305 9.3212e+01     2.0657      0.320      0.463    27.6393   996.3574 0.0000e+00
      0.325      0.000     7.7709     98.625     36.374  38.286377     4.5703      7.741   134.1198 9.2974e+01     2.0602      0.319      0.463    27.6342   996.3588 0.0000e+00
      0.324      0.002     7.7249     98.037     36.365  38.275384     4.5630      7.739   134.6270 9.2679e+01     2.0837      0.318      0.461    27.6313   996.3596 0.0000e+00
      0.324      0.002     7.6777     97.434     36.382  38.291814     4.5652      7.736   135.1308 9.2272e+01     2.1199      0.318      0.462    27.6293   996.3601 0.0000e+00
      0.325      0.001     7.6377     96.925     36.385  38.294600     4.5714      7.730   135.5650 9.2077e+01     2.1045      0.319      0.462    27.6259   996.3611 0.0000e+00
      0.327     -0.004     7.6127     96.604     36.340  38.245593     4.5685      7.724   136.6082 9.2403e+01     2.0616      0.321      0.465    27.6224   996.3621 0.0000e+00
      0.329     -0.017     7.6023     96.473     36.303  38.207084     4.5649      7.719   144.9901 9.3360e+01     2.0597      0.323      0.469    27.6196   996.3629 0.0000e+00
      0.329     -0.035     7.6002     96.450     36.304  38.209862     4.5710      7.711   153.7965 9.4997e+01     2.0488      0.324      0.470    27.6172   996.3636 0.0000e+00
      0.324     -0.050     7.6042     96.503     36.309  38.215710     4.5728      7.694   148.5289 9.8036e+01     2.0283      0.322      0.465    27.6161   996.3638 0.0000e+00
      0.306     -0.056     7.6162     96.658     36.307  38.214312     4.5689      7.670   141.0966 1.0416e+02     2.0096      0.308      0.446    27.6139   996.3644 0.0000e+00
      0.273     -0.053     7.6303     96.840     36.285  38.192959     4.5675      7.641   140.2498 1.1143e+02     1.9855      0.268      0.388    27.6136   996.3643 0.0000e+00
      0.242     -0.044     7.6354     96.904     36.243  38.147964     4.5560      7.613   140.5271 1.1328e+02     1.9989      0.226      0.327    27.6176   996.3630 0.0000e+00
      0.232     -0.036     7.6220     96.733     36.212  38.114619     4.5429      7.595   141.5239 1.0884e+02     2.0081      0.220      0.319    27.6180   996.3629 0.0000e+00
      0.242     -0.033     7.5864     96.285     36.203  38.107173     4.5383      7.590   148.6028 1.0344e+02     1.9658      0.237      0.344    27.6194   996.3625 0.0000e+00
      0.253     -0.037     7.5411     95.724     36.211  38.121406     4.5273      7.588   155.3065 1.0037e+02     1.8810      0.252      0.366    27.6236   996.3614 0.0000e+00
      0.253     -0.047     7.5124     95.374     36.241  38.159770     4.5138      7.583   151.3383 1.0304e+02     1.8015      0.257      0.371    27.6227   996.3616 0.0000e+00
      0.233     -0.061     7.5145     95.411     36.266  38.190180     4.5048      7.572   154.7423 1.1188e+02     1.7590      0.237      0.342    27.6192   996.3626 0.0000e+00
      0.197     -0.069     7.5415     95.753     36.249  38.171715     4.4881      7.554   170.3075 1.2640e+02     1.8260      0.194      0.282    27.6209   996.3619 0.0000e+00
      0.161     -0.066     7.5880     96.337     36.209  38.126948     4.4686      7.533   178.4702 1.4404e+02     1.9890      0.151      0.219    27.6301   996.3591 0.0000e+00
      0.140     -0.050     7.6512     97.134     36.179  38.093236     4.4591      7.509   179.1847 1.5483e+02     2.0578      0.129      0.188    27.6412   996.3560 0.0000e+00
      0.135     -0.022     7.7169     97.972     36.166  38.081476     4.4516      7.484   179.8067 1.5636e+02     2.0348      0.130      0.188    27.6479   996.3541 0.0000e+00
      0.140      0.010     7.7704     98.660     36.192  38.111716     4.4473      7.463   173.1715 1.4902e+02     2.0069      0.136      0.197    27.6483   996.3539 0.0000e+00
      0.148      0.039     7.8051     99.105     36.219  38.141487     4.4503      7.447   158.7560 1.3319e+02     2.0149      0.143      0.207    27.6410   996.3560 0.0000e+00
      0.163      0.060     7.8143     99.225     36.201  38.124055     4.4526      7.437   149.9698 1.1736e+02     2.0666      0.157      0.227    27.6354   996.3576 0.0000e+00
      0.183      0.073     7.7913     98.937     36.167  38.091371     4.4580      7.429   148.1599 1.0464e+02     2.0746      0.178      0.258    27.6410   996.3561 0.0000e+00
      0.207      0.079     7.7331     98.202     36.140  38.063701     4.4986      7.423   147.3698 9.3392e+01     2.0447      0.202      0.292    27.6469   996.3546 0.0000e+00
      0.232      0.080     7.6372     96.986     36.120  38.043401     4.5697      7.416   146.9558 8.5336e+01     2.0334      0.228      0.331    27.6481   996.3544 0.0000e+00
      0.255      0.075     7.5106     95.380     36.112  38.036357     4.6067      7.410   146.6823 8.1315e+01     2.0366      0.252      0.366    27.6496   996.3540 0.0000e+00
      0.275      0.066     7.3725     93.629     36.117  38.042012     4.6088      7.405   146.5573 8.0334e+01     2.0503      0.271      0.393    27.6527   996.3533 0.0000e+00
      0.290      0.057     7.2405     91.957     36.121  38.048300     4.6386      7.398   146.5626 8.1605e+01     2.0359      0.285      0.414    27.6559   996.3524 0.0000e+00
      0.300      0.050     7.1269     90.519     36.119  38.048914     4.6981      7.388   146.5750 8.4077e+01     1.9940      0.295      0.428    27.6569   996.3522 0.0000e+00
      0.307      0.045     7.0341     89.347     36.117  38.049435     4.7301      7.376   146.7073 8.6505e+01     2.0016      0.302      0.436    27.6567   996.3523 0.0000e+00
      0.317      0.042     6.9549     88.344     36.120  38.054598     4.7297      7.364   146.8710 8.8388e+01     2.0294      0.311      0.449    27.6582   996.3519 0.0000e+00
      0.328      0.041     6.8823     87.422     36.114  38.047873     4.7286      7.353   147.0918 8.9873e+01     2.0028      0.322      0.468    27.6610   996.3513 0.0000e+00
      0.340      0.042     6.8143     86.558     36.099  38.031597     4.7434      7.344   147.6564 9.0872e+01     1.9755      0.333      0.484    27.6640   996.3505 0.0000e+00
      0.351      0.047     6.7513     85.759     36.114  38.048236     4.7694      7.333   148.3626 9.1438e+01     1.9930      0.345      0.500    27.6687   996.3491 0.0000e+00
      0.361      0.055     6.6969     85.072     36.122  38.058621     4.7919      7.317   148.8334 9.1906e+01     2.0175      0.355      0.515    27.6723   996.3481 0.0000e+00
      0.371      0.065     6.6549     84.542     36.094  38.030213     4.8074      7.299   149.3052 9.1734e+01     2.0108      0.362      0.525    27.6709   996.3486 0.0000e+00
      0.386      0.081     6.6225     84.132     36.086  38.022139     4.8347      7.290   150.1087 9.0332e+01     2.0429      0.374      0.543    27.6694   996.3491 0.0000e+00
      0.411      0.105     6.5998     83.843     36.088  38.024475     4.8802      7.289   151.5800 8.8052e+01     2.1433      0.402      0.583    27.6709   996.3488 0.0000e+00
      0.439      0.131     6.5981     83.819     36.060  37.994979     4.9053      7.291   153.0694 8.6117e+01     2.2092      0.433      0.628    27.6739   996.3481 0.0000e+00
      0.469      0.153     6.6248     84.154     36.051  37.982888     4.9132      7.291   153.0599 8.3467e+01     2.2493      0.454      0.657    27.6773   996.3471 0.0000e+00
      0.513      0.164     6.6736     84.776     36.072  38.005230     4.9585      7.291   152.1545 7.8709e+01     2.2679      0.496      0.719    27.6763   996.3476 0.0000e+00
      0.573      0.164     6.7338     85.564     36.067  38.011214     5.0371      7.289   151.7588 7.4228e+01     2.2698      0.564      0.818    27.6759   996.3480 0.0000e+00
      0.630      0.154     6.7940     86.366     36.032  37.991782     5.0830      7.287   151.8883 7.0988e+01     2.3046      0.624      0.906    27.6775   996.3478 0.0000e+00
      0.672      0.134     6.8440     87.026     35.992  37.960727     5.0885      7.286   152.0858 6.8148e+01     2.3284      0.664      0.964    27.6718   996.3497 0.0000e+00
      0.698      0.109     6.8809     87.496     35.984  37.953131     5.0694      7.286   152.3400 6.5759e+01     2.2630      0.687      0.997    27.6656   996.3515 0.0000e+00
      0.714      0.081     6.9032     87.770     35.998  37.963415     5.0429      7.285   152.7254 6.4132e+01     2.1367      0.702      1.017    27.6841   996.3464 0.0000e+00
      0.727      0.059     6.9128     87.881     35.998  37.958107     5.0364      7.283   152.9593 6.3100e+01     2.0792      0.712      1.033    27.7184   996.3367 0.0000e+00
      0.738      0.045     6.9171     87.924     35.998  37.952417     5.0340      7.282   153.0173 6.2251e+01     2.0922      0.724      1.049    27.7348   996.3322 0.0000e+00
      0.748      0.041     6.9182     87.930     36.007  37.958092     5.0313      7.279   153.1690 6.1783e+01     2.1299      0.736      1.067    27.7310   996.3333 0.0000e+00
      0.755      0.044     6.9100     87.823     36.013  37.963238     5.0384      7.274   153.5883 6.1575e+01     2.2078      0.741      1.075    27.7234   996.3355 0.0000e+00
      0.761      0.051     6.8865     87.522     36.002  37.951168     5.0429      7.266   154.0434 6.1248e+01     2.2795      0.743      1.079    27.7163   996.3375 0.0000e+00
      0.772      0.058     6.8473     87.022     35.991  37.939088     5.0326      7.257   154.3694 6.0698e+01     2.2759      0.754      1.094    27.7077   996.3399 0.0000e+00
      0.792      0.064     6.7923     86.326     35.995  37.944128     5.0181      7.249   154.6901 6.0075e+01     2.2304      0.775      1.124    27.7022   996.3416 0.0000e+00
      0.816      0.068     6.7223     85.443     35.996  37.948639     4.9976      7.239   154.9965 5.9429e+01     2.1546      0.800      1.161    27.7008   996.3421 0.0000e+00
      0.838      0.068     6.6438     84.456     35.973  37.930158     4.9674      7.230   155.2347 5.8751e+01     2.0479      0.823      1.195    27.7003   996.3424 0.0000e+00
      0.856      0.066     6.5696     83.521     35.952  37.911115     4.9567      7.225   155.4192 5.8094e+01     2.0219      0.841      1.220    27.6997   996.3426 0.0000e+00
      0.869      0.064     6.5131     82.802     35.950  37.908816     4.9635      7.224   155.6776 5.7476e+01     2.0370      0.853      1.238    27.6992   996.3428 0.0000e+00
      0.880      0.065     6.4816     82.399     35.946  37.902362     4.9967      7.224   156.0370 5.6880e+01     2.0673      0.863      1.251    27.7041   996.3415 0.0000e+00
      0.892      0.069     6.4724     82.278     35.942  37.896554     5.0548      7.223   156.4086 5.6340e+01     2.1578      0.874      1.268    27.7139   996.3388 0.0000e+00
      0.909      0.075     6.4720     82.271     35.948  37.902063     5.0852      7.220   156.7286 5.5940e+01     2.2137      0.889      1.288    27.7196   996.3372 0.0000e+00
      0.933      0.080     6.4683     82.226     35.950  37.905490     5.0956      7.217   156.9810 5.5670e+01     2.2189      0.913      1.324    27.7186   996.3377 0.0000e+00
      0.960      0.083     6.4591     82.115     35.917  37.874518     5.1111      7.215   157.2232 5.5456e+01     2.2204      0.943      1.368    27.7153   996.3387 0.0000e+00
      0.984      0.083     6.4445     81.935     35.887  37.844965     5.1248      7.213   157.5060 5.5221e+01     2.2328      0.966      1.403    27.7135   996.3392 0.0000e+00
      1.004      0.078     6.4236     81.671     35.906  37.865549     5.1311      7.210   157.8192 5.5103e+01     2.2377      0.985      1.430    27.7107   996.3401 0.0000e+00
      1.022      0.071     6.3966     81.328     35.909  37.869497     5.1352      7.205   158.0858 5.5241e+01     2.2134      1.002      1.452    27.7116   996.3399 0.0000e+00
      1.040      0.068     6.3682     80.966     35.872  37.829232     5.1406      7.200   158.4064 5.5561e+01     2.2020      1.021      1.480    27.7185   996.3381 0.0000e+00
      1.056      0.070     6.3479     80.705     35.867  37.823026     5.1445      7.191   158.9420 5.5854e+01     2.2307      1.038      1.505    27.7220   996.3372 0.0000e+00
      1.067      0.077     6.3419     80.628     35.901  37.857935     5.1476      7.179   159.4853 5.6013e+01     2.2647      1.046      1.516    27.7224   996.3371 0.0000e+00
      1.081      0.086     6.3472     80.696     35.913  37.870458     5.1430      7.169   159.8990 5.6308e+01     2.2529      1.056      1.531    27.7230   996.3370 0.0000e+00
      1.106      0.095     6.3557     80.808     35.888  37.847488     5.1145      7.163   160.4158 5.7002e+01     2.2189      1.080      1.567    27.7230   996.3371 0.0000e+00
      1.139      0.102     6.3602     80.878     35.871  37.834114     5.0725      7.158   161.0015 5.7927e+01     2.2466      1.118      1.621    27.7201   996.3380 0.0000e+00
      1.173      0.106     6.3621     80.913     35.866  37.835713     5.0420      7.155   161.4750 5.8725e+01     2.2932      1.153      1.672    27.7188   996.3386 0.0000e+00
      1.201      0.104     6.3666     80.976     35.833  37.803351     5.0232      7.152   162.0107 5.9366e+01     2.2912      1.180      1.711    27.7191   996.3387 0.0000e+00
      1.225      0.099     6.3758     81.091     35.793  37.760216     5.0187      7.148   162.7464 6.0080e+01     2.2553      1.202      1.743    27.7200   996.3384 0.0000e+00
      1.249      0.093     6.3901     81.268     35.793  37.758488     5.0653      7.141   163.4011 6.0887e+01     2.1534      1.225      1.778    27.7304   996.3356 0.0000e+00
      1.269      0.088     6.4063     81.470     35.818  37.782462     5.1542      7.133   163.9906 6.1703e+01     2.0421      1.246      1.808    27.7417   996.3326 0.0000e+00
      1.289      0.085     6.4182     81.619     35.832  37.796172     5.2082      7.128   164.7110 6.2450e+01     2.0244      1.261      1.831    27.7449   996.3317 0.0000e+00
      1.310      0.082     6.4208     81.651     35.834  37.797305     5.2160      7.125   165.2281 6.3190e+01     2.0381      1.283      1.863    27.7430   996.3323 0.0000e+00
      1.334      0.079     6.4113     81.533     35.832  37.796159     5.2392      7.123   165.4255 6.4034e+01     2.0767      1.309      1.899    27.7378   996.3339 0.0000e+00
      1.356      0.075     6.3893     81.260     35.816  37.782320     5.2899      7.121   165.6349 6.4842e+01     2.1952      1.330      1.930    27.7355   996.3347 0.0000e+00
      1.374      0.071     6.3608     80.902     35.789  37.756932     5.3175      7.118   165.9532 6.5474e+01     2.2916      1.348      1.955    27.7348   996.3350 0.0000e+00
      1.390      0.068     6.3346     80.572     35.774  37.743102     5.3211      7.113   166.1762 6.5941e+01     2.3247      1.364      1.978    27.7314   996.3359 0.0000e+00
      1.404      0.067     6.3142     80.314     35.773  37.742051     5.3340      7.107   166.4377 6.6420e+01     2.3338      1.377      1.998    27.7323   996.3358 0.0000e+00
      1.418      0.068     6.2969     80.095     35.774  37.744226     5.3603      7.100   167.0503 6.7053e+01     2.3032      1.389      2.014    27.7391   996.3339 0.0000e+00
      1.436      0.071     6.2769     79.843     35.797  37.769396     5.3869      7.092   167.9050 6.7776e+01     2.2817      1.406      2.040    27.7445   996.3324 0.0000e+00
      1.456      0.073     6.2505     79.508     35.818  37.792476     5.3962      7.085   168.6841 6.8561e+01     2.3040      1.426      2.070    27.7452   996.3322 0.0000e+00
      1.478      0.074     6.2171     79.087     35.794  37.769384     5.3770      7.079   169.3288 6.9378e+01     2.3098      1.449      2.102    27.7457   996.3323 0.0000e+00
      1.499      0.074     6.1820     78.646     35.769  37.744099     5.3464      7.073   169.8495 7.0129e+01     2.2865      1.471      2.133    27.7479   996.3318 0.0000e+00
      1.517      0.073     6.1548     78.301     35.765  37.740664     5.3382      7.067   170.1615 7.0826e+01     2.2840      1.488      2.158    27.7489   996.3316 0.0000e+00
      1.532      0.073     6.1409     78.122     35.753  37.727857     5.3467      7.060   170.5199 7.1567e+01     2.2803      1.502      2.179    27.7491   996.3316 0.0000e+00
      1.548      0.073     6.1382     78.087     35.742  37.716192     5.3448      7.055   171.2570 7.2370e+01     2.3068      1.517      2.200    27.7525   996.3307 0.0000e+00
      1.566      0.074     6.1379     78.082     35.753  37.726577     5.3337      7.051   172.3626 7.3212e+01     2.4088      1.536      2.227    27.7572   996.3294 0.0000e+00
      1.588      0.074     6.1309     77.992     35.753  37.726463     5.3246      7.047   173.3910 7.4053e+01     2.4973      1.558      2.259    27.7570   996.3296 0.0000e+00
      1.609      0.074     6.1149     77.790     35.741  37.714818     5.3215      7.044   174.1412 7.4838e+01     2.5240      1.579      2.291    27.7546   996.3303 0.0000e+00
      1.629      0.072     6.0919     77.499     35.738  37.712727     5.3221      7.039   174.8944 7.5532e+01     2.5029      1.598      2.318    27.7553   996.3302 0.0000e+00
      1.647      0.069     6.0635     77.142     35.726  37.701184     5.3671      7.035   175.6150 7.6090e+01     2.5698      1.615      2.342    27.7548   996.3304 0.0000e+00
      1.664      0.064     6.0330     76.755     35.726  37.702204     5.4576      7.031   176.2293 7.6516e+01     2.7423      1.632      2.367    27.7529   996.3310 0.0000e+00
      1.679      0.060     6.0030     76.376     35.746  37.725067     5.5061      7.028   176.8143 7.6836e+01     2.8193      1.647      2.389    27.7535   996.3309 0.0000e+00
      1.694      0.058     5.9740     76.007     35.745  37.723713     5.5111      7.025   177.3542 7.7066e+01     2.8131      1.662      2.410    27.7561   996.3303 0.0000e+00
      1.707      0.058     5.9471     75.666     35.709  37.685838     5.5535      7.025   177.8531 7.7272e+01     2.7656      1.675      2.428    27.7586   996.3296 0.0000e+00
      1.720      0.058     5.9223     75.352     35.672  37.647972     5.6374      7.024   178.2857 7.7561e+01     2.6705      1.686      2.444    27.7599   996.3294 0.0000e+00
      1.735      0.060     5.8970     75.031     35.670  37.646722     5.6843      7.021   178.7131 7.7935e+01     2.6134      1.701      2.467    27.7607   996.3293 0.0000e+00
      1.750      0.063     5.8694     74.680     35.692  37.670729     5.6778      7.018   179.2348 7.8372e+01     2.5996      1.716      2.489    27.7611   996.3292 0.0000e+00
      1.766      0.065     5.8388     74.290     35.706  37.684338     5.6372      7.015   179.6903 7.8915e+01     2.6347      1.731      2.510    27.7617   996.3290 0.0000e+00
      1.783      0.066     5.8075     73.894     35.706  37.684328     5.5832      7.012   180.0047 7.9615e+01     2.6782      1.748      2.536    27.7633   996.3286 0.0000e+00
      1.803      0.065     5.7755     73.487     35.692  37.670603     5.5624      7.008   180.3687 8.0465e+01     2.6662      1.768      2.564    27.7641   996.3285 0.0000e+00
      1.822      0.062     5.7415     73.056     35.667  37.645339     5.5685      7.004   180.8212 8.1276e+01     2.6535      1.789      2.593    27.7641   996.3286 0.0000e+00
      1.838      0.058     5.7092     72.646     35.655  37.632759     5.5701      7.001   181.3463 8.1964e+01     2.6226      1.804      2.616    27.7642   996.3287 0.0000e+00
      1.851      0.053     5.6814     72.293     35.667  37.645453     5.5638      6.999   181.8991 8.2597e+01     2.5552      1.815      2.632    27.7649   996.3285 0.0000e+00
      1.861      0.049     5.6590     72.008     35.692  37.671872     5.5620      6.996   182.3431 8.3257e+01     2.5263      1.825      2.646    27.7661   996.3281 0.0000e+00
      1.872      0.048     5.6405     71.770     35.717  37.698290     5.5659      6.992   182.7567 8.3887e+01     2.5354      1.835      2.661    27.7672   996.3279 0.0000e+00
      1.883      0.048     5.6221     71.536     35.729  37.710975     5.6366      6.991   183.3725 8.4386e+01     2.5351      1.846      2.678    27.7678   996.3278 0.0000e+00
      1.896      0.049     5.6029     71.293     35.716  37.698289     5.7843      6.990   184.1960 8.4884e+01     2.5221      1.859      2.695    27.7678   996.3278 0.0000e+00
      1.909      0.052     5.5828     71.038     35.691  37.671849     5.8688      6.987   184.8837 8.5271e+01     2.5086      1.872      2.715    27.7668   996.3282 0.0000e+00
      1.923      0.055     5.5619     70.772     35.666  37.645195     5.8694      6.984   185.3214 8.5412e+01     2.5038      1.886      2.736    27.7665   996.3284 0.0000e+00
      1.937      0.057     5.5397     70.490     35.651  37.629920     5.8605      6.982   185.7019 8.5425e+01     2.4967      1.898      2.753    27.7665   996.3284 0.0000e+00
      1.952      0.057     5.5148     70.172     35.637  37.614103     5.8573      6.982   186.1291 8.5423e+01     2.5214      1.912      2.773    27.7674   996.3282 0.0000e+00
      1.969      0.057     5.4927     69.871     35.495  37.453949     5.8646      6.981   186.6156 8.5382e+01     2.6053      1.930      2.801    27.7675   996.3283 0.0000e+00
      1.984      0.058     5.5126     69.922     35.072  36.899522     5.8710      6.978   187.0232 8.5222e+01     2.6598      1.946      2.824    27.7686   996.3281 0.0000e+00
      1.997      0.060     5.6925     71.428     34.770  36.178642     5.8743      6.972   187.3580 8.5034e+01     2.6559      1.958      2.840    27.7673   996.3284 0.0000e+00
      2.009      0.060     6.1603     75.906     35.050  35.782591     5.9734      6.963   187.7379 8.4773e+01     2.6884      1.969      2.857    27.7699   996.3278 0.0000e+00
      2.024      0.060     6.9287     83.957     35.509  35.600708     6.1676      6.956   188.0894 8.4472e+01     2.7914      1.983      2.877    27.7666   996.3287 0.0000e+00
      2.043      0.060     7.9289     95.057     35.774  35.438300     6.2717      6.954   188.4240 8.4208e+01     2.8525      2.004      2.906    27.7681   996.3285 0.0000e+00
      2.062      0.059     9.0767    108.148     35.929  35.341562     6.2699      6.955   188.7725 8.3903e+01     2.8368      2.024      2.936    27.2326   996.4776 0.0000e+00
      2.077      0.058    10.2384    121.543     35.994  35.255802     6.2501      6.957   189.1191 8.3443e+01     2.7653      2.037      2.955    25.9870   996.8155 0.0000e+00
      2.089      0.055    11.2774    133.559     35.997  35.162779     6.2230      6.961   189.5168 8.2818e+01     2.6439      2.048      2.971    24.9823   997.0786 0.0000e+00
      2.102      0.051    12.1365    143.477     36.010  35.105245     6.2111      6.963   189.8817 8.2238e+01     2.6141      2.061      2.988    24.4511   997.2128 0.0000e+00
      2.115      0.049    12.7901    150.967     36.035  35.067811     6.2096      6.965   190.0892 8.1764e+01     2.6670      2.075      3.009    24.1283   997.2939 0.0000e+00
      2.127      0.049    13.2224    155.826     36.056  35.027419     6.1623      6.966   190.1329 8.1260e+01     2.6612      2.086      3.026    23.9477   997.3383 0.0000e+00
      2.137      0.052    13.4719    158.481     36.096  34.997583     6.0728      6.966   190.2381 8.0686e+01     2.6427      2.096      3.039    23.8236   997.3689 0.0000e+00
      2.148      0.056    13.5953    159.587     36.144  34.960848     6.0288      6.967   190.5012 8.0088e+01     2.6389      2.106      3.054    23.7362   997.3903 0.0000e+00
      2.162      0.058    13.6295    159.605     36.177  34.900476     6.0544      6.970   190.7328 7.9420e+01     2.6484      2.118      3.072    23.6510   997.4112 0.0000e+00
      2.181      0.061    13.6176    159.060     36.214  34.838697     6.2528      6.973   190.9739 7.8685e+01     2.8238      2.139      3.102    23.5745   997.4298 0.0000e+00
      2.200      0.062    13.6009    158.447     36.263  34.784943     6.5988      6.976   191.2657 7.8014e+01     3.1205      2.159      3.132    23.4816   997.4524 0.0000e+00
      2.216      0.061    13.6024    158.064     36.336  34.758127     6.7863      6.979   191.5077 7.7397e+01     3.2867      2.174      3.152    23.3618   997.4813 0.0000e+00
      2.231      0.057    13.6403    158.160     36.433  34.768198     6.8127      6.981   191.6618 7.6812e+01     3.3586      2.188      3.172    23.2318   997.5125 0.0000e+00
      2.246      0.052    13.7098    158.702     36.512  34.779665     6.9434      6.984   191.6664 7.6362e+01     3.7602      2.203      3.195    23.0988   997.5444 0.0000e+00
      2.260      0.048    13.7852    159.368     36.554  34.769741     7.1965      6.987   191.5631 7.6022e+01     4.4715      2.217      3.215    22.9537   997.5789 0.0000e+00
      2.270      0.046    13.8583    160.000     36.613  34.775077     7.3411      6.990   191.7032 7.5708e+01     4.8804      2.227      3.230    22.8174   997.6110 0.0000e+00
      2.279      0.046    13.9177    160.456     36.743  34.844120     7.3398      6.993   192.1566 7.5385e+01     4.9352      2.235      3.241    22.6991   997.6388 0.0000e+00
      2.288      0.047    13.9467    160.530     36.942  34.969783     7.3099      6.995   192.5702 7.5001e+01     4.9046      2.243      3.253    22.6113   997.6594 0.0000e+00
      2.300      0.049    13.9347    160.044     37.157  35.088489     7.1533      6.997   192.9191 7.4594e+01     4.8712      2.255      3.270    22.5597   997.6714 0.0000e+00
      2.314      0.051    13.8665    158.861     37.312  35.136845     6.8688      6.999   193.1914 7.4123e+01     4.8918      2.269      3.291    22.4856   997.6888 0.0000e+00
      2.330      0.052    13.7363    157.020     37.375  35.110042     6.7136      7.002   193.1953 7.3593e+01     4.8912      2.285      3.315    22.4091   997.7066 0.0000e+00
      2.345      0.053    13.5477    154.599     37.416  35.081627     6.7079      7.007   193.0522 7.3175e+01     4.8635      2.301      3.337    22.3409   997.7224 0.0000e+00
      2.357      0.053    13.3145    151.730     37.503  35.110533     6.7646      7.011   193.0962 7.2807e+01     4.9832      2.312      3.352    22.2193   997.7505 0.0000e+00
      2.368      0.052    13.0586    148.624     37.590  35.142123     6.8701      7.014   193.3830 7.2319e+01     5.2240      2.322      3.367    22.0719   997.7842 0.0000e+00
      2.381      0.051    12.8038    145.543     37.646  35.146171     6.9255      7.013   193.5947 7.1664e+01     5.3510      2.335      3.385    21.9541   997.8110 0.0000e+00
      2.396      0.049    12.5696    142.759     37.696  35.159415     6.8973      7.012   193.6772 7.0864e+01     5.3389      2.349      3.407    21.8686   997.8304 0.0000e+00
      2.410      0.047    12.3613    140.384     37.715  35.175267     6.6848      7.013   193.7781 7.0133e+01     5.2083      2.364      3.429    21.8035   997.8452 0.0000e+00
      2.422      0.047    12.1863    138.475     37.729  35.210893     6.3248      7.014   193.9543 6.9596e+01     5.0174      2.377      3.448    21.7408   997.8593 0.0000e+00
      2.432      0.047    12.0598    137.078     37.852  35.336334     6.1246      7.014   194.4312 6.9093e+01     4.9312      2.386      3.461    21.6676   997.8758 0.0000e+00
      2.441      0.047    11.9853    136.125     38.045  35.486073     6.1031      7.010   195.1557 6.8491e+01     4.9197      2.392      3.469    21.6143   997.8878 0.0000e+00
      2.452      0.047    11.9492    135.514     38.188  35.561541     6.1334      7.005   195.8315 6.7756e+01     4.9432      2.402      3.484    21.6118   997.8884 0.0000e+00
      2.467      0.046    11.9279    135.076     38.307  35.614041     6.1877      7.001   196.3209 6.6935e+01     5.0197      2.419      3.508    21.6620   997.8773 0.0000e+00
      2.483      0.045    11.8897    134.482     38.425  35.676479     6.2222      6.999   196.3406 6.6234e+01     5.0907      2.437      3.534    21.7002   997.8688 0.0000e+00
      2.495      0.043    11.8127    133.496     38.535  35.745180     6.2993      6.997   196.0703 6.5839e+01     5.1787      2.449      3.552    21.6461   997.8810 0.0000e+00
      2.504      0.042    11.6952    132.092     38.630  35.809950     7.0851      6.994   196.1498 6.5686e+01     5.8545      2.457      3.563    21.5508   997.9023 0.0000e+00
      2.510      0.042    11.5477    130.369     38.665  35.824873     8.5183      6.990   196.5276 6.5537e+01     7.1010      2.462      3.570    21.4769   997.9187 0.0000e+00
      2.518      0.042    11.3862    128.510     38.649  35.798649     9.2967      6.986   196.8518 6.5198e+01     7.7960      2.468      3.580    21.4123   997.9331 0.0000e+00
      2.530      0.044    11.2247    126.685     38.730  35.873680     9.3607      6.982   197.2311 6.4656e+01     7.9006      2.480      3.596    21.3683   997.9429 0.0000e+00
      2.544      0.048    11.0724    124.972     39.038  36.160838     9.2837      6.979   197.7580 6.3965e+01     7.9722      2.495      3.619    21.3441   997.9484 0.0000e+00
      2.558      0.050    10.9404    123.443     39.463  36.541384     8.3230      6.974   198.1457 6.3280e+01     8.3332      2.510      3.641    21.3197   997.9538 0.0000e+00
      2.571      0.051    10.8413    122.208     39.984  36.983855     6.5620      6.968   198.4772 6.2673e+01     9.0213      2.521      3.657    21.3022   997.9577 0.0000e+00
      2.584      0.052    10.7696    121.168     40.641  37.511825     5.6002      6.963   199.0990 6.2069e+01     9.4099      2.534      3.676    21.3043   997.9573 0.0000e+00
      2.596      0.053    10.6826    119.862     41.198  37.910385     5.5108      6.959   199.8990 6.1528e+01     9.3613      2.547      3.693    21.3181   997.9544 0.0000e+00
      2.607      0.053    10.5193    117.728     41.545  38.121043     5.5420      6.955   200.6645 6.0798e+01     7.9746      2.557      3.707    21.3027   997.9580 0.0000e+00
      2.622      0.053    10.2353    114.350     41.871  38.344834     5.6137      6.952   201.3863 5.9727e+01     5.3263      2.571      3.728    21.2618   997.9672 0.0000e+00
      2.638      0.052     9.8021    109.381     42.258  38.648299     5.6671      6.948   202.1732 5.8677e+01     3.8546      2.587      3.753    21.1679   997.9881 0.0000e+00
      2.654      0.051     9.2333    102.947     42.748  39.060545     5.7193      6.944   202.9514 5.7729e+01     3.7480      2.604      3.776    20.9995   998.0250 0.0000e+00
      2.666      0.051     8.5944     95.764     43.560  39.774320     6.0193      6.939   203.4816 5.6893e+01     3.9388      2.617      3.795    20.8531   998.0567 0.0000e+00
      2.676      0.050     7.9393     88.364     44.469  40.549302     6.5548      6.934   203.6797 5.6200e+01     4.2612      2.625      3.807    20.7772   998.0731 0.0000e+00
      2.686      0.050     7.2986     81.076     44.925  40.876137     6.8531      6.929   203.6262 5.5358e+01     4.4674      2.633      3.819    20.7214   998.0853 0.0000e+00
      2.699      0.050     6.6908     74.185     45.149  40.996081     6.9726      6.924   203.6092 5.4217e+01     4.6950      2.644      3.835    20.6710   998.0961 0.0000e+00
      2.714      0.051     6.0850     67.385     45.968  41.681979     8.0263      6.917   203.9904 5.3038e+01     6.8818      2.661      3.861    20.6634   998.0981 0.0000e+00
      2.730      0.054     5.4457     60.245     47.628  43.137672     9.9441      6.909   204.6211 5.2106e+01    10.9159      2.679      3.885    20.6123   998.1096 0.0000e+00
      2.742      0.057     4.8011     53.039     49.357  44.628414    10.9733      6.901   205.0400 5.1304e+01    13.0962      2.690      3.901    20.4810   998.1375 0.0000e+00
      2.753      0.059     4.1866     46.158     51.125  46.118394    10.9851      6.893   205.1834 5.0318e+01    13.1212      2.699      3.915    20.3800   998.1588 0.0000e+00
      2.768      0.060     3.5840     39.426     54.063  48.642934    10.1311      6.884   205.2367 4.9078e+01    11.5466      2.714      3.936    20.3302   998.1695 0.0000e+00
      2.786      0.060     2.9512     32.391     57.283  51.399574     8.5451      6.875   205.3412 4.7787e+01     8.6739      2.732      3.962    20.2934   998.1780 0.0000e+00
      2.805      0.061     2.2772     24.928     59.063  52.836129     7.6753      6.867   205.4996 4.6625e+01     7.1286      2.751      3.990    20.2212   998.1938 0.0000e+00
      2.821      0.061     1.5904     17.367     62.478  55.722253     7.5985      6.857   205.5175 4.5574e+01     6.9876      2.767      4.014    20.1026   998.2189 0.0000e+00
      2.835      0.061     0.9291     10.127     72.230  64.247101     7.6075      6.846   205.3849 4.4632e+01     6.9682      2.781      4.033    19.9885   998.2435 0.0000e+00
      2.848      0.061     0.3315      3.612     84.907  75.318431     7.7326      6.835   205.5318 4.3823e+01     7.2881      2.794      4.052    19.8757   998.2683 0.0000e+00
      2.862      0.062    -0.1539     -1.659     93.225  82.460538     7.9675      6.825   206.0024 4.2846e+01     7.9393      2.805      4.068    19.7210   998.3001 0.0000e+00
      2.878      0.063    -0.5056     -5.460     97.254  85.797939     8.1064      6.816   206.5156 4.1590e+01     8.3189      2.821      4.091    19.5831   998.3282 0.0000e+00
      2.897      0.064    -0.7252     -7.820    101.911  89.713138     8.1290      6.807   207.1761 4.0470e+01     8.3054      2.842      4.122    19.4918   998.3506 0.0000e+00
      2.917      0.064    -0.8124     -8.747    108.182  95.051185     8.1020      6.798   207.7084 3.9573e+01     7.5804      2.861      4.150    19.3687   998.3810 0.0000e+00
      2.932      0.063    -0.7950     -8.546    113.819  99.802475     8.0409      6.788   207.6168 3.8759e+01     6.2379      2.876      4.171    19.2192   998.4136 0.0000e+00
      2.946      0.061    -0.7107     -7.626    119.804 104.825708     8.0046      6.775   206.7563 3.8018e+01     5.4769      2.888      4.189    19.0973   998.4381 0.0000e+00
      2.960      0.061    -0.5863     -6.281    129.350 112.927949     7.9753      6.759   203.9300 3.7306e+01     5.3926      2.902      4.210    19.0113   998.4565 0.0000e+00
      2.975      0.063    -0.4510     -4.822    140.612 122.462226     7.7823      6.739   196.5020 3.6606e+01     5.4812      2.917      4.232    18.9343   998.4745 0.0000e+00
      2.990      0.065    -0.3287     -3.506    147.176 127.826629     7.4392      6.716   185.1735 3.5816e+01     5.6640      2.932      4.253    18.8416   998.4943 0.0000e+00
      3.007      0.065    -0.2236     -2.380    148.518 128.645288     7.2437      6.692   174.9377 3.4877e+01     5.7997      2.947      4.275    18.7473   998.5140 0.0000e+00
      3.027      0.065    -0.1315     -1.397    151.708 131.149124     7.1785      6.666   167.2996 3.3933e+01     5.8436      2.969      4.306    18.6580   998.5348 0.0000e+00
      3.047      0.064    -0.0541     -0.575    159.715 137.880829     6.6334      6.638   160.5348 3.3220e+01     6.0645      2.990      4.337    18.5561   998.5597 0.0000e+00
      3.062      0.062     0.0095      0.100    167.562 144.403749     5.6211      6.610   154.7498 3.2746e+01     6.5044      3.004      4.357    18.4244   998.5873 0.0000e+00
      3.074      0.058     0.0634      0.669    172.387 148.199122     5.0650      6.585   150.2670 3.2289e+01     6.7702      3.014      4.372    18.2886   998.6121 0.0000e+00
      3.089      0.053     0.1072      1.129    175.727 150.649732     4.9987      6.561   146.1699 3.1809e+01     6.8535      3.028      4.392    18.2080   998.6278 0.0000e+00
      3.104      0.049     0.1420      1.492    178.152 152.268127     4.7243      6.539   141.0045 3.1421e+01     7.1833      3.046      4.418    18.1725   998.6387 0.0000e+00
      3.116      0.044     0.1706      1.787    179.519 152.957087     4.2176      6.519   134.1881 3.1096e+01     7.7756      3.057      4.433    18.1024   998.6549 0.0000e+00
      3.126      0.039     0.1936      2.024    181.252 154.000148     3.9442      6.501   126.0461 3.0696e+01     8.1164      3.065      4.445    17.9833   998.6783 0.0000e+00
      3.136      0.033     0.2111      2.203    185.285 157.090229     3.9238      6.487   116.8115 3.0341e+01     8.1577      3.076      4.461    17.8652   998.7012 0.0000e+00
      3.145      0.026     0.2229      2.323    191.984 162.543504     3.9198      6.477   107.3685 3.0236e+01     8.2424      3.086      4.476    17.7367   998.7259 0.0000e+00
      3.151      0.021     0.2295      2.391    198.586 168.013454     3.9046      6.467    99.2872 3.0224e+01     8.4189      3.091      4.483    17.5908   998.7525 0.0000e+00
      3.155      0.016     0.2311      2.408    202.664 171.424330     3.8966      6.458    93.0089 3.0070e+01     8.5222      3.094      4.487    17.4686   998.7748 0.0000e+00
      3.157      0.011     0.2279      2.374    205.218 173.629228     3.8997      6.451    87.2982 2.9949e+01     8.5409      3.096      4.490    17.3780   998.7924 0.0000e+00
      3.158      0.008     0.2222      2.316    206.515 174.863548     3.8295      6.444    81.2599 3.0009e+01     8.6784      3.097      4.491    17.3187   998.8058 0.0000e+00
      3.160      0.006     0.2159      2.253    206.645 175.165652     3.6895      6.437    75.4095 3.0007e+01     8.9391      3.099      4.495    17.2927   998.8134 0.0000e+00
      3.161      0.005     0.2104      2.198    206.954 175.620591     3.6200      6.431    70.2509 2.9809e+01     9.0716      3.100      4.497    17.2823   998.8161 0.0000e+00
      3.162      0.004     0.2059      2.152    207.848 176.529758     3.6224      6.425    65.6068 2.9704e+01     9.0345      3.101      4.498    17.2892   998.8160 0.0000e+00
      3.163      0.004     0.2005      2.096    208.639 177.274787     3.6493      6.420    61.2451 2.9921e+01     8.6860      3.102      4.499    17.3282   998.8095 0.0000e+00
      3.164      0.003     0.1950      2.039    209.404 177.917952     3.7027      6.414    57.0917 3.0058e+01     8.0379      3.103      4.500    17.3793   998.8002 0.0000e+00
      3.165      0.003     0.1910      1.997    209.904 178.297927     3.7388      6.409    52.9886 2.9893e+01     7.6869      3.103      4.501    17.4286   998.7916 0.0000e+00
      3.166      0.002     0.1890      1.977    208.886 177.394679     3.7480      6.404    48.8890 2.9680e+01     7.6538      3.104      4.502    17.4692   998.7848 0.0000e+00
      3.166      0.002     0.1870      1.955    207.138 175.881061     3.7884      6.400    45.0363 2.9552e+01     7.7037      3.105      4.503    17.4874   998.7818 0.0000e+00
      3.166      0.002     0.1819      1.901    205.929 174.824924     3.8710      6.398    41.4239 2.9579e+01     7.8644      3.105      4.503    17.4809   998.7831 0.0000e+00
      3.167      0.002     0.1762      1.841    204.467 173.572427     3.9142      6.397    37.8211 2.9723e+01     7.9577      3.105      4.504    17.4649   998.7866 0.0000e+00
      3.168      0.001     0.1730      1.807    202.107 171.600838     3.9126      6.396    34.6001 2.9901e+01     7.9477      3.106      4.505    17.4575   998.7873 0.0000e+00
      3.168      0.001     0.1719      1.796    200.748 170.475949     3.9125      6.396    33.1951 3.0068e+01     7.9387      3.106      4.505    17.4512   998.7875 0.0000e+00
      3.168 -9.990e-29 -9.990e-29 -9.990e-29 -9.990e-29 -9.990e-29 -9.990e-29 -9.990e-29 -9.990e-29 3.0158e+01 -9.990e-29      3.107      4.506    17.4431   998.7887 0.0000e+00
      3.168 -9.990e-29 -9.990e-29 -9.990e-29 -9.990e-29 -9.990e-29 -9.990e-29 -9.990e-29 -9.990e-29 3.0238e+01 -9.990e-29      3.107      4.506    17.4348   998.7899 0.0000e+00
      3.168 -9.990e-29 -9.990e-29 -9.990e-29 -9.990e-29 -9.990e-29 -9.990e-29 -9.990e-29 -9.990e-29 3.0418e+01 -9.990e-29      3.107      4.506    17.4478   998.7864 0.0000e+00
      3.168 -9.990e-29 -9.990e-29 -9.990e-29 -9.990e-29 -9.990e-29 -9.990e-29 -9.990e-29 -9.990e-29 3.0535e+01 -9.990e-29      3.107      4.507    17.4664   998.7821 0.0000e+00
