* Sea-Bird SBE19plus  Data File:
* FileName = C:\DATA\080519_fcr50_0002.hex
* Software version 2.8.0.119 SB_Terminal.dll
* Temperature SN = 7809
* Conductivity SN = 7809
* System UpLoad Time = Aug 05 2019 17:58:48
* <ApplicationData>
* <Seaterm232>
* <SoftwareVersion>2.8.0.119</SoftwareVersion>
* <BuildDate>07-Nov-2018</BuildDate>
* </Seaterm232>
* </ApplicationData>
* cast   2 05 Aug 2019 11:38:36 samples 383 to 803, avg = 1, stop = mag switch
# nquan = 16
# nvalues = 316                         
# units = specified
# name 0 = depFM: Depth [fresh water, m]
# name 1 = dz/dtM: Descent Rate [m/s]
# name 2 = sbeox0Mg/L: Oxygen, SBE 43 [mg/l]
# name 3 = sbeox0PS: Oxygen, SBE 43 [% saturation]
# name 4 = specc: Specific Conductance [uS/cm]
# name 5 = c0uS/cm: Conductivity [uS/cm]
# name 6 = flECO-AFL: Fluorescence, WET Labs ECO-AFL/FL [mg/m^3]
# name 7 = ph: pH
# name 8 = orp: Oxidation Reduction Potential [mV]
# name 9 = par/sat/log: PAR/Logarithmic, Satlantic
# name 10 = turbWETntu0: Turbidity, WET Labs ECO [NTU]
# name 11 = prdM: Pressure, Strain Gauge [db]
# name 12 = prdE: Pressure, Strain Gauge [psi]
# name 13 = tv290C: Temperature [ITS-90, deg C]
# name 14 = density00: Density [density, kg/m^3]
# name 15 = flag:  0.000e+00
# span 0 =     -0.586,      3.033       
# span 1 =     -0.020,      0.227       
# span 2 =     0.0501,     9.4546       
# span 3 =      0.569,    116.836       
# span 4 =      2.677,     77.737       
# span 5 =   2.695881,  70.489862       
# span 6 =    -0.1236,    16.1382       
# span 7 =      6.871,      8.708       
# span 8 =   110.1750,   532.9945       
# span 9 = 3.6407e+00, 9.2165e+02       
# span 10 =    -0.5526,    11.9488      
# span 11 =     -0.575,      2.975      
# span 12 =     -0.834,      4.314      
# span 13 =    20.2711,    26.4064      
# span 14 =   996.6948,   998.1937      
# span 15 = 0.0000e+00, 0.0000e+00      
# interval = seconds: 0.25
# start_time = Aug 05 2019 11:38:36 [Instrument's time stamp, header]
# bad_flag = -9.990e-29
# <Sensors count="9" >
#   <sensor Channel="1" >
#     <!-- Count, Temperature -->
#     <TemperatureSensor SensorID="58" >
#       <SerialNumber>7809</SerialNumber>
#       <CalibrationDate>24-Mar-19</CalibrationDate>
#       <A0>1.21792325e-003</A0>
#       <A1>2.81669265e-004</A1>
#       <A2>-1.60333336e-006</A2>
#       <A3>1.98414625e-007</A3>
#       <Slope>1.00000000</Slope>
#       <Offset>0.0000</Offset>
#     </TemperatureSensor>
#   </sensor>
#   <sensor Channel="2" >
#     <!-- Frequency 0, Conductivity -->
#     <ConductivitySensor SensorID="3" >
#       <SerialNumber>7809</SerialNumber>
#       <CalibrationDate>24-Mar-19</CalibrationDate>
#       <UseG_J>1</UseG_J>
#       <!-- Cell const and series R are applicable only for wide range sensors. -->
#       <SeriesR>0.0000</SeriesR>
#       <CellConst>2000.0000</CellConst>
#       <ConductivityType>0</ConductivityType>
#       <Coefficients equation="0" >
#         <A>0.00000000e+000</A>
#         <B>0.00000000e+000</B>
#         <C>0.00000000e+000</C>
#         <D>0.00000000e+000</D>
#         <M>0.0</M>
#         <CPcor>-9.57000000e-008</CPcor>
#       </Coefficients>
#       <Coefficients equation="1" >
#         <G>-1.00589325e+000</G>
#         <H>1.26816302e-001</H>
#         <I>-1.51560448e-004</I>
#         <J>2.67137274e-005</J>
#         <CPcor>-9.57000000e-008</CPcor>
#         <CTcor>3.2500e-006</CTcor>
#         <!-- WBOTC not applicable unless ConductivityType = 1. -->
#         <WBOTC>0.00000000e+000</WBOTC>
#       </Coefficients>
#       <Slope>1.00000000</Slope>
#       <Offset>0.00000</Offset>
#     </ConductivitySensor>
#   </sensor>
#   <sensor Channel="3" >
#     <!-- Count, Pressure, Strain Gauge -->
#     <PressureSensor SensorID="46" >
#       <SerialNumber>7809</SerialNumber>
#       <CalibrationDate>11-Mar-19</CalibrationDate>
#       <PA0>4.56561833e-002</PA0>
#       <PA1>4.85095118e-004</PA1>
#       <PA2>-2.88327090e-012</PA2>
#       <PTEMPA0>-5.48784562e+001</PTEMPA0>
#       <PTEMPA1>5.53756816e+001</PTEMPA1>
#       <PTEMPA2>-5.86727098e-001</PTEMPA2>
#       <PTCA0>5.25246745e+005</PTCA0>
#       <PTCA1>1.22304214e+001</PTCA1>
#       <PTCA2>-3.56745036e-001</PTCA2>
#       <PTCB0>2.51668750e+001</PTCB0>
#       <PTCB1>3.75000000e-004</PTCB1>
#       <PTCB2>0.00000000e+000</PTCB2>
#       <Offset>0.000000</Offset>
#     </PressureSensor>
#   </sensor>
#   <sensor Channel="4" >
#     <!-- A/D voltage 0, Oxygen, SBE 43 -->
#     <OxygenSensor SensorID="38" >
#       <SerialNumber>0434</SerialNumber>
#       <CalibrationDate>13-Apr-19</CalibrationDate>
#       <Use2007Equation>1</Use2007Equation>
#       <CalibrationCoefficients equation="0" >
#         <!-- Coefficients for Owens-Millard equation. -->
#         <Boc>0.0000</Boc>
#         <Soc>0.0000e+000</Soc>
#         <offset>0.0000</offset>
#         <Pcor>0.00e+000</Pcor>
#         <Tcor>0.0000</Tcor>
#         <Tau>0.0</Tau>
#       </CalibrationCoefficients>
#       <CalibrationCoefficients equation="1" >
#         <!-- Coefficients for Sea-Bird equation - SBE calibration in 2007 and later. -->
#         <Soc>4.2007e-001</Soc>
#         <offset>-0.6109</offset>
#         <A>-4.3656e-003</A>
#         <B> 1.7017e-004</B>
#         <C>-2.5341e-006</C>
#         <D0> 2.5826e+000</D0>
#         <D1> 1.92634e-004</D1>
#         <D2>-4.64803e-002</D2>
#         <E> 3.6000e-002</E>
#         <Tau20> 1.1800</Tau20>
#         <H1>-3.3000e-002</H1>
#         <H2> 5.0000e+003</H2>
#         <H3> 1.4500e+003</H3>
#       </CalibrationCoefficients>
#     </OxygenSensor>
#   </sensor>
#   <sensor Channel="5" >
#     <!-- A/D voltage 1, PAR/Logarithmic, Satlantic -->
#     <PARLog_SatlanticSensor SensorID="76" >
#       <SerialNumber>1122</SerialNumber>
#       <CalibrationDate>08-May-2019</CalibrationDate>
#       <a0>9.7456e-001</a0>
#       <a1>8.1640e-001</a1>
#       <Im>1.3589e+000</Im>
#       <Multiplier>1.0000e+000</Multiplier>
#     </PARLog_SatlanticSensor>
#   </sensor>
#   <sensor Channel="6" >
#     <!-- A/D voltage 2, pH -->
#     <pH_Sensor SensorID="43" >
#       <SerialNumber>0363</SerialNumber>
#       <CalibrationDate>15-Apr-19</CalibrationDate>
#       <Slope>4.5952</Slope>
#       <Offset>2.5370</Offset>
#     </pH_Sensor>
#   </sensor>
#   <sensor Channel="7" >
#     <!-- A/D voltage 3, Oxidation Reduction Potential -->
#     <OxidationReductionPotentialSensor SensorID="41" >
#       <SerialNumber>0363</SerialNumber>
#       <CalibrationDate>15-Apr-19</CalibrationDate>
#       <B>2.499480</B>
#       <M>-0.496195</M>
#       <Offset>0.0</Offset>
#     </OxidationReductionPotentialSensor>
#   </sensor>
#   <sensor Channel="8" >
#     <!-- A/D voltage 4, Fluorometer, WET Labs ECO-AFL/FL -->
#     <FluoroWetlabECO_AFL_FL_Sensor SensorID="20" >
#       <SerialNumber>FLNTURT-2496</SerialNumber>
#       <CalibrationDate>08-May-2019</CalibrationDate>
#       <ScaleFactor>5.00000000e+001</ScaleFactor>
#       <!-- Dark output -->
#       <Vblank>0.0550</Vblank>
#     </FluoroWetlabECO_AFL_FL_Sensor>
#   </sensor>
#   <sensor Channel="9" >
#     <!-- A/D voltage 5, Turbidity Meter, WET Labs, ECO-NTU -->
#     <TurbidityMeter SensorID="67" >
#       <SerialNumber>FLNTURT-2496</SerialNumber>
#       <CalibrationDate>08-May-2019</CalibrationDate>
#       <ScaleFactor>189.000000</ScaleFactor>
#       <!-- Dark output -->
#       <DarkVoltage>0.071000</DarkVoltage>
#     </TurbidityMeter>
#   </sensor>
# </Sensors>
# datcnv_date = Aug 05 2019 18:02:46, 7.26.7.129 [datcnv_vars = 15]
# datcnv_in = C:\DATA\080519_fcr20.hex C:\DATA\SBE19plusV2_7809.xmlcon
# datcnv_skipover = 0
# datcnv_ox_hysteresis_correction = yes
# datcnv_ox_tau_correction = yes
# filter_date = Aug 05 2019 18:03:10, 7.26.7.129
# filter_in = C:\DATA\080519_fcr20.cnv
# filter_low_pass_tc_A = 0.030
# filter_low_pass_tc_B = 0.150
# filter_low_pass_A_vars = prdM prdE tv290C density00
# filter_low_pass_B_vars = depFM dz/dtM sbeox0Mg/L sbeox0PS specc c0uS/cm flECO-AFL ph orp par/sat/log turbWETntu0
# alignctd_date = Aug 05 2019 18:03:31, 7.26.7.129
# alignctd_in = C:\DATA\080519_fcr20.cnv
# alignctd_adv = dz/dtM 1.000, sbeox0Mg/L 1.000, sbeox0PS 1.000, specc 1.000, c0uS/cm 1.000, flECO-AFL 1.000, ph 1.000, orp 1.000, turbWETntu0 1.000                                                                                 
# file_type = ascii
*END*
     -0.586 1.3721e-22     6.9630     84.805      2.677   2.695881    -0.1034      6.903   532.9945 8.2753e+02    -0.2499     -0.575     -0.834    25.3451   996.9640 0.0000e+00
     -0.586 1.5093e-21     6.9629     84.803      2.867   2.886186    -0.1084      6.919   509.0227 8.9490e+02    -0.2707     -0.575     -0.833    25.3443   996.9642 0.0000e+00
     -0.586 1.6603e-20     6.9619     84.790      3.098   3.118561    -0.1060      6.934   477.7927 9.2165e+02    -0.2818     -0.575     -0.833    25.3437   996.9644 0.0000e+00
     -0.586 1.8263e-19     6.9597     84.762      3.329   3.351059    -0.0997      6.943   447.5845 8.9264e+02    -0.3511     -0.575     -0.834    25.3436   996.9644 0.0000e+00
     -0.586 2.0089e-18     6.9574     84.733      3.645   3.669559    -0.1112      6.937   441.8178 8.6330e+02    -0.4532     -0.574     -0.833    25.3435   996.9644 0.0000e+00
     -0.586 2.2098e-17     6.9577     84.735      4.153   4.181320    -0.1236      6.923   449.3666 8.5880e+02    -0.5005     -0.575     -0.834    25.3435   996.9644 0.0000e+00
     -0.586 2.4308e-16     6.9597     84.760      4.690   4.722649    -0.1195      6.914   451.6131 8.6978e+02    -0.4965     -0.575     -0.834    25.3428   996.9646 0.0000e+00
     -0.586 2.6739e-15     6.9614     84.781      4.921   4.954971    -0.1132      6.912   453.4921 8.7736e+02    -0.4711     -0.575     -0.834    25.3415   996.9651 0.0000e+00
     -0.586 2.9413e-14     6.9633     84.803      4.802   4.835678    -0.1085      6.910   456.9431 8.6956e+02    -0.4553     -0.575     -0.834    25.3408   996.9653 0.0000e+00
     -0.586 3.2354e-13     6.9655     84.828      4.579   4.611100    -0.1055      6.907   457.7190 8.4025e+02    -0.4690     -0.575     -0.834    25.3404   996.9654 0.0000e+00
     -0.586 3.5589e-12     6.9664     84.838      4.364   4.394259    -0.1028      6.903   455.2157 8.0217e+02    -0.4729     -0.575     -0.834    25.3400   996.9656 0.0000e+00
     -0.586 3.9148e-11     6.9663     84.833      4.213   4.241729    -0.1020      6.898   451.3692 7.8256e+02    -0.4368     -0.575     -0.834    25.3400   996.9658 0.0000e+00
     -0.586 4.3063e-10     6.9656     84.822      4.196   4.224390    -0.1132      6.894   445.1103 7.7766e+02    -0.3606     -0.575     -0.834    25.3402   996.9657 0.0000e+00
     -0.586 4.7369e-09     6.9638     84.797      4.220   4.247992    -0.1177      6.889   434.7773 7.6951e+02    -0.2728     -0.575     -0.834    25.3398   996.9657 0.0000e+00
     -0.586 5.2106e-08     6.9620     84.774      4.183   4.210247    -0.1045      6.884   424.7764 7.5216e+02    -0.2273     -0.575     -0.834    25.3383   996.9661 0.0000e+00
     -0.586 5.7317e-07     6.9616     84.765      4.058   4.084875    -0.1004      6.880   417.7153 7.2322e+02    -0.3018     -0.574     -0.833    25.3360   996.9666 0.0000e+00
     -0.586      0.000     6.9606     84.751      3.847   3.872777    -0.1118      6.880   409.3718 6.7736e+02    -0.4524     -0.575     -0.834    25.3342   996.9670 0.0000e+00
     -0.586      0.000     6.9591     84.738      3.649   3.673597    -0.1121      6.871   349.8797 6.2689e+02    -0.5409     -0.574     -0.833    25.3328   996.9675 0.0000e+00
     -0.586      0.001     6.9553     84.742      3.677   3.704399    -0.1038      6.889   241.9977 6.0346e+02    -0.5526     -0.574     -0.833    25.3316   996.9677 0.0000e+00
     -0.586      0.003     6.9399     84.728      4.703   4.752152    -0.1073      7.038   185.8900 6.1143e+02    -0.5291     -0.575     -0.833    25.3292   996.9684 0.0000e+00
     -0.586      0.007     6.9149     84.706      5.868   5.948502    -0.1113      7.338   187.0337 6.3124e+02    -0.5179     -0.574     -0.833    25.3282   996.9686 0.0000e+00
     -0.586      0.010     6.8920     84.706      6.522   6.635317    -0.1081      7.689   195.8567 6.4800e+02    -0.5163     -0.575     -0.833    25.3268   996.9690 0.0000e+00
     -0.583      0.014     6.8761     84.726     10.680  10.901711    -0.1031      7.997   210.4874 6.6371e+02    -0.5089     -0.574     -0.832    25.3296   996.9681 0.0000e+00
     -0.575      0.024     6.8661     84.753     20.373  20.827375    -0.1023      8.234   211.9865 6.8047e+02    -0.5274     -0.563     -0.816    25.4414   996.9394 0.0000e+00
     -0.568      0.042     6.8588     84.772     30.437  31.145670    -0.1082      8.409   186.1920 6.8340e+02    -0.5428     -0.555     -0.804    25.6668   996.8810 0.0000e+00
     -0.564      0.066     6.8534     84.790     35.527  36.386083    -0.1128      8.531   164.2110 6.7499e+02    -0.5318     -0.556     -0.806    25.8600   996.8297 0.0000e+00
     -0.555      0.093     6.8514     84.828     36.452  37.361838    -0.1143      8.615   160.5392 6.8139e+02    -0.5254     -0.551     -0.798    25.9950   996.7946 0.0000e+00
     -0.529      0.119     6.8515     84.882     36.300  37.231279    -0.0921      8.667   162.1026 7.1797e+02    -0.4647     -0.528     -0.765    26.0862   996.7737 0.0000e+00
     -0.484      0.147     6.8510     84.930     36.140  37.092615     0.1206      8.687   161.6040 7.6669e+02     0.4639     -0.477     -0.693    26.1508   996.7604 0.0000e+00
     -0.432      0.178     6.8503     84.975     36.044  37.018259     0.4979      8.690   154.6835 8.0131e+02     2.2144     -0.420     -0.609    26.2067   996.7471 0.0000e+00
     -0.385      0.207     6.8528     85.050     35.974  36.967019     0.7069      8.696   138.5687 8.2702e+02     3.1996     -0.378     -0.549    26.2433   996.7373 0.0000e+00
     -0.340      0.225     6.8635     85.210     35.914  36.917414     0.7753      8.703   119.4803 8.6628e+02     3.3307     -0.337     -0.489    26.2751   996.7289 0.0000e+00
     -0.283      0.227     6.8857     85.488     35.859  36.862813     1.3252      8.707   110.5923 9.0737e+02     3.4070     -0.284     -0.412    26.3119   996.7192 0.0000e+00
     -0.208      0.216     6.9165     85.853     35.819  36.814632     2.3275      8.708   110.1750 9.1427e+02     3.4996     -0.208     -0.302    26.3484   996.7096 0.0000e+00
     -0.128      0.194     6.9497     86.243     35.794  36.779157     2.8707      8.705   110.9075 8.9793e+02     3.5661     -0.115     -0.167    26.3783   996.7020 0.0000e+00
     -0.072      0.161     6.9814     86.619     35.775  36.751225     2.9257      8.700   112.2214 8.8373e+02     3.5877     -0.058     -0.084    26.3982   996.6970 0.0000e+00
     -0.045      0.119     7.0089     86.950     35.760  36.730790     2.9750      8.692   113.9292 8.6545e+02     3.5303     -0.041     -0.057    26.3998   996.6965 0.0000e+00
     -0.033      0.074     7.0292     87.197     35.754  36.722485     3.0585      8.682   115.5529 7.9603e+02     3.4292     -0.032     -0.046    26.3832   996.7010 0.0000e+00
     -0.027      0.034     7.0409     87.340     35.747  36.714282     3.1124      8.672   116.8829 6.9857e+02     3.3819     -0.024     -0.036    26.3677   996.7053 0.0000e+00
     -0.024      0.007     7.0449     87.384     35.731  36.695078     3.1139      8.663   117.9645 6.7418e+02     3.3511     -0.021     -0.032    26.3569   996.7082 0.0000e+00
     -0.025     -0.008     7.0410     87.326     35.721  36.680710     3.0945      8.656   119.0806 7.0418e+02     3.3846     -0.023     -0.033    26.3485   996.7104 0.0000e+00
     -0.032     -0.015     7.0327     87.216     35.711  36.667496     3.0695      8.648   120.4822 7.3680e+02     3.4925     -0.030     -0.043    26.3476   996.7106 0.0000e+00
     -0.042     -0.015     7.0287     87.170     35.705  36.662244     3.0535      8.639   122.0062 7.6671e+02     3.5417     -0.042     -0.061    26.3481   996.7104 0.0000e+00
     -0.049     -0.010     7.0271     87.161     35.718  36.680689     3.0489      8.629   123.2247 7.7995e+02     3.5205     -0.050     -0.072    26.3445   996.7113 0.0000e+00
     -0.053     -0.002     7.0228     87.123     35.730  36.700096     3.0481      8.621   124.2021 7.8355e+02     3.4977     -0.055     -0.079    26.3368   996.7134 0.0000e+00
     -0.052      0.005     7.0233     87.142     35.730  36.706488     3.0695      8.613   125.2193 7.8913e+02     3.5284     -0.054     -0.078    26.3306   996.7151 0.0000e+00
     -0.045      0.010     7.0324     87.267     35.713  36.694510     3.1085      8.607   126.3173 7.8809e+02     3.5639     -0.044     -0.064    26.3325   996.7146 0.0000e+00
     -0.035      0.014     7.0458     87.442     35.697  36.682220     3.1213      8.602   127.5837 7.7825e+02     3.5663     -0.031     -0.045    26.3412   996.7123 0.0000e+00
     -0.031      0.014     7.0549     87.563     35.697  36.684849     3.1116      8.597   128.9153 7.7463e+02     3.5574     -0.028     -0.041    26.3515   996.7096 0.0000e+00
     -0.032      0.013     7.0519     87.532     35.672  36.662829     3.1391      8.590   129.9427 7.8187e+02     3.5549     -0.034     -0.049    26.3600   996.7073 0.0000e+00
     -0.031      0.010     7.0349     87.330     35.613  36.606391     3.2020      8.582   130.6269 7.9173e+02     3.5698     -0.032     -0.045    26.3671   996.7053 0.0000e+00
     -0.028      0.008     7.0122     87.056     35.578  36.573718     3.2393      8.576   131.3378 7.9315e+02     3.5737     -0.026     -0.037    26.3735   996.7036 0.0000e+00
     -0.026      0.007     7.0000     86.913     35.585  36.585152     3.2430      8.572   132.1716 7.8641e+02     3.5682     -0.026     -0.038    26.3773   996.7026 0.0000e+00
     -0.022      0.006     7.0081     87.020     35.614  36.617698     3.2379      8.568   133.1369 7.8636e+02     3.6014     -0.022     -0.032    26.3817   996.7014 0.0000e+00
     -0.020      0.003     7.0337     87.342     35.644  36.649881     3.2293      8.563   134.3191 7.9395e+02     3.6806     -0.018     -0.026    26.3873   996.6999 0.0000e+00
     -0.020      0.002     7.0664     87.748     35.650  36.656908     3.2253      8.558   135.5380 7.9945e+02     3.7386     -0.018     -0.027    26.3930   996.6984 0.0000e+00
     -0.023      0.002     7.0939     88.088     35.634  36.639191     3.2336      8.554   136.6031 8.0118e+02     3.7460     -0.022     -0.032    26.3982   996.6969 0.0000e+00
     -0.024      0.001     7.1050     88.219     35.624  36.626083     3.2433      8.549   137.3896 7.9880e+02     3.6722     -0.025     -0.036    26.4022   996.6959 0.0000e+00
     -0.023      0.001     7.0918     88.044     35.628  36.625356     3.2472      8.544   137.9064 7.9414e+02     3.5675     -0.023     -0.033    26.4050   996.6952 0.0000e+00
     -0.020      0.001     7.0523     87.544     35.637  36.630397     3.2455      8.540   138.3769 7.9077e+02     3.5615     -0.019     -0.028    26.4064   996.6948 0.0000e+00
     -0.018      0.001     6.9963     86.842     35.634  36.623559     3.2405      8.536   138.9489 7.8991e+02     3.5992     -0.017     -0.025    26.4052   996.6951 0.0000e+00
     -0.018      0.000     6.9491     86.250     35.620  36.606149     3.2211      8.532   139.7464 7.9182e+02     3.6636     -0.017     -0.024    26.3999   996.6966 0.0000e+00
     -0.019     -0.003     6.9351     86.072     35.626  36.610293     3.1841      8.529   140.7057 7.9410e+02     3.7505     -0.018     -0.027    26.3928   996.6985 0.0000e+00
     -0.020     -0.005     6.9678     86.476     35.627  36.610188     3.1665      8.526   141.5131 7.9545e+02     3.7647     -0.020     -0.029    26.3871   996.7000 0.0000e+00
     -0.023     -0.005     7.0498     87.492     35.622  36.604880     3.1825      8.523   142.1952 7.9650e+02     3.7691     -0.023     -0.033    26.3819   996.7014 0.0000e+00
     -0.025     -0.005     7.1677     88.955     35.627  36.609586     3.1942      8.520   142.8447 7.9778e+02     3.7710     -0.025     -0.036    26.3776   996.7025 0.0000e+00
     -0.026     -0.004     7.3001     90.599     35.621  36.603616     3.1956      8.517   143.3437 7.9967e+02     3.7550     -0.025     -0.036    26.3753   996.7031 0.0000e+00
     -0.026     -0.002     7.4310     92.225     35.613  36.596174     3.2166      8.516   143.8397 7.9946e+02     3.7720     -0.026     -0.037    26.3731   996.7037 0.0000e+00
     -0.026     -0.001     7.5449     93.640     35.599  36.583071     3.2401      8.514   144.4547 7.9796e+02     3.7804     -0.025     -0.036    26.3720   996.7040 0.0000e+00
     -0.026      0.000     7.6277     94.668     35.589  36.572145     3.2458      8.511   145.0998 7.9832e+02     3.7904     -0.025     -0.036    26.3722   996.7040 0.0000e+00
     -0.026      0.000     7.6772     95.281     35.607  36.591015     3.2503      8.509   145.7893 7.9909e+02     3.7956     -0.026     -0.038    26.3724   996.7039 0.0000e+00
     -0.025      0.001     7.7000     95.562     35.637  36.620810     3.2520      8.507   146.5103 7.9940e+02     3.7771     -0.025     -0.036    26.3738   996.7035 0.0000e+00
     -0.025      0.001     7.7039     95.607     35.633  36.615031     3.2400      8.504   147.1928 7.9981e+02     3.7626     -0.024     -0.034    26.3756   996.7030 0.0000e+00
     -0.025      0.001     7.6955     95.496     35.606  36.584605     3.2265      8.501   147.7608 8.0011e+02     3.7521     -0.025     -0.035    26.3759   996.7029 0.0000e+00
     -0.025      0.001     7.6794     95.287     35.596  36.570290     3.2106      8.498   148.3018 7.9956e+02     3.7156     -0.025     -0.036    26.3752   996.7032 0.0000e+00
     -0.025      0.001     7.6598     95.034     35.599  36.568875     3.1869      8.495   148.9150 7.9864e+02     3.6165     -0.024     -0.035    26.3742   996.7034 0.0000e+00
     -0.024     -0.000     7.6402     94.781     35.602  36.567500     3.1735      8.490   149.4968 8.0148e+02     3.5362     -0.024     -0.034    26.3720   996.7040 0.0000e+00
     -0.024     -0.004     7.6237     94.568     35.592  36.553651     3.1709      8.485   150.0016 8.0676e+02     3.5312     -0.023     -0.034    26.3678   996.7052 0.0000e+00
     -0.024     -0.010     7.6120     94.415     35.569  36.528376     3.1805      8.482   150.5443 8.0825e+02     3.5572     -0.023     -0.033    26.3624   996.7066 0.0000e+00
     -0.025     -0.016     7.6035     94.304     35.559  36.515776     3.2035      8.480   151.1546 8.0660e+02     3.5882     -0.024     -0.035    26.3564   996.7082 0.0000e+00
     -0.029     -0.020     7.5990     94.244     35.574  36.528250     3.2139      8.479   151.7016 8.0607e+02     3.5774     -0.026     -0.038    26.3503   996.7099 0.0000e+00
     -0.038     -0.020     7.5980     94.222     35.600  36.552251     3.2195      8.476   152.2544 8.0667e+02     3.5250     -0.035     -0.052    26.3450   996.7112 0.0000e+00
     -0.051     -0.017     7.5905     94.119     35.605  36.552084     3.2542      8.472   152.8476 8.0625e+02     3.5123     -0.052     -0.076    26.3410   996.7122 0.0000e+00
     -0.059     -0.012     7.5667     93.814     35.583  36.526222     3.3124      8.470   153.3679 8.0539e+02     3.5558     -0.062     -0.090    26.3382   996.7129 0.0000e+00
     -0.059     -0.005     7.5252     93.294     35.553  36.493435     3.3509      8.467   153.8989 8.0445e+02     3.5917     -0.060     -0.087    26.3361   996.7135 0.0000e+00
     -0.053      0.004     7.4735     92.652     35.534  36.473019     3.3566      8.464   154.4498 8.0276e+02     3.5851     -0.050     -0.073    26.3314   996.7148 0.0000e+00
     -0.048      0.012     7.4225     92.021     35.531  36.469786     3.3457      8.460   154.8662 8.0114e+02     3.5742     -0.045     -0.066    26.3236   996.7170 0.0000e+00
     -0.047      0.018     7.3774     91.462     35.516  36.454344     3.2975      8.455   155.1479 8.0090e+02     3.6897     -0.047     -0.068    26.3174   996.7186 0.0000e+00
     -0.044      0.022     7.3375     90.967     35.476  36.413246     3.2245      8.451   155.3610 8.0190e+02     3.9005     -0.046     -0.065    26.3147   996.7193 0.0000e+00
     -0.038      0.023     7.3003     90.503     35.419  36.353702     3.1919      8.446   155.7218 8.0264e+02     4.0250     -0.037     -0.054    26.3143   996.7194 0.0000e+00
     -0.029      0.020     7.2618     90.025     35.373  36.305643     3.1892      8.442   156.4132 8.0354e+02     4.0480     -0.028     -0.042    26.3147   996.7194 0.0000e+00
     -0.019      0.014     7.2160     89.456     35.345  36.276463     3.1922      8.439   157.0956 8.0419e+02     3.9827     -0.018     -0.027    26.3151   996.7193 0.0000e+00
     -0.012      0.006     7.1555     88.705     35.324  36.254779     3.2107      8.435   157.6918 8.0216e+02     3.8572     -0.008     -0.012    26.3149   996.7195 0.0000e+00
     -0.012     -0.001     7.0801     87.769     35.304  36.233877     3.2221      8.429   158.3732 7.9936e+02     3.7763     -0.009     -0.012    26.3135   996.7198 0.0000e+00
     -0.020     -0.007     6.9986     86.755     35.286  36.214143     3.2261      8.423   158.8817 7.9822e+02     3.7579     -0.018     -0.027    26.3114   996.7203 0.0000e+00
     -0.029     -0.009     6.9190     85.766     35.280  36.206593     3.2493      8.417   159.1936 7.9893e+02     3.7012     -0.030     -0.044    26.3113   996.7202 0.0000e+00
     -0.034     -0.009     6.8461     84.859     35.281  36.206062     3.2782      8.413   159.5635 8.0175e+02     3.5816     -0.036     -0.052    26.3119   996.7200 0.0000e+00
     -0.033     -0.006     6.7822     84.061     35.286  36.207716     3.2895      8.410   159.9988 8.0483e+02     3.5242     -0.032     -0.047    26.3103   996.7205 0.0000e+00
     -0.029     -0.001     6.7268     83.370     35.306  36.226584     3.2901      8.408   160.4125 8.0591e+02     3.5645     -0.027     -0.040    26.3087   996.7209 0.0000e+00
     -0.028      0.002     6.6800     82.789     35.323  36.243779     3.2767      8.406   160.7798 8.0532e+02     3.6428     -0.026     -0.037    26.3076   996.7213 0.0000e+00
     -0.029      0.003     6.6419     82.316     35.305  36.225211     3.2497      8.404   161.2563 8.0402e+02     3.7177     -0.028     -0.042    26.3045   996.7221 0.0000e+00
     -0.030      0.002     6.6099     81.918     35.274  36.192485     3.2318      8.402   161.7863 8.0284e+02     3.7483     -0.029     -0.043    26.3002   996.7232 0.0000e+00
     -0.029      0.001     6.5803     81.550     35.248  36.165441     3.2331      8.400   162.1108 8.0286e+02     3.7518     -0.028     -0.041    26.2978   996.7238 0.0000e+00
     -0.027      0.001     6.5494     81.166     35.236  36.152114     3.2400      8.400   162.5133 8.0395e+02     3.7597     -0.026     -0.039    26.2971   996.7241 0.0000e+00
     -0.026      0.001     6.5158     80.749     35.242  36.158279     3.2464      8.398   163.1247 8.0455e+02     3.7775     -0.025     -0.037    26.2966   996.7242 0.0000e+00
     -0.026      0.000     6.4796     80.299     35.261  36.176522     3.2578      8.395   163.6522 8.0458e+02     3.8031     -0.026     -0.037    26.2963   996.7243 0.0000e+00
     -0.027 5.5898e-08     6.4408     79.817     35.267  36.182276     3.2558      8.393   163.9874 8.0584e+02     3.8077     -0.026     -0.037    26.2953   996.7245 0.0000e+00
     -0.028 6.1488e-07     6.4017     79.331     35.250  36.164380     3.2397      8.392   164.2516 8.0722e+02     3.7672     -0.028     -0.040    26.2945   996.7247 0.0000e+00
     -0.028      0.000     6.3647     78.871     35.237  36.150542     3.2370      8.391   164.6105 8.0662e+02     3.7402     -0.029     -0.042    26.2937   996.7249 0.0000e+00
     -0.028      0.000     6.3267     78.398     35.229  36.141906     3.2488      8.389   164.9719 8.0580e+02     3.7756     -0.028     -0.040    26.2927   996.7252 0.0000e+00
     -0.027      0.001     6.2867     77.901     35.212  36.123429     3.2528      8.387   165.2650 8.0793e+02     3.8025     -0.026     -0.038    26.2918   996.7255 0.0000e+00
     -0.027      0.001     6.2486     77.427     35.207  36.117544     3.2421      8.385   165.5725 8.1100e+02     3.8029     -0.025     -0.037    26.2908   996.7258 0.0000e+00
     -0.027      0.001     6.2131     76.984     35.224  36.134227     3.2410      8.383   165.9369 8.1122e+02     3.8126     -0.026     -0.038    26.2900   996.7259 0.0000e+00
     -0.027      0.001     6.1806     76.582     35.225  36.134737     3.2482      8.381   166.3159 8.0910e+02     3.8214     -0.025     -0.037    26.2888   996.7263 0.0000e+00
     -0.027      0.001     6.1511     76.215     35.215  36.123707     3.2418      8.379   166.6273 8.0708e+02     3.8109     -0.026     -0.038    26.2876   996.7266 0.0000e+00
     -0.026      0.000     6.1221     75.855     35.220  36.127802     3.2338      8.377   166.9485 8.0773e+02     3.7839     -0.026     -0.037    26.2865   996.7269 0.0000e+00
     -0.026      0.000     6.0936     75.500     35.214  36.120774     3.2207      8.376   167.3601 8.1035e+02     3.8225     -0.025     -0.036    26.2854   996.7272 0.0000e+00
     -0.026      0.001     6.0679     75.180     35.196  36.102202     3.1956      8.373   167.7322 8.1215e+02     3.9170     -0.025     -0.036    26.2848   996.7273 0.0000e+00
     -0.026      0.001     6.0446     74.890     35.189  36.093659     3.1819      8.372   168.0059 8.1245e+02     3.9440     -0.025     -0.036    26.2843   996.7275 0.0000e+00
     -0.026      0.001     6.0200     74.584     35.177  36.080953     3.1857      8.372   168.3468 8.1207e+02     3.9197     -0.026     -0.037    26.2833   996.7277 0.0000e+00
     -0.026      0.000     5.9935     74.255     35.172  36.075518     3.1887      8.372   168.7570 8.1183e+02     3.9179     -0.025     -0.036    26.2822   996.7281 0.0000e+00
     -0.025 4.2858e-07     5.9680     73.936     35.188  36.091408     3.1839      8.371   169.0937 8.1243e+02     3.9551     -0.024     -0.035    26.2811   996.7284 0.0000e+00
     -0.025      0.000     5.9438     73.635     35.180  36.082661     3.1789      8.369   169.4062 8.1409e+02     4.0091     -0.024     -0.034    26.2800   996.7286 0.0000e+00
     -0.026      0.000     5.9210     73.351     35.133  36.033233     3.1802      8.367   169.7816 8.1567e+02     4.0136     -0.025     -0.036    26.2790   996.7288 0.0000e+00
     -0.026      0.001     5.8996     73.083     35.103  36.001540     3.2001      8.365   170.1911 8.1636e+02     3.9112     -0.026     -0.038    26.2780   996.7291 0.0000e+00
     -0.026      0.001     5.8791     72.828     35.119  36.016819     3.2290      8.363   170.5721 8.1722e+02     3.7872     -0.026     -0.037    26.2768   996.7295 0.0000e+00
     -0.025      0.001     5.8577     72.563     35.131  36.027558     3.2350      8.362   170.8604 8.1765e+02     3.7592     -0.025     -0.036    26.2755   996.7298 0.0000e+00
     -0.024      0.002     5.8349     72.278     35.109  36.004439     3.2287      8.361   171.0956 8.1673e+02     3.7695     -0.023     -0.034    26.2741   996.7302 0.0000e+00
     -0.024      0.002     5.8128     72.001     35.097  35.991166     3.2313      8.361   171.3515 8.1578e+02     3.7808     -0.023     -0.033    26.2728   996.7305 0.0000e+00
     -0.024      0.002     5.7913     71.734     35.101  35.994013     3.2322      8.361   171.5446 8.1538e+02     3.7973     -0.023     -0.033    26.2716   996.7309 0.0000e+00
     -0.023      0.001     5.7707     71.478     35.083  35.975388     3.2304      8.360   171.7099 8.1587e+02     3.8046     -0.023     -0.033    26.2702   996.7313 0.0000e+00
     -0.022      0.000     5.7516     71.240     35.066  35.956375     3.2270      8.359   172.0597 8.1731e+02     3.8043     -0.022     -0.032    26.2687   996.7317 0.0000e+00
     -0.022      0.000     5.7329     71.005     35.065  35.954543     3.2260      8.358   172.5047 8.1917e+02     3.7934     -0.021     -0.031    26.2673   996.7320 0.0000e+00
     -0.023     -0.001     5.7136     70.764     35.064  35.953242     3.2176      8.356   172.8745 8.2033e+02     3.8047     -0.022     -0.033    26.2659   996.7324 0.0000e+00
     -0.025     -0.001     5.6945     70.525     35.054  35.940638     3.1863      8.352   173.1746 8.1975e+02     3.8096     -0.024     -0.035    26.2645   996.7329 0.0000e+00
     -0.025     -0.001     5.6761     70.296     35.044  35.929089     3.1679      8.350   173.4667 8.1899e+02     3.7875     -0.024     -0.035    26.2632   996.7331 0.0000e+00
     -0.024     -0.001     5.6582     70.073     35.056  35.940538     3.1776      8.350   173.8254 8.1881e+02     3.7987     -0.023     -0.034    26.2616   996.7335 0.0000e+00
     -0.024     -0.001     5.6412     69.860     35.068  35.952129     3.1829      8.349   174.0697 8.1830e+02     3.8476     -0.023     -0.033    26.2601   996.7339 0.0000e+00
     -0.025     -0.001     5.6250     69.659     35.059  35.942297     3.1791      8.348   174.1836 8.1805e+02     3.8545     -0.025     -0.035    26.2586   996.7343 0.0000e+00
     -0.025     -0.001     5.6095     69.464     35.067  35.948601     3.1759      8.348   174.4277 8.1890e+02     3.8159     -0.025     -0.036    26.2569   996.7348 0.0000e+00
     -0.025     -0.001     5.5950     69.283     35.083  35.964872     3.1704      8.348   174.7839 8.2026e+02     3.8070     -0.025     -0.037    26.2555   996.7351 0.0000e+00
     -0.025     -0.000     5.5815     69.114     35.068  35.948612     3.1721      8.348   175.0493 8.2128e+02     3.8129     -0.025     -0.036    26.2543   996.7356 0.0000e+00
     -0.026 -1.521e-08     5.5712     68.986     35.063  35.942413     3.1791      8.348   175.2270 8.2193e+02     3.7883     -0.025     -0.036    26.2529   996.7359 0.0000e+00
     -0.026 -1.673e-07     5.5633     68.887     35.074  35.953389     3.1774      8.348   175.4698 8.2137e+02     3.7393     -0.026     -0.038    26.2514   996.7362 0.0000e+00
     -0.025 2.0860e-07     5.5537     68.765     35.076  35.954386     3.1775      8.347   175.7479 8.2092e+02     3.7113     -0.024     -0.035    26.2499   996.7367 0.0000e+00
     -0.024      0.000     5.5437     68.640     35.077  35.954467     3.1805      8.345   176.0083 8.2243e+02     3.7443     -0.023     -0.033    26.2490   996.7369 0.0000e+00
     -0.025      0.000     5.5356     68.538     35.077  35.954371     3.1785      8.345   176.2958 8.2280e+02     3.7791     -0.025     -0.037    26.2480   996.7372 0.0000e+00
     -0.026      0.001     5.5291     68.457     35.077  35.953217     3.1794      8.345   176.5567 8.2175e+02     3.7712     -0.026     -0.038    26.2468   996.7375 0.0000e+00
     -0.026      0.001     5.5230     68.381     35.065  35.940514     3.1749      8.344   176.7536 8.2265e+02     3.7471     -0.025     -0.036    26.2455   996.7379 0.0000e+00
     -0.025      0.002     5.5164     68.298     35.053  35.927715     3.1673      8.344   177.0422 8.2439e+02     3.7494     -0.024     -0.035    26.2442   996.7382 0.0000e+00
     -0.024      0.003     5.5110     68.230     35.052  35.925407     3.1740      8.344   177.4648 8.2388e+02     3.7989     -0.024     -0.034    26.2433   996.7384 0.0000e+00
     -0.022      0.003     5.5074     68.185     35.040  35.912608     3.1780      8.343   177.7330 8.2175e+02     3.8214     -0.022     -0.032    26.2424   996.7386 0.0000e+00
     -0.021      0.002     5.5039     68.140     35.028  35.899894     3.1718      8.342   177.7035 8.2037e+02     3.7929     -0.020     -0.030    26.2416   996.7389 0.0000e+00
     -0.021      0.002     5.4978     68.062     35.028  35.898625     3.1764      8.342   177.7109 8.2051e+02     3.7812     -0.020     -0.029    26.2409   996.7391 0.0000e+00
     -0.021      0.001     5.4889     67.950     35.027  35.897261     3.1994      8.342   177.9947 8.2175e+02     3.7459     -0.020     -0.030    26.2402   996.7393 0.0000e+00
     -0.021      0.000     5.4792     67.829     35.015  35.883403     3.2245      8.343   178.2957 8.2251e+02     3.6280     -0.021     -0.031    26.2392   996.7395 0.0000e+00
     -0.021     -0.001     5.4686     67.696     34.991  35.858015     3.2373      8.343   178.5111 8.2321e+02     3.5354     -0.021     -0.030    26.2380   996.7399 0.0000e+00
     -0.021     -0.001     5.4559     67.539     34.978  35.844167     3.2420      8.342   178.7918 8.2336e+02     3.5111     -0.020     -0.030    26.2367   996.7402 0.0000e+00
     -0.021      0.000     5.4413     67.355     34.978  35.842907     3.2383      8.341   179.1083 8.2186e+02     3.5641     -0.021     -0.031    26.2355   996.7406 0.0000e+00
     -0.021 -4.277e-07     5.4258     67.162     34.979  35.842783     3.2348      8.340   179.4122 8.2119e+02     3.7180     -0.021     -0.031    26.2341   996.7409 0.0000e+00
     -0.022      0.000     5.4110     66.977     34.979  35.842658     3.2438      8.341   179.7135 8.2172e+02     3.7984     -0.022     -0.032    26.2328   996.7413 0.0000e+00
     -0.022      0.000     5.3969     66.801     34.979  35.841400     3.2430      8.342   179.9977 8.2182e+02     3.7503     -0.021     -0.031    26.2317   996.7415 0.0000e+00
     -0.021     -0.001     5.3831     66.629     34.966  35.827565     3.2245      8.343   180.2675 8.2092e+02     3.6927     -0.021     -0.030    26.2304   996.7419 0.0000e+00
     -0.021     -0.001     5.3686     66.448     34.942  35.802324     3.2208      8.343   180.5664 8.2000e+02     3.6260     -0.020     -0.030    26.2288   996.7423 0.0000e+00
     -0.022     -0.001     5.3530     66.253     34.931  35.790084     3.2324      8.342   180.8588 8.1950e+02     3.5666     -0.021     -0.031    26.2275   996.7426 0.0000e+00
     -0.023     -0.000     5.3375     66.060     34.948  35.806518     3.2427      8.342   181.0496 8.1853e+02     3.5652     -0.023     -0.033    26.2264   996.7429 0.0000e+00
     -0.023      0.003     5.3228     65.876     35.015  35.874086     3.2676      8.341   181.0663 8.1787e+02     3.6745     -0.024     -0.034    26.2255   996.7432 0.0000e+00
     -0.023      0.009     5.3103     65.720     35.111  35.972337     3.2997      8.339   180.8884 8.1789e+02     3.8718     -0.023     -0.034    26.2245   996.7434 0.0000e+00
     -0.022      0.019     5.3081     65.693     35.180  36.042414     3.3093      8.334   180.2763 8.1807e+02     3.9838     -0.022     -0.032    26.2231   996.7438 0.0000e+00
     -0.019      0.034     5.3299     65.967     35.221  36.086686     3.3058      8.327   179.4298 8.1117e+02     4.0132     -0.021     -0.030    26.2220   996.7441 0.0000e+00
     -0.012      0.055     5.3875     66.687     35.194  36.063341     3.3107      8.317   178.9985 7.5702e+02     4.0307     -0.015     -0.021    26.2209   996.7445 0.0000e+00
      0.003      0.077     5.4896     67.962     35.078  35.950568     3.4022      8.311   178.9338 6.8363e+02     4.0644      0.000      0.001    26.2194   996.7449 0.0000e+00
      0.025      0.096     5.6421     69.858     34.991  35.865628     3.5710      8.309   179.0765 6.6583e+02     4.1594      0.021      0.030    26.2188   996.7452 0.0000e+00
      0.057      0.111     5.8493     72.423     34.987  35.861440     3.6524      8.307   179.2611 6.2700e+02     4.2274      0.050      0.073    26.2212   996.7448 0.0000e+00
      0.098      0.126     6.1137     75.690     35.028  35.899940     3.6672      8.304   179.5321 5.3449e+02     4.2313      0.098      0.143    26.2280   996.7431 0.0000e+00
      0.135      0.139     6.4169     79.437     35.080  35.950295     3.8026      8.302   180.2031 4.7875e+02     4.1740      0.139      0.202    26.2364   996.7410 0.0000e+00
      0.161      0.148     6.7171     83.151     35.217  36.089447     4.0320      8.301   180.9207 4.4782e+02     4.0600      0.154      0.223    26.2461   996.7384 0.0000e+00
      0.193      0.151     6.9799     86.403     35.497  36.376479     4.1517      8.302   181.5831 3.9891e+02     3.9985      0.181      0.262    26.2468   996.7384 0.0000e+00
      0.240      0.150     7.2169     89.333     35.745  36.628066     4.1665      8.303   182.5333 3.4523e+02     3.9881      0.235      0.340    26.2371   996.7412 0.0000e+00
      0.290      0.150     7.4894     92.696     35.838  36.719456     4.2535      8.303   183.5482 3.0463e+02     3.9667      0.288      0.417    26.2328   996.7426 0.0000e+00
      0.332      0.154     7.8369     96.984     35.843  36.719796     4.4155      8.301   184.3888 2.8275e+02     3.9696      0.332      0.482    26.2326   996.7429 0.0000e+00
      0.362      0.157     8.2269    101.793     35.826  36.695626     4.5030      8.299   185.0395 2.7219e+02     3.9909      0.357      0.518    26.2332   996.7430 0.0000e+00
      0.388      0.160     8.5992    106.378     35.820  36.681096     4.5231      8.299   185.4785 2.5813e+02     3.9941      0.373      0.542    26.2313   996.7436 0.0000e+00
      0.428      0.164     8.9200    110.324     35.818  36.671046     4.6677      8.301   185.9118 2.3593e+02     4.0414      0.416      0.604    26.2248   996.7455 0.0000e+00
      0.479      0.169     9.1770    113.477     35.794  36.637571     4.9333      8.304   186.4059 2.1272e+02     4.1690      0.471      0.682    26.2174   996.7478 0.0000e+00
      0.531      0.174     9.3559    115.662     35.760  36.593698     5.0814      8.308   186.8929 1.9338e+02     4.2600      0.521      0.757    26.2076   996.7507 0.0000e+00
      0.580      0.173     9.4472    116.766     35.760  36.584876     5.1058      8.310   187.4123 1.7959e+02     4.2565      0.572      0.829    26.1955   996.7541 0.0000e+00
      0.623      0.167     9.4546    116.836     35.777  36.594357     5.1839      8.309   188.0394 1.6864e+02     4.1915      0.612      0.887    26.1845   996.7573 0.0000e+00
      0.662      0.160     9.3978    116.116     35.770  36.581380     5.3236      8.306   188.8833 1.5808e+02     4.0971      0.649      0.941    26.1726   996.7607 0.0000e+00
      0.699      0.158     9.3095    115.005     35.751  36.554911     5.3997      8.300   189.7857 1.4886e+02     4.0327      0.686      0.996    26.1580   996.7647 0.0000e+00
      0.735      0.159     9.2173    113.837     35.735  36.528197     5.4020      8.293   190.4327 1.4111e+02     4.0032      0.722      1.048    26.1461   996.7680 0.0000e+00
      0.772      0.164     9.1323    112.759     35.729  36.512248     5.4113      8.288   190.9412 1.3396e+02     3.9694      0.753      1.094    26.1361   996.7708 0.0000e+00
      0.814      0.169     9.0501    111.721     35.713  36.489001     5.5037      8.284   191.7186 1.2597e+02     3.9515      0.794      1.153    26.1283   996.7731 0.0000e+00
      0.864      0.174     8.9707    110.715     35.672  36.437517     5.6617      8.281   192.6913 1.1802e+02     3.9838      0.849      1.231    26.1209   996.7753 0.0000e+00
      0.913      0.175     8.9042    109.861     35.645  36.397526     5.7427      8.278   193.4950 1.1207e+02     4.0322      0.897      1.301    26.1037   996.7801 0.0000e+00
      0.959      0.172     8.8517    109.176     35.647  36.386281     5.7555      8.277   194.1234 1.0717e+02     4.0451      0.941      1.365    26.0877   996.7846 0.0000e+00
      1.003      0.166     8.8057    108.576     35.638  36.365000     5.8507      8.277   194.6096 1.0260e+02     4.0080      0.986      1.429    26.0813   996.7865 0.0000e+00
      1.044      0.158     8.7628    108.013     35.616  36.330607     6.0188      8.276   194.9856 9.8476e+01     3.9775      1.024      1.486    26.0693   996.7898 0.0000e+00
      1.081      0.150     8.7237    107.499     35.586  36.287782     6.1055      8.275   195.4872 9.4445e+01     4.0032      1.060      1.538    26.0496   996.7952 0.0000e+00
      1.118      0.145     8.6924    107.070     35.542  36.228020     6.1106      8.273   196.2000 9.0886e+01     4.0572      1.098      1.592    26.0307   996.8003 0.0000e+00
      1.154      0.141     8.6716    106.739     35.522  36.179238     6.1758      8.269   196.9795 8.7643e+01     4.1707      1.132      1.641    26.0145   996.8048 0.0000e+00
      1.188      0.140     8.6580    106.467     35.523  36.142219     6.3121      8.264   197.5985 8.4328e+01     4.3602      1.164      1.689    25.9968   996.8098 0.0000e+00
      1.222      0.140     8.6421    106.156     35.520  36.097720     6.3976      8.257   198.0060 8.1176e+01     4.4799      1.199      1.739    25.9809   996.8141 0.0000e+00
      1.257      0.139     8.6122    105.675     35.550  36.085426     6.4201      8.249   198.3783 7.8038e+01     4.4722      1.232      1.787    25.9663   996.8181 0.0000e+00
      1.294      0.134     8.5605    104.940     35.621  36.120456     6.5324      8.244   198.7448 7.4780e+01     4.3982      1.268      1.840    25.9266   996.8288 0.0000e+00
      1.332      0.125     8.4858    103.954     35.666  36.140371     6.7409      8.240   198.9953 7.1846e+01     4.3061      1.309      1.899    25.8663   996.8449 0.0000e+00
      1.367      0.111     8.3965    102.834     35.671  36.135768     6.8529      8.237   199.2568 6.9419e+01     4.2435      1.344      1.948    25.8071   996.8607 0.0000e+00
      1.396      0.096     8.3091    101.773     35.660  36.128263     6.8802      8.237   199.8407 6.7529e+01     4.2308      1.372      1.989    25.7454   996.8771 0.0000e+00
      1.417      0.081     8.2406    100.951     35.640  36.113108     6.9666      8.236   200.7209 6.6269e+01     4.4144      1.394      2.022    25.6886   996.8922 0.0000e+00
      1.430      0.071     8.2021    100.478     35.670  36.142956     7.0918      8.235   201.5537 6.5319e+01     4.7273      1.404      2.036    25.6488   996.9026 0.0000e+00
      1.440      0.067     8.1954    100.353     35.777  36.235261     7.1624      8.234   202.0806 6.4338e+01     4.8677      1.411      2.047    25.6367   996.9058 0.0000e+00
      1.452      0.070     8.2122    100.458     35.921  36.340552     7.1783      8.234   202.4451 6.3283e+01     4.8992      1.422      2.064    25.6493   996.9026 0.0000e+00
      1.469      0.075     8.2376    100.628     36.097  36.463895     7.1711      8.234   202.8636 6.1859e+01     5.0431      1.437      2.084    25.6624   996.8993 0.0000e+00
      1.492      0.080     8.2538    100.687     36.270  36.584013     7.1451      8.234   203.2689 6.0074e+01     5.2629      1.462      2.121    25.6647   996.8988 0.0000e+00
      1.520      0.084     8.2414    100.428     36.440  36.713789     7.1241      8.233   203.6461 5.8395e+01     5.3615      1.491      2.163    25.6474   996.9036 0.0000e+00
      1.545      0.086     8.1881     99.703     36.772  37.017383     7.1171      8.231   204.0686 5.6925e+01     5.3503      1.517      2.199    25.5880   996.9192 0.0000e+00
      1.567      0.089     8.0941     98.487     37.496  37.715772     7.1212      8.227   204.9354 5.5722e+01     5.3575      1.539      2.232    25.5008   996.9421 0.0000e+00
      1.585      0.091     7.9662     96.840     38.308  38.492980     7.1907      8.224   206.6410 5.4763e+01     5.3825      1.555      2.255    25.4205   996.9633 0.0000e+00
      1.602      0.092     7.8162     94.910     38.594  38.733826     7.3244      8.221   208.4291 5.3574e+01     5.3904      1.568      2.275    25.3622   996.9785 0.0000e+00
      1.626      0.094     7.6527     92.829     38.564  38.659996     7.4020      8.216   209.5192 5.1930e+01     5.3879      1.592      2.307    25.3265   996.9879 0.0000e+00
      1.656      0.094     7.4705     90.546     38.617  38.679395     7.4185      8.211   210.1855 5.0163e+01     5.3846      1.624      2.357    25.2931   996.9969 0.0000e+00
      1.687      0.091     7.2620     87.953     38.683  38.714405     7.4805      8.208   210.5483 4.8668e+01     5.3835      1.656      2.404    25.2419   997.0107 0.0000e+00
      1.712      0.086     7.0407     85.202     38.643  38.638899     7.5885      8.205   210.8089 4.7523e+01     5.3744      1.680      2.436    25.1724   997.0288 0.0000e+00
      1.731      0.080     6.8341     82.625     38.507  38.464673     7.6500      8.200   211.2712 4.6598e+01     5.3400      1.699      2.463    25.1119   997.0443 0.0000e+00
      1.746      0.074     6.6522     80.345     38.279  38.194753     7.6513      8.195   211.7498 4.5799e+01     5.3285      1.713      2.485    25.0753   997.0540 0.0000e+00
      1.760      0.072     6.4944     78.347     37.982  37.850862     7.5605      8.190   212.2082 4.4860e+01     5.3337      1.725      2.500    25.0371   997.0638 0.0000e+00
      1.777      0.074     6.3655     76.684     37.796  37.607436     7.3929      8.185   212.7692 4.3655e+01     5.3375      1.741      2.525    24.9891   997.0762 0.0000e+00
      1.797      0.080     6.2690     75.394     37.666  37.409611     7.2988      8.177   213.4573 4.2413e+01     5.3410      1.762      2.555    24.9410   997.0885 0.0000e+00
      1.819      0.090     6.2090     74.535     37.502  37.172695     7.2628      8.165   214.2469 4.1206e+01     5.3429      1.784      2.586    24.8861   997.1026 0.0000e+00
      1.841      0.101     6.1855     74.109     37.434  37.027878     6.9663      8.154   215.0885 3.9982e+01     5.5241      1.806      2.620    24.8260   997.1178 0.0000e+00
      1.866      0.109     6.1782     73.886     37.473  36.991478     6.4193      8.146   215.8032 3.8538e+01     5.8609      1.827      2.650    24.7497   997.1373 0.0000e+00
      1.896      0.113     6.1535     73.472     37.534  36.986371     6.1201      8.139   216.1781 3.6677e+01     6.0403      1.857      2.692    24.6549   997.1615 0.0000e+00
      1.933      0.111     6.0803     72.500     37.569  36.966036     6.0969      8.133   216.4372 3.4771e+01     6.0534      1.897      2.751    24.5577   997.1861 0.0000e+00
      1.968      0.102     5.9437     70.795     37.583  36.935941     6.0609      8.127   216.9577 3.3185e+01     6.0529      1.932      2.802    24.4488   997.2136 0.0000e+00
      1.996      0.089     5.7561     68.501     37.622  36.939806     5.9804      8.121   217.6522 3.1927e+01     6.0671      1.960      2.843    24.3458   997.2395 0.0000e+00
      2.017      0.073     5.5471     65.971     37.659  36.949232     5.9286      8.116   218.1237 3.1015e+01     6.0614      1.981      2.873    24.2606   997.2609 0.0000e+00
      2.028      0.058     5.3385     63.460     37.651  36.922937     5.9199      8.112   218.4431 3.0357e+01     6.0490      1.991      2.887    24.1859   997.2796 0.0000e+00
      2.034      0.045     5.1438     61.123     37.617  36.875732     5.9451      8.109   218.9325 2.9631e+01     6.1140      1.995      2.892    24.1300   997.2935 0.0000e+00
      2.042      0.040     4.9771     59.123     37.577  36.822772     6.2426      8.105   219.4815 2.8683e+01     6.5850      2.002      2.903    24.0835   997.3050 0.0000e+00
      2.052      0.041     4.8527     57.620     37.498  36.726902     6.7860      8.101   220.0899 2.7736e+01     7.3850      2.014      2.921    24.0492   997.3136 0.0000e+00
      2.061      0.050     4.7772     56.683     37.338  36.541691     7.0871      8.095   220.7825 2.6834e+01     7.8240      2.021      2.932    24.0265   997.3192 0.0000e+00
      2.070      0.064     4.7372     56.143     37.199  36.360582     7.1952      8.089   221.4888 2.5889e+01     7.8941      2.028      2.943    24.0075   997.3239 0.0000e+00
      2.085      0.078     4.7082     55.715     37.149  36.250809     8.0932      8.084   222.1766 2.4820e+01     8.1662      2.042      2.961    23.9935   997.3274 0.0000e+00
      2.109      0.089     4.6676     55.146     37.127  36.166418     9.7258      8.079   222.6452 2.3503e+01     8.6889      2.064      2.994    23.9713   997.3330 0.0000e+00
      2.141      0.098     4.5936     54.190     37.122  36.101774    10.6184      8.074   222.8533 2.2150e+01     8.9713      2.099      3.045    23.9370   997.3415 0.0000e+00
      2.173      0.102     4.4727     52.695     37.112  36.040360    10.6927      8.070   222.9719 2.0976e+01     8.9261      2.133      3.093    23.8762   997.3565 0.0000e+00
      2.200      0.102     4.3089     50.715     37.041  35.931560    10.5197      8.065   223.1327 1.9906e+01     8.3387      2.159      3.131    23.7845   997.3791 0.0000e+00
      2.225      0.100     4.1111     48.340     36.881  35.738281    10.1826      8.061   223.3351 1.8940e+01     7.2435      2.184      3.167    23.6994   997.4000 0.0000e+00
      2.247      0.097     3.8924     45.709     36.733  35.544015     9.9979      8.058   223.6122 1.8065e+01     6.5984      2.204      3.196    23.6183   997.4199 0.0000e+00
      2.267      0.095     3.6695     43.021     36.741  35.486709     9.9690      8.054   223.9015 1.7128e+01     6.4709      2.221      3.223    23.5424   997.4383 0.0000e+00
      2.291      0.094     3.4498     40.382     36.806  35.489596     9.7724      8.050   224.1661 1.6109e+01     6.1601      2.245      3.256    23.4951   997.4498 0.0000e+00
      2.319      0.091     3.2298     37.766     36.810  35.451899     9.4156      8.046   224.5750 1.5114e+01     5.6583      2.274      3.297    23.4538   997.4599 0.0000e+00
      2.347      0.086     3.0010     35.061     36.803  35.411674     9.2266      8.043   225.0585 1.4226e+01     5.4183      2.304      3.341    23.3868   997.4761 0.0000e+00
      2.370      0.080     2.7686     32.319     36.808  35.383997     9.1345      8.040   225.4526 1.3486e+01     5.3883      2.327      3.375    23.2830   997.5011 0.0000e+00
      2.387      0.073     2.5473     29.712     36.827  35.371091     8.3540      8.036   225.8126 1.2841e+01     5.1978      2.341      3.395    23.1931   997.5228 0.0000e+00
      2.401      0.067     2.3401     27.272     36.874  35.382522     6.9509      8.033   226.3134 1.2229e+01     4.8847      2.355      3.415    23.1470   997.5338 0.0000e+00
      2.416      0.063     2.1490     25.018     36.929  35.395220     6.1891      8.030   226.8622 1.1661e+01     4.7158      2.369      3.436    23.1058   997.5437 0.0000e+00
      2.430      0.063     1.9864     23.098     36.980  35.397632     6.1230      8.026   227.2862 1.1149e+01     4.6954      2.383      3.457    23.0581   997.5550 0.0000e+00
      2.445      0.065     1.8573     21.569     37.047  35.411618     6.1082      8.022   227.5675 1.0644e+01     4.7037      2.397      3.477    23.0189   997.5644 0.0000e+00
      2.462      0.067     1.7556     20.360     37.127  35.437316     6.0627      8.019   227.6815 1.0122e+01     4.7840      2.413      3.500    22.9771   997.5744 0.0000e+00
      2.482      0.068     1.6695     19.339     37.194  35.454386     6.0058      8.015   227.8909 9.6414e+00     4.9116      2.434      3.530    22.9189   997.5882 0.0000e+00
      2.501      0.068     1.5795     18.277     37.279  35.491014     5.9839      8.011   228.3782 9.2504e+00     4.9687      2.454      3.559    22.8579   997.6027 0.0000e+00
      2.518      0.068     1.4775     17.078     37.464  35.626237     5.9799      8.008   228.8407 8.9096e+00     4.9499      2.470      3.582    22.7885   997.6192 0.0000e+00
      2.533      0.068     1.3706     15.826     37.779  35.883382     5.9994      8.004   229.0951 8.5809e+00     4.9149      2.484      3.603    22.7159   997.6363 0.0000e+00
      2.549      0.069     1.2586     14.514     38.222  36.251672     6.0555      7.999   229.3037 8.2784e+00     4.9382      2.500      3.626    22.6542   997.6508 0.0000e+00
      2.566      0.071     1.1398     13.122     38.852  36.778639     6.1037      7.994   229.5559 8.0057e+00     5.0013      2.517      3.650    22.5953   997.6646 0.0000e+00
      2.584      0.074     1.0168     11.685     39.691  37.494339     6.2183      7.989   229.8221 7.7532e+00     5.0231      2.534      3.676    22.5404   997.6774 0.0000e+00
      2.604      0.079     0.8909     10.220     40.757  38.430638     7.3630      7.984   230.1128 7.4964e+00     5.2993      2.553      3.703    22.4906   997.6892 0.0000e+00
      2.625      0.084     0.7664      8.779     42.797  40.291574     9.4625      7.979   230.4038 7.2173e+00     5.8829      2.573      3.732    22.4273   997.7041 0.0000e+00
      2.647      0.089     0.6447      7.376     45.989  43.234741    10.6220      7.974   230.5870 6.9293e+00     6.2134      2.595      3.764    22.3309   997.7266 0.0000e+00
      2.671      0.092     0.5241      5.988     48.954  45.953727    10.8476      7.969   230.6924 6.6635e+00     6.3135      2.619      3.799    22.2231   997.7518 0.0000e+00
      2.696      0.092     0.4047      4.617     50.838  47.641090    12.2082      7.964   230.9041 6.4226e+00     7.0921      2.644      3.834    22.1358   997.7721 0.0000e+00
      2.721      0.088     0.2949      3.360     51.263  47.950925    14.6839      7.959   231.2537 6.1773e+00     8.4510      2.667      3.868    22.0691   997.7880 0.0000e+00
      2.746      0.082     0.2045      2.326     50.227  46.905527    16.0286      7.954   231.7366 5.9573e+00     9.1436      2.694      3.907    22.0044   997.8040 0.0000e+00
      2.768      0.074     0.1358      1.544     49.085  45.797137    16.1382      7.949   232.3550 5.7923e+00     9.2398      2.717      3.941    21.9354   997.8208 0.0000e+00
      2.785      0.068     0.0894      1.016     50.170  46.805719    15.9832      7.944   232.9656 5.6652e+00     9.9415      2.732      3.963    21.8568   997.8393 0.0000e+00
      2.797      0.066     0.0616      0.699     54.356  50.716680    15.6703      7.936   233.1821 5.5605e+00    11.2378      2.743      3.978    21.7605   997.8612 0.0000e+00
      2.808      0.067     0.0501      0.569     58.950  54.975758    15.4943      7.925   232.7361 5.4545e+00    11.9351      2.753      3.993    21.6742   997.8801 0.0000e+00
      2.821      0.072     0.0561      0.637     61.066  56.885885    15.4669      7.914   231.8743 5.3097e+00    11.9488      2.766      4.011    21.6297   997.8894 0.0000e+00
      2.841      0.079     0.0740      0.839     61.384  57.103758    15.4183      7.901   230.8507 5.0901e+00    11.8620      2.783      4.036    21.6358   997.8882 0.0000e+00
      2.866      0.085     0.0962      1.090     62.761  58.308886    14.9239      7.884   229.7376 4.8066e+00    11.2137      2.810      4.075    21.6611   997.8846 0.0000e+00
      2.894      0.087     0.1185      1.340     65.719  60.972027    14.0063      7.867   228.6543 4.5181e+00    10.0092      2.840      4.118    21.6388   997.8916 0.0000e+00
      2.919      0.086     0.1388      1.566     68.660  63.567502    13.5046      7.852   227.4757 4.2785e+00     9.3264      2.863      4.153    21.5755   997.9063 0.0000e+00
      2.940      0.081     0.1569      1.764     71.293  65.794778    13.4621      7.839   225.2095 4.1060e+00     9.2176      2.885      4.185    21.5052   997.9216 0.0000e+00
      2.960      0.072     0.1714      1.921     73.653  67.689020    13.5361      7.827   221.3871 3.9703e+00     8.9880      2.904      4.211    21.4478   997.9348 0.0000e+00
      2.977      0.061     0.1827      2.039     75.413  68.989356    13.6961      7.816   217.2240 3.8483e+00     8.6477      2.920      4.234    21.3989   997.9471 0.0000e+00
      2.992      0.050     0.1912      2.126     76.558  69.755738    13.7925      7.806   213.5910 3.7581e+00     8.5118      2.936      4.258    21.3080   997.9681 0.0000e+00
      3.004      0.040     0.1948      2.160     77.359  70.279498    13.8264      7.794   210.8440 3.7063e+00     8.5253      2.947      4.274    21.1618   998.0012 0.0000e+00
      3.012      0.030     0.1933      2.141     77.737  70.489862    14.0633      7.782   209.3925 3.6813e+00     8.3838      2.955      4.286    20.9600   998.0459 0.0000e+00
      3.017      0.021     0.1888      2.089     77.130  69.883051    14.4975      7.772   208.5161 3.6706e+00     8.0787      2.960      4.293    20.7276   998.0965 0.0000e+00
      3.019      0.015     0.1827      2.023     75.674  68.600865    14.7329      7.762   207.4748 3.6631e+00     7.8843      2.961      4.294    20.5327   998.1382 0.0000e+00
      3.021      0.010     0.1771      1.964     74.620  67.765758    14.7589      7.754   206.3538 3.6539e+00     7.8688      2.963      4.297    20.4041   998.1657 0.0000e+00
      3.023      0.007     0.1711      1.902     74.758  68.050617    14.8123      7.746   205.2862 3.6442e+00     8.1209      2.965      4.300    20.3204   998.1835 0.0000e+00
      3.024      0.005     0.1648      1.834     74.947  68.358107    14.9009      7.737   204.4612 3.6407e+00     8.5737      2.966      4.301    20.2711   998.1937 0.0000e+00
      3.026      0.005     0.1608      1.791     73.227  66.843014    14.9383      7.728   203.6917 3.6532e+00     8.7879      2.967      4.303    20.3018   998.1866 0.0000e+00
      3.026      0.004     0.1604      1.787     69.575  63.525612    14.8130      7.720   202.5213 3.6794e+00     8.7442      2.968      4.304    20.3952   998.1665 0.0000e+00
      3.027      0.004     0.1611      1.796     66.164  60.473583    13.4812      7.713   201.0647 3.7027e+00     8.2744      2.969      4.306    20.5068   998.1431 0.0000e+00
      3.028      0.004     0.1615      1.804     64.545  59.113153    11.0602      7.705   199.6747 3.7168e+00     7.4329      2.970      4.307    20.6296   998.1175 0.0000e+00
      3.029      0.003     0.1635      1.831     64.155  58.896957     9.7475      7.698   198.6202 3.7309e+00     6.9931      2.971      4.309    20.6493   998.1128 0.0000e+00
      3.030      0.003     0.1674      1.878     63.796  58.685884     9.6080      7.692   197.9516 3.7542e+00     6.9874      2.971      4.310    20.6243   998.1165 0.0000e+00
      3.031      0.003     0.1750      1.965     63.623  58.594640     9.2616      7.687   197.2694 3.7806e+00     7.0699      2.972      4.311    20.6852   998.1022 0.0000e+00
      3.031      0.002     0.1886      2.118     63.913  58.874076     8.6367      7.682   196.4795 3.8092e+00     7.1709      2.973      4.312    20.7776   998.0819 0.0000e+00
      3.032      0.002     0.2057      2.309     64.333  59.205123     8.2862      7.677   195.8868 3.8320e+00     7.1927      2.973      4.312    20.9046   998.0547 0.0000e+00
      3.032      0.001     0.2245      2.516     64.816  59.547134     8.2401      7.672   195.4378 3.8249e+00     7.1691      2.974      4.313    21.0093   998.0319 0.0000e+00
      3.032      0.001     0.2452      2.745     64.945  59.577725     8.2100      7.668   194.9238 3.8055e+00     7.1801      2.974      4.313    21.0537   998.0221 0.0000e+00
      3.032      0.001     0.2655      2.971     64.550  59.193576     7.9473      7.663   194.3175 3.8123e+00     7.2933      2.974      4.313    21.0756   998.0175 0.0000e+00
      3.032      0.000     0.2830      3.168     64.177  58.905698     7.4652      7.659   193.7003 3.8412e+00     7.4572      2.974      4.313    21.0253   998.0285 0.0000e+00
      3.033 1.8642e-08     0.2984      3.347     64.173  59.020150     7.2020      7.654   193.2251 3.8538e+00     7.4894      2.974      4.313    20.9255   998.0505 0.0000e+00
      3.033 2.0506e-07     0.3117      3.504     65.013  59.942113     7.1749      7.649   193.0458 3.8484e+00     7.4204      2.974      4.313    20.8417   998.0686 0.0000e+00
      3.033 2.0507e-07     0.3205      3.608     66.579  61.474457     7.1290      7.645   192.9090 3.8503e+00     7.2456      2.974      4.313    20.8233   998.0722 0.0000e+00
      3.033 1.8796e-08     0.3257      3.664     67.774  62.550205     7.0460      7.640   192.4317 3.8628e+00     6.9824      2.974      4.313    20.8721   998.0617 0.0000e+00
      3.033 3.3894e-09     0.3278      3.686     68.137  62.844180     7.0040      7.638   192.0934 3.8718e+00     6.8604      2.974      4.314    20.9670   998.0411 0.0000e+00
      3.033 -9.990e-29 -9.990e-29 -9.990e-29 -9.990e-29 -9.990e-29 -9.990e-29 -9.990e-29 -9.990e-29 3.8702e+00 -9.990e-29      2.974      4.313    21.1085   998.0106 0.0000e+00
      3.033 -9.990e-29 -9.990e-29 -9.990e-29 -9.990e-29 -9.990e-29 -9.990e-29 -9.990e-29 -9.990e-29 3.8731e+00 -9.990e-29      2.974      4.313    21.2087   997.9895 0.0000e+00
      3.033 -9.990e-29 -9.990e-29 -9.990e-29 -9.990e-29 -9.990e-29 -9.990e-29 -9.990e-29 -9.990e-29 3.8770e+00 -9.990e-29      2.974      4.313    21.1481   998.0031 0.0000e+00
      3.033 -9.990e-29 -9.990e-29 -9.990e-29 -9.990e-29 -9.990e-29 -9.990e-29 -9.990e-29 -9.990e-29 3.8759e+00 -9.990e-29      2.975      4.314    21.0657   998.0212 0.0000e+00
