* Sea-Bird SBE19plus  Data File:
* FileName = C:\DATA\070119_fcr_0006.hex
* Software version 2.8.0.119 SB_Terminal.dll
* Temperature SN = 7809
* Conductivity SN = 7809
* System UpLoad Time = Jul 01 2019 16:58:46
* <ApplicationData>
* <Seaterm232>
* <SoftwareVersion>2.8.0.119</SoftwareVersion>
* <BuildDate>07-Nov-2018</BuildDate>
* </Seaterm232>
* </ApplicationData>
* cast   6 01 Jul 2019 11:29:23 samples 11107 to 11500, avg = 1, stop = mag switch
# nquan = 16
# nvalues = 346                         
# units = specified
# name 0 = depFM: Depth [fresh water, m]
# name 1 = dz/dtM: Descent Rate [m/s]
# name 2 = sbeox0Mg/L: Oxygen, SBE 43 [mg/l]
# name 3 = sbeox0PS: Oxygen, SBE 43 [% saturation]
# name 4 = specc: Specific Conductance [uS/cm]
# name 5 = c0uS/cm: Conductivity [uS/cm]
# name 6 = flECO-AFL: Fluorescence, WET Labs ECO-AFL/FL [mg/m^3]
# name 7 = ph: pH
# name 8 = orp: Oxidation Reduction Potential [mV]
# name 9 = par/sat/log: PAR/Logarithmic, Satlantic
# name 10 = turbWETntu0: Turbidity, WET Labs ECO [NTU]
# name 11 = prdM: Pressure, Strain Gauge [db]
# name 12 = prdE: Pressure, Strain Gauge [psi]
# name 13 = tv290C: Temperature [ITS-90, deg C]
# name 14 = density00: Density [density, kg/m^3]
# name 15 = flag:  0.000e+00
# span 0 =     -0.582,      2.871       
# span 1 =     -0.281,      0.244       
# span 2 =    -1.5281,     9.9056       
# span 3 =    -16.815,    122.753       
# span 4 =      1.143,    285.052       
# span 5 =   1.287949, 249.358323       
# span 6 =    -0.6813,     9.4753       
# span 7 =      6.765,      9.288       
# span 8 = -1240.7455,   271.5765       
# span 9 = 8.3650e+00, 1.7598e+03       
# span 10 =    -5.6241,   210.3713      
# span 11 =     -0.571,      2.816      
# span 12 =     -0.828,      4.084      
# span 13 =    18.6724,    31.3420      
# span 14 =   995.2438,   998.5867      
# span 15 = 0.0000e+00, 0.0000e+00      
# interval = seconds: 0.25
# start_time = Jul 01 2019 11:29:23 [Instrument's time stamp, header]
# bad_flag = -9.990e-29
# <Sensors count="9" >
#   <sensor Channel="1" >
#     <!-- Count, Temperature -->
#     <TemperatureSensor SensorID="58" >
#       <SerialNumber>7809</SerialNumber>
#       <CalibrationDate>24-Mar-19</CalibrationDate>
#       <A0>1.21792325e-003</A0>
#       <A1>2.81669265e-004</A1>
#       <A2>-1.60333336e-006</A2>
#       <A3>1.98414625e-007</A3>
#       <Slope>1.00000000</Slope>
#       <Offset>0.0000</Offset>
#     </TemperatureSensor>
#   </sensor>
#   <sensor Channel="2" >
#     <!-- Frequency 0, Conductivity -->
#     <ConductivitySensor SensorID="3" >
#       <SerialNumber>7809</SerialNumber>
#       <CalibrationDate>24-Mar-19</CalibrationDate>
#       <UseG_J>1</UseG_J>
#       <!-- Cell const and series R are applicable only for wide range sensors. -->
#       <SeriesR>0.0000</SeriesR>
#       <CellConst>2000.0000</CellConst>
#       <ConductivityType>0</ConductivityType>
#       <Coefficients equation="0" >
#         <A>0.00000000e+000</A>
#         <B>0.00000000e+000</B>
#         <C>0.00000000e+000</C>
#         <D>0.00000000e+000</D>
#         <M>0.0</M>
#         <CPcor>-9.57000000e-008</CPcor>
#       </Coefficients>
#       <Coefficients equation="1" >
#         <G>-1.00589325e+000</G>
#         <H>1.26816302e-001</H>
#         <I>-1.51560448e-004</I>
#         <J>2.67137274e-005</J>
#         <CPcor>-9.57000000e-008</CPcor>
#         <CTcor>3.2500e-006</CTcor>
#         <!-- WBOTC not applicable unless ConductivityType = 1. -->
#         <WBOTC>0.00000000e+000</WBOTC>
#       </Coefficients>
#       <Slope>1.00000000</Slope>
#       <Offset>0.00000</Offset>
#     </ConductivitySensor>
#   </sensor>
#   <sensor Channel="3" >
#     <!-- Count, Pressure, Strain Gauge -->
#     <PressureSensor SensorID="46" >
#       <SerialNumber>7809</SerialNumber>
#       <CalibrationDate>11-Mar-19</CalibrationDate>
#       <PA0>4.56561833e-002</PA0>
#       <PA1>4.85095118e-004</PA1>
#       <PA2>-2.88327090e-012</PA2>
#       <PTEMPA0>-5.48784562e+001</PTEMPA0>
#       <PTEMPA1>5.53756816e+001</PTEMPA1>
#       <PTEMPA2>-5.86727098e-001</PTEMPA2>
#       <PTCA0>5.25246745e+005</PTCA0>
#       <PTCA1>1.22304214e+001</PTCA1>
#       <PTCA2>-3.56745036e-001</PTCA2>
#       <PTCB0>2.51668750e+001</PTCB0>
#       <PTCB1>3.75000000e-004</PTCB1>
#       <PTCB2>0.00000000e+000</PTCB2>
#       <Offset>0.000000</Offset>
#     </PressureSensor>
#   </sensor>
#   <sensor Channel="4" >
#     <!-- A/D voltage 0, Oxygen, SBE 43 -->
#     <OxygenSensor SensorID="38" >
#       <SerialNumber>0434</SerialNumber>
#       <CalibrationDate>13-Apr-19</CalibrationDate>
#       <Use2007Equation>1</Use2007Equation>
#       <CalibrationCoefficients equation="0" >
#         <!-- Coefficients for Owens-Millard equation. -->
#         <Boc>0.0000</Boc>
#         <Soc>0.0000e+000</Soc>
#         <offset>0.0000</offset>
#         <Pcor>0.00e+000</Pcor>
#         <Tcor>0.0000</Tcor>
#         <Tau>0.0</Tau>
#       </CalibrationCoefficients>
#       <CalibrationCoefficients equation="1" >
#         <!-- Coefficients for Sea-Bird equation - SBE calibration in 2007 and later. -->
#         <Soc>4.2007e-001</Soc>
#         <offset>-0.6109</offset>
#         <A>-4.3656e-003</A>
#         <B> 1.7017e-004</B>
#         <C>-2.5341e-006</C>
#         <D0> 2.5826e+000</D0>
#         <D1> 1.92634e-004</D1>
#         <D2>-4.64803e-002</D2>
#         <E> 3.6000e-002</E>
#         <Tau20> 1.1800</Tau20>
#         <H1>-3.3000e-002</H1>
#         <H2> 5.0000e+003</H2>
#         <H3> 1.4500e+003</H3>
#       </CalibrationCoefficients>
#     </OxygenSensor>
#   </sensor>
#   <sensor Channel="5" >
#     <!-- A/D voltage 1, PAR/Logarithmic, Satlantic -->
#     <PARLog_SatlanticSensor SensorID="76" >
#       <SerialNumber>1122</SerialNumber>
#       <CalibrationDate>08-May-2019</CalibrationDate>
#       <a0>9.7456e-001</a0>
#       <a1>8.1640e-001</a1>
#       <Im>1.3589e+000</Im>
#       <Multiplier>1.0000e+000</Multiplier>
#     </PARLog_SatlanticSensor>
#   </sensor>
#   <sensor Channel="6" >
#     <!-- A/D voltage 2, pH -->
#     <pH_Sensor SensorID="43" >
#       <SerialNumber>0363</SerialNumber>
#       <CalibrationDate>15-Apr-19</CalibrationDate>
#       <Slope>4.5952</Slope>
#       <Offset>2.5370</Offset>
#     </pH_Sensor>
#   </sensor>
#   <sensor Channel="7" >
#     <!-- A/D voltage 3, Oxidation Reduction Potential -->
#     <OxidationReductionPotentialSensor SensorID="41" >
#       <SerialNumber>0363</SerialNumber>
#       <CalibrationDate>15-Apr-19</CalibrationDate>
#       <B>2.499480</B>
#       <M>-0.496195</M>
#       <Offset>0.0</Offset>
#     </OxidationReductionPotentialSensor>
#   </sensor>
#   <sensor Channel="8" >
#     <!-- A/D voltage 4, Fluorometer, WET Labs ECO-AFL/FL -->
#     <FluoroWetlabECO_AFL_FL_Sensor SensorID="20" >
#       <SerialNumber>FLNTURT-2496</SerialNumber>
#       <CalibrationDate>08-May-2019</CalibrationDate>
#       <ScaleFactor>5.00000000e+001</ScaleFactor>
#       <!-- Dark output -->
#       <Vblank>0.0550</Vblank>
#     </FluoroWetlabECO_AFL_FL_Sensor>
#   </sensor>
#   <sensor Channel="9" >
#     <!-- A/D voltage 5, Turbidity Meter, WET Labs, ECO-NTU -->
#     <TurbidityMeter SensorID="67" >
#       <SerialNumber>FLNTURT-2496</SerialNumber>
#       <CalibrationDate>08-May-2019</CalibrationDate>
#       <ScaleFactor>189.000000</ScaleFactor>
#       <!-- Dark output -->
#       <DarkVoltage>0.071000</DarkVoltage>
#     </TurbidityMeter>
#   </sensor>
# </Sensors>
# datcnv_date = Jul 01 2019 17:02:29, 7.26.7.129 [datcnv_vars = 15]
# datcnv_in = C:\DATA\070119_fcr_0006.hex C:\DATA\SBE19plusV2_7809.xmlcon
# datcnv_skipover = 0
# datcnv_ox_hysteresis_correction = yes
# datcnv_ox_tau_correction = yes
# filter_date = Jul 01 2019 17:02:54, 7.26.7.129
# filter_in = C:\DATA\070119_fcr_0006.cnv
# filter_low_pass_tc_A = 0.030
# filter_low_pass_tc_B = 0.150
# filter_low_pass_A_vars = prdM prdE tv290C density00
# filter_low_pass_B_vars = depFM dz/dtM sbeox0Mg/L sbeox0PS specc c0uS/cm flECO-AFL ph orp par/sat/log turbWETntu0
# alignctd_date = Jul 01 2019 17:03:11, 7.26.7.129
# alignctd_in = C:\DATA\070119_fcr_0006.cnv
# alignctd_adv = dz/dtM 1.000, sbeox0Mg/L 1.000, sbeox0PS 1.000, specc 1.000, c0uS/cm 1.000, flECO-AFL 1.000, ph 1.000, orp 1.000, turbWETntu0 1.000                                                                                 
# file_type = ascii
*END*
     -0.581 -5.175e-19     6.6549     90.090      1.154   1.300489    -0.0868      6.896 -1240.7455 1.4059e+03    -0.2251     -0.569     -0.826    31.3420   995.2438 0.0000e+00
     -0.581 -4.709e-20     6.6553     90.093      1.164   1.311921    -0.0848      6.898 -1240.7455 1.3174e+03    -0.2167     -0.569     -0.826    31.3412   995.2440 0.0000e+00
     -0.580 -4.641e-21     6.6555     90.095      1.163   1.310884    -0.0868      6.904 -1240.7455 1.2828e+03    -0.1988     -0.569     -0.825    31.3402   995.2445 0.0000e+00
     -0.580 -4.386e-21     6.6554     90.092      1.143   1.287949    -0.1012      6.908 -1240.7455 1.3082e+03    -0.2053     -0.569     -0.825    31.3393   995.2447 0.0000e+00
     -0.581 -4.401e-20     6.6557     90.094      1.143   1.288054    -0.1120      6.906 -1240.7455 1.3191e+03    -0.2298     -0.569     -0.826    31.3387   995.2448 0.0000e+00
     -0.581 -4.837e-19     6.6567     90.106      1.165   1.312151    -0.1046      6.903 -1240.7455 1.2963e+03    -0.2654     -0.569     -0.826    31.3378   995.2452 0.0000e+00
     -0.581 -5.320e-18     6.6575     90.116      1.177   1.325862    -0.0989      6.903 -1240.7455 1.2668e+03    -0.2757     -0.569     -0.826    31.3369   995.2454 0.0000e+00
     -0.581 -5.853e-17     6.6578     90.118      1.178   1.327120    -0.1035      6.906 -1240.7455 1.2553e+03    -0.3543     -0.570     -0.826    31.3362   995.2457 0.0000e+00
     -0.581 -6.438e-16     6.6580     90.119      1.178   1.327362    -0.0995      6.907 -1240.7455 1.2483e+03    -0.4947     -0.569     -0.826    31.3351   995.2460 0.0000e+00
     -0.581 -7.082e-15     6.6589     90.130      1.179   1.328789    -0.0934      6.906 -1240.7455 1.2390e+03    -0.5311     -0.569     -0.826    31.3337   995.2464 0.0000e+00
     -0.581 -7.790e-14     6.6598     90.141      1.193   1.344366    -0.0997      6.905 -1240.7455 1.2481e+03    -0.4991     -0.569     -0.826    31.3327   995.2467 0.0000e+00
     -0.581 -8.569e-13     6.6600     90.141      1.232   1.388991    -0.1062      6.906 -1240.7455 1.2228e+03    -0.4690     -0.570     -0.827    31.3315   995.2471 0.0000e+00
     -0.581 -9.426e-12     6.6607     90.149      1.320   1.488186    -0.1021      6.909 -1240.7455 1.0905e+03    -0.4622     -0.570     -0.826    31.3304   995.2475 0.0000e+00
     -0.581 -1.037e-10     6.6622     90.169      1.470   1.656682    -0.1025      6.910 -1240.7455 9.0931e+02    -0.4502     -0.570     -0.826    31.3298   995.2476 0.0000e+00
     -0.581 -1.140e-09     6.6628     90.177      1.635   1.842250    -0.1110      6.909 -1240.7455 8.1529e+02    -0.4221     -0.570     -0.826    31.3287   995.2480 0.0000e+00
     -0.581 -1.255e-08     6.6627     90.174      1.850   2.084491    -0.1008      6.909 -1240.7455 7.2614e+02    -0.3516     -0.570     -0.827    31.3277   995.2483 0.0000e+00
     -0.581 -1.380e-07     6.6645     90.197      2.215   2.494655    -0.0831      6.912 -1240.7455 5.9138e+02    -0.1876     -0.570     -0.827    31.3268   995.2486 0.0000e+00
     -0.582 -2.530e-07     6.6678     90.237      2.551   2.873010    -0.0785      6.912 -1240.7455 6.2456e+02    -0.0776     -0.570     -0.827    31.3257   995.2489 0.0000e+00
     -0.582 -1.380e-07     6.6718     90.286      2.762   3.110784    -0.0796      6.910 -1240.7455 6.5646e+02    -0.0709     -0.570     -0.827    31.3255   995.2490 0.0000e+00
     -0.581 -1.255e-08     6.6773     90.357      3.023   3.405244    -0.0795      6.908 -1240.7455 4.9229e+02    -0.1386     -0.569     -0.826    31.3257   995.2490 0.0000e+00
     -0.581 -1.140e-09     6.6833     90.436      3.180   3.581837    -0.0780      6.905 -1240.7455 5.2449e+02    -0.3066     -0.570     -0.826    31.3242   995.2495 0.0000e+00
     -0.581 -1.037e-10     6.6889     90.511      3.082   3.471714    -0.0865      6.901 -1240.7455 8.3729e+02    -0.4638     -0.570     -0.827    31.3203   995.2507 0.0000e+00
     -0.581 -9.425e-12     6.6947     90.587      2.910   3.277714    -0.0963      6.897 -1240.7455 9.9689e+02    -0.5315     -0.570     -0.827    31.3165   995.2519 0.0000e+00
     -0.581 -8.565e-13     6.6997     90.653      2.785   3.137198    -0.0918      6.893 -1240.7455 8.8479e+02    -0.5354     -0.570     -0.827    31.3148   995.2525 0.0000e+00
     -0.581 -7.790e-14     6.7037     90.705      2.699   3.040057    -0.0851      6.892 -1240.7455 7.1339e+02    -0.5107     -0.570     -0.827    31.3138   995.2528 0.0000e+00
     -0.581 -7.063e-15     6.7075     90.754      2.598   2.926936    -0.0842      6.893 -1240.7455 5.6117e+02    -0.4952     -0.570     -0.826    31.3126   995.2532 0.0000e+00
     -0.581 -4.576e-16     6.7132     90.829      2.471   2.783301    -0.0901      6.894 -1240.7455 4.0126e+02    -0.5116     -0.570     -0.827    31.3119   995.2534 0.0000e+00
     -0.581 1.9868e-15     6.7214     90.938      2.339   2.634036    -0.1037      6.895 -1240.7455 3.2442e+02    -0.5126     -0.570     -0.827    31.3109   995.2537 0.0000e+00
     -0.581 2.2493e-14     6.7313     91.068      2.234   2.516191    -0.1097      6.895 -1240.7455 3.3460e+02    -0.5081     -0.570     -0.827    31.3096   995.2541 0.0000e+00
     -0.581 2.4748e-13     6.7438     91.236      2.163   2.435619    -0.0947      6.895 -1240.7455 3.3252e+02    -0.5222     -0.570     -0.827    31.3084   995.2545 0.0000e+00
     -0.581 2.7223e-12     6.7588     91.435      2.093   2.356845    -0.0783      6.895 -1240.7455 3.2407e+02    -0.5184     -0.570     -0.826    31.3068   995.2550 0.0000e+00
     -0.582 2.9945e-11     6.7751     91.652      2.008   2.260739    -0.0838      6.897 -1240.7455 3.7509e+02    -0.5278     -0.570     -0.827    31.3049   995.2555 0.0000e+00
     -0.582 3.2940e-10     6.7927     91.887      1.919   2.160681    -0.0920      6.899 -1240.7452 4.5090e+02    -0.5375     -0.570     -0.827    31.3032   995.2561 0.0000e+00
     -0.581 3.6234e-09     6.8102     92.122      1.863   2.097490    -0.0908      6.899 -1240.7427 5.3041e+02    -0.5053     -0.570     -0.827    31.3016   995.2565 0.0000e+00
     -0.581 3.9857e-08     6.8264     92.339      1.836   2.066957    -0.0948      6.898 -1240.7151 7.1862e+02    -0.4990     -0.570     -0.827    31.2992   995.2572 0.0000e+00
     -0.581 4.3843e-07     6.8428     92.555      1.816   2.044961    -0.0981      6.897 -1240.4112 9.3142e+02    -0.5266     -0.570     -0.826    31.2973   995.2579 0.0000e+00
     -0.581      0.000     6.8640     92.832      1.852   2.084987    -0.0959      6.896 -1237.0687 1.0254e+03    -0.5116     -0.570     -0.826    31.2950   995.2586 0.0000e+00
     -0.581      0.000     6.8940     93.221      2.042   2.297461    -0.0934      6.906 -1200.3008 1.0466e+03    -0.4814     -0.569     -0.826    31.2950   995.2587 0.0000e+00
     -0.581      0.001     6.9329     93.716      3.147   3.536809    -0.0861      7.057  -795.8541 1.0584e+03    -0.4894     -0.570     -0.827    31.2924   995.2594 0.0000e+00
     -0.581      0.006     6.9855     94.280      9.302  10.416385    -0.0762      7.421   -76.3951 1.0028e+03    -0.5089     -0.569     -0.826    31.2919   995.2595 0.0000e+00
     -0.581      0.026     7.0749     94.899     21.456  23.854898    -0.0866      7.830   271.5765 8.1304e+02    -0.6196     -0.571     -0.828    31.2818   995.2626 0.0000e+00
     -0.581      0.062     7.2084     95.544     31.297  34.436288    -0.2462      8.197   259.1353 6.3964e+02    -1.9588     -0.570     -0.827    31.2782   995.2639 0.0000e+00
     -0.579      0.109     7.3480     96.124     34.502  37.497885    -0.5328      8.544   244.5877 5.6290e+02    -4.3785     -0.571     -0.828    31.2546   995.2710 0.0000e+00
     -0.559      0.155     7.4661     96.619     34.913  37.519660    -0.6813      8.816   240.8309 4.8398e+02    -5.6241     -0.564     -0.817    31.2590   995.2705 0.0000e+00
     -0.501      0.194     7.5661     97.079     35.087  37.364810    -0.6643      8.989   231.4364 4.7260e+02    -5.3858     -0.504     -0.730    30.9786   995.3625 0.0000e+00
     -0.416      0.222     7.6501     97.514     35.249  37.275410    -0.3005      9.104   219.1890 6.3254e+02    -1.6284     -0.405     -0.587    30.1137   995.6310 0.0000e+00
     -0.335      0.239     7.7188     97.934     35.413  37.263480     0.3881      9.192   210.9673 9.3512e+02     5.2967     -0.319     -0.464    29.2746   995.8830 0.0000e+00
     -0.274      0.244     7.7777     98.375     35.611  37.347217     0.7693      9.254   196.6439 1.2802e+03     9.0650     -0.262     -0.381    28.6968   996.0522 0.0000e+00
     -0.227      0.238     7.8313     98.857     35.797  37.462512     0.8144      9.287   195.5424 1.4388e+03     9.2610     -0.224     -0.324    28.1978   996.1963 0.0000e+00
     -0.180      0.224     7.8838     99.410     35.890  37.514843     0.9593      9.288   214.7711 1.3446e+03     7.4692     -0.182     -0.262    27.8289   996.3014 0.0000e+00
     -0.121      0.209     7.9288     99.961     35.916  37.535557     1.2207      9.271   226.3414 1.2062e+03     4.0816     -0.122     -0.177    27.5769   996.3726 0.0000e+00
     -0.054      0.189     7.9548    100.368     35.934  37.586004     1.3559      9.253   227.6313 1.1650e+03     2.2220     -0.051     -0.074    27.4092   996.4198 0.0000e+00
      0.006      0.161     7.9636    100.603     35.916  37.617049     1.3544      9.238   227.9571 1.2314e+03     2.0588      0.014      0.020    27.3037   996.4496 0.0000e+00
      0.048      0.124     7.9613    100.668     35.797  37.530157     1.3506      9.222   228.3017 1.2051e+03     2.0754      0.052      0.076    27.2400   996.4674 0.0000e+00
      0.073      0.081     7.9523    100.541     35.641  37.360624     1.3619      9.205   228.7875 1.0296e+03     2.0951      0.077      0.111    27.2242   996.4719 0.0000e+00
      0.080      0.039     7.9186     99.953     35.566  37.217570     1.3694      9.187   229.0130 8.7930e+02     2.0683      0.084      0.122    27.2838   996.4555 0.0000e+00
      0.075      0.005     7.8269     98.541     35.585  37.133353     1.3719      9.168   228.5324 9.2415e+02     2.0453      0.072      0.106    27.3669   996.4323 0.0000e+00
      0.066     -0.014     7.7312     97.081     35.656  37.103880     1.4182      9.146   227.6234 1.2195e+03     2.0794      0.064      0.093    27.4342   996.4134 0.0000e+00
      0.057     -0.019     7.7275     96.828     35.748  37.114950     1.5051      9.123   225.5077 1.3282e+03     2.1201      0.058      0.083    27.4436   996.4108 0.0000e+00
      0.046     -0.013     7.7870     97.429     35.828  37.140116     1.5554      9.101   223.3424 1.1590e+03     2.1120      0.043      0.062    27.3346   996.4410 0.0000e+00
      0.039      0.001     7.8233     97.799     35.875  37.154177     1.5577      9.079   223.5544 1.1545e+03     2.1114      0.034      0.049    27.1652   996.4879 0.0000e+00
      0.040      0.016     7.8184     97.687     35.899  37.157967     1.5509      9.058   224.0276 1.3747e+03     2.1129      0.038      0.056    27.0134   996.5298 0.0000e+00
      0.049      0.028     7.7901     97.292     35.942  37.185909     1.5936      9.037   222.1805 1.5089e+03     2.1306      0.046      0.066    26.8936   996.5627 0.0000e+00
      0.064      0.037     7.7616     96.906     36.005  37.238090     1.6842      9.016   211.9762 1.3009e+03     2.2266      0.062      0.090    26.8111   996.5854 0.0000e+00
      0.082      0.040     7.7483     96.732     36.050  37.281078     1.7281      8.998   194.8617 1.1398e+03     2.2910      0.084      0.122    26.7693   996.5969 0.0000e+00
      0.094      0.037     7.7267     96.474     36.087  37.324836     1.7254      8.980   184.6614 1.2628e+03     2.2867      0.094      0.137    26.7490   996.6025 0.0000e+00
      0.101      0.029     7.6796     95.902     36.140  37.386326     1.7547      8.960   182.1702 1.4091e+03     2.2727      0.100      0.144    26.7213   996.6102 0.0000e+00
      0.105      0.019     7.6320     95.308     36.205  37.453286     1.8224      8.940   180.9162 1.4152e+03     2.2534      0.103      0.150    26.7000   996.6159 0.0000e+00
      0.108      0.010     7.5991     94.883     36.255  37.499691     1.8676      8.923   179.9964 1.2362e+03     2.2495      0.106      0.154    26.6970   996.6168 0.0000e+00
      0.110      0.004     7.5692     94.495     36.265  37.503079     1.8766      8.911   178.9645 1.1247e+03     2.2582      0.110      0.159    26.7071   996.6141 0.0000e+00
      0.110      0.004     7.5263     93.957     36.257  37.494249     1.8706      8.902   177.7320 1.1085e+03     2.2606      0.108      0.157    26.7213   996.6102 0.0000e+00
      0.107      0.009     7.4613     93.164     36.274  37.519873     1.8553      8.895   176.6238 1.1296e+03     2.2787      0.105      0.151    26.7211   996.6102 0.0000e+00
      0.105      0.016     7.3829     92.212     36.301  37.559007     1.8478      8.885   175.8041 1.1636e+03     2.3122      0.102      0.148    26.7091   996.6135 0.0000e+00
      0.108      0.022     7.3053     91.253     36.323  37.586590     1.8577      8.872   175.2196 1.1466e+03     2.3052      0.101      0.147    26.6986   996.6164 0.0000e+00
      0.119      0.027     7.2292     90.294     36.340  37.599483     1.8799      8.862   174.8916 1.2263e+03     2.1952      0.114      0.165    26.6944   996.6176 0.0000e+00
      0.136      0.028     7.1605     89.419     36.335  37.587942     1.8994      8.856   174.6770 1.2764e+03     2.0634      0.135      0.197    26.7076   996.6141 0.0000e+00
      0.147      0.025     7.1125     88.805     36.328  37.573981     1.9116      8.850   175.2920 1.1634e+03     2.0545      0.147      0.214    26.7318   996.6076 0.0000e+00
      0.151      0.020     7.0829     88.420     36.319  37.557626     1.9153      8.841   185.6835 1.0873e+03     2.0881      0.149      0.216    26.7383   996.6058 0.0000e+00
      0.151      0.012     7.0569     88.070     36.291  37.517125     1.8484      8.831   205.3317 1.0593e+03     2.1089      0.148      0.214    26.7285   996.6085 0.0000e+00
      0.150      0.005     7.0300     87.710     36.251  37.465120     1.7269      8.819   215.9989 1.0503e+03     2.1751      0.147      0.213    26.7161   996.6119 0.0000e+00
      0.150      0.002     7.0102     87.447     36.231  37.436610     1.6684      8.804   209.3482 1.1367e+03     2.2335      0.147      0.214    26.7088   996.6140 0.0000e+00
      0.151      0.001     7.0090     87.423     36.226  37.426300     1.6708      8.789   194.4382 1.1783e+03     2.2579      0.148      0.215    26.7012   996.6159 0.0000e+00
      0.151      0.002     7.0389     87.790     36.207  37.403944     1.6772      8.778   193.3477 1.1118e+03     2.2729      0.148      0.214    26.6829   996.6209 0.0000e+00
      0.152      0.002     7.0978     88.524     36.223  37.420197     1.6855      8.768   203.5617 1.0734e+03     2.2179      0.149      0.217    26.6644   996.6260 0.0000e+00
      0.152      0.002     7.1720     89.456     36.293  37.495859     1.7013      8.758   207.8914 1.0679e+03     2.1176      0.149      0.216    26.6551   996.6284 0.0000e+00
      0.153      0.003     7.2523     90.471     36.347  37.557082     1.7119      8.749   212.2282 1.0610e+03     2.0764      0.150      0.217    26.6504   996.6298 0.0000e+00
      0.153      0.004     7.3336     91.506     36.369  37.589170     1.7194      8.741   209.0203 1.0984e+03     2.0469      0.150      0.218    26.6450   996.6313 0.0000e+00
      0.153      0.005     7.4070     92.442     36.399  37.629952     1.7477      8.733   193.6260 1.1238e+03     2.0236      0.149      0.216    26.6454   996.6311 0.0000e+00
      0.155      0.006     7.4635     93.160     36.432  37.669340     1.7847      8.728   182.7735 1.1313e+03     2.0567      0.152      0.220    26.6492   996.6300 0.0000e+00
      0.159      0.008     7.5022     93.653     36.443  37.684563     1.7944      8.726   179.5887 1.1687e+03     2.0868      0.156      0.226    26.6562   996.6282 0.0000e+00
      0.161      0.010     7.5238     93.937     36.439  37.687073     1.7788      8.723   179.7265 1.1974e+03     2.0926      0.158      0.229    26.6715   996.6241 0.0000e+00
      0.162      0.011     7.5288     94.015     36.445  37.699684     1.7343      8.718   180.4825 1.1688e+03     2.0932      0.159      0.230    26.6863   996.6200 0.0000e+00
      0.164      0.011     7.5156     93.863     36.450  37.710111     1.6640      8.710   178.6624 1.1041e+03     2.0623      0.160      0.233    26.6928   996.6184 0.0000e+00
      0.169      0.011     7.4820     93.447     36.426  37.686199     1.6234      8.703   176.5622 1.0789e+03     2.0135      0.165      0.240    26.6954   996.6177 0.0000e+00
      0.173      0.012     7.4333     92.836     36.406  37.664473     1.6163      8.699   176.3407 1.0529e+03     2.0276      0.170      0.246    26.7052   996.6150 0.0000e+00
      0.175      0.014     7.3798     92.175     36.438  37.701319     1.6126      8.699   181.4051 1.0129e+03     2.1353      0.172      0.250    26.7157   996.6121 0.0000e+00
      0.176      0.016     7.3269     91.529     36.480  37.750849     1.6126      8.701   186.2580 9.5435e+02     2.2662      0.171      0.249    26.7252   996.6096 0.0000e+00
      0.180      0.017     7.2736     90.865     36.483  37.755552     1.6166      8.702   181.2424 9.0774e+02     2.3319      0.174      0.252    26.7274   996.6090 0.0000e+00
      0.187      0.018     7.2213     90.203     36.489  37.758186     1.6167      8.701   175.5681 9.7110e+02     2.3077      0.184      0.267    26.7182   996.6115 0.0000e+00
      0.193      0.019     7.1744     89.607     36.518  37.782685     1.6406      8.698   174.6091 9.9820e+02     2.2686      0.190      0.276    26.7248   996.6098 0.0000e+00
      0.197      0.019     7.1344     89.102     36.534  37.797861     1.6973      8.694   174.0349 8.9080e+02     2.2856      0.193      0.280    26.7403   996.6055 0.0000e+00
      0.201      0.019     7.1047     88.726     36.553  37.814721     1.7307      8.692   173.6158 6.7448e+02     2.3159      0.197      0.286    26.7409   996.6053 0.0000e+00
      0.206      0.019     7.0844     88.466     36.599  37.859586     1.7323      8.690   173.3279 3.9067e+02     2.3069      0.202      0.293    26.7319   996.6079 0.0000e+00
      0.210      0.021     7.0661     88.231     36.637  37.895980     1.7335      8.689   173.0486 2.3282e+02     2.2753      0.207      0.300    26.7250   996.6098 0.0000e+00
      0.215      0.026     7.0485     88.009     36.617  37.873905     1.7536      8.684   172.8204 2.0757e+02     2.2946      0.210      0.305    26.7228   996.6104 0.0000e+00
      0.220      0.031     7.0342     87.838     36.587  37.846578     1.7855      8.669   172.7189 1.9288e+02     2.3435      0.215      0.312    26.7210   996.6109 0.0000e+00
      0.229      0.035     7.0199     87.687     36.610  37.882955     1.7976      8.646   172.5961 1.7775e+02     2.3428      0.224      0.324    26.7149   996.6126 0.0000e+00
      0.240      0.037     6.9997     87.460     36.647  37.932901     1.7961      8.626   172.3677 1.6295e+02     2.3179      0.234      0.339    26.7110   996.6137 0.0000e+00
      0.254      0.034     6.9677     87.059     36.657  37.942689     1.8101      8.612   172.1949 1.4926e+02     2.2723      0.249      0.361    26.7088   996.6144 0.0000e+00
      0.266      0.028     6.9207     86.452     36.661  37.937815     1.8375      8.603   172.2269 1.3641e+02     2.2508      0.263      0.383    26.7076   996.6147 0.0000e+00
      0.274      0.020     6.8608     85.692     36.666  37.937435     1.8501      8.595   172.3251 1.2563e+02     2.2861      0.270      0.393    26.7318   996.6082 0.0000e+00
      0.276      0.010     6.7908     84.827     36.663  37.938080     1.8496      8.587   172.2639 1.1823e+02     2.2734      0.272      0.395    26.7590   996.6009 0.0000e+00
      0.274      0.000     6.7118     83.876     36.652  37.945627     1.8663      8.580   172.0890 1.1436e+02     2.2283      0.270      0.391    26.7522   996.6027 0.0000e+00
      0.272     -0.010     6.6265     82.872     36.641  37.965242     1.8958      8.577   171.8454 1.1321e+02     2.2328      0.266      0.386    26.7319   996.6083 0.0000e+00
      0.269     -0.015     6.5416     81.876     36.629  37.984862     1.9114      8.578   171.6411 1.1367e+02     2.2616      0.265      0.384    26.7228   996.6107 0.0000e+00
      0.264     -0.013     6.4657     80.971     36.615  37.992465     1.9161      8.579   171.5986 1.1461e+02     2.2821      0.261      0.379    26.7252   996.6100 0.0000e+00
      0.256     -0.004     6.4107     80.297     36.609  37.993732     1.9182      8.573   171.5894 1.1616e+02     2.2841      0.252      0.366    26.7499   996.6033 0.0000e+00
      0.248      0.010     6.3925     80.059     36.621  38.000196     1.9110      8.558   171.7014 1.1711e+02     2.2858      0.240      0.348    26.7996   996.5896 0.0000e+00
      0.248      0.023     6.4080     80.236     36.636  38.007128     1.9066      8.538   171.9201 1.1651e+02     2.3026      0.237      0.344    26.8499   996.5759 0.0000e+00
      0.262      0.034     6.4332     80.542     36.648  38.014053     1.9261      8.523   171.9973 1.1599e+02     2.2904      0.254      0.368    26.8821   996.5671 0.0000e+00
      0.283      0.041     6.4526     80.772     36.659  38.020451     1.9992      8.517   171.9463 1.1474e+02     2.2372      0.279      0.405    26.8914   996.5647 0.0000e+00
      0.301      0.043     6.4596     80.841     36.668  38.020992     2.1047      8.521   171.9916 1.1234e+02     2.2162      0.298      0.432    26.8786   996.5683 0.0000e+00
      0.312      0.040     6.4498     80.696     36.679  38.020579     2.1620      8.533   172.2876 1.0963e+02     2.2666      0.308      0.447    26.8613   996.5730 0.0000e+00
      0.317      0.033     6.4258     80.371     36.686  38.015446     2.1720      8.543   172.5994 1.0756e+02     2.3212      0.311      0.452    26.8595   996.5736 0.0000e+00
      0.320      0.027     6.3935     79.946     36.704  38.022383     2.2162      8.548   172.7508 1.0674e+02     2.3191      0.312      0.453    26.8537   996.5752 0.0000e+00
      0.324      0.023     6.3563     79.469     36.728  38.040960     2.2977      8.548   172.8273 1.0642e+02     2.3076      0.316      0.459    26.8382   996.5794 0.0000e+00
      0.331      0.019     6.3174     78.981     36.737  38.049616     2.3341      8.542   172.8351 1.0697e+02     2.3130      0.324      0.471    26.8231   996.5836 0.0000e+00
      0.339      0.016     6.2818     78.531     36.753  38.063570     2.3359      8.535   172.8461 1.0765e+02     2.3185      0.334      0.483    26.8042   996.5888 0.0000e+00
      0.346      0.011     6.2478     78.094     36.778  38.082718     2.3455      8.530   172.8745 1.0852e+02     2.3089      0.340      0.493    26.7858   996.5938 0.0000e+00
      0.348      0.005     6.2110     77.629     36.788  38.090699     2.3378      8.525   172.8337 1.0970e+02     2.2953      0.343      0.498    26.7786   996.5958 0.0000e+00
      0.346      0.000     6.1718     77.159     36.784  38.096584     2.3121      8.519   172.8688 1.1081e+02     2.3177      0.341      0.495    26.7824   996.5948 0.0000e+00
      0.341     -0.004     6.1298     76.679     36.754  38.090405     2.2939      8.514   172.9556 1.1398e+02     2.3180      0.333      0.484    26.7801   996.5954 0.0000e+00
      0.338     -0.008     6.0856     76.182     36.715  38.079503     2.2827      8.511   172.9366 1.1868e+02     2.2989      0.330      0.478    26.7674   996.5988 0.0000e+00
      0.338     -0.009     6.0421     75.694     36.697  38.091778     2.2629      8.509   172.9830 1.2231e+02     2.3156      0.331      0.480    26.7574   996.6016 0.0000e+00
      0.338     -0.007     6.0011     75.230     36.690  38.111912     2.2372      8.508   173.1725 1.2480e+02     2.3241      0.333      0.482    26.7708   996.5980 0.0000e+00
      0.336     -0.004     5.9642     74.803     36.690  38.132561     2.2234      8.506   173.4211 1.2633e+02     2.3023      0.330      0.478    26.8114   996.5868 0.0000e+00
      0.332     -0.002     5.9327     74.427     36.699  38.151040     2.2174      8.501   173.6651 1.2675e+02     2.2484      0.325      0.471    26.8533   996.5753 0.0000e+00
      0.330      0.000     5.9048     74.083     36.690  38.144920     2.2258      8.496   173.7138 1.2707e+02     2.1640      0.322      0.467    26.8941   996.5642 0.0000e+00
      0.331      0.002     5.8780     73.750     36.666  38.122048     2.2633      8.491   173.5801 1.2760e+02     2.0690      0.324      0.470    26.9369   996.5524 0.0000e+00
      0.334      0.005     5.8507     73.415     36.668  38.128405     2.2979      8.487   173.5963 1.2845e+02     2.0180      0.327      0.475    26.9635   996.5451 0.0000e+00
      0.337      0.007     5.8225     73.072     36.690  38.158312     2.3064      8.483   173.8237 1.3065e+02     2.0387      0.331      0.479    26.9749   996.5420 0.0000e+00
      0.339      0.009     5.7958     72.745     36.694  38.166281     2.3141      8.480   174.1786 1.3458e+02     2.1220      0.334      0.484    26.9782   996.5411 0.0000e+00
      0.340      0.011     5.7710     72.435     36.689  38.161286     2.3310      8.476   174.5318 1.4021e+02     2.2390      0.334      0.483    26.9776   996.5413 0.0000e+00
      0.341      0.012     5.7468     72.130     36.689  38.161390     2.3375      8.469   174.6523 1.4710e+02     2.2731      0.333      0.482    26.9832   996.5397 0.0000e+00
      0.345      0.012     5.7234     71.842     36.692  38.167539     2.3392      8.459   174.6894 1.5318e+02     2.2723      0.337      0.489    26.9954   996.5365 0.0000e+00
      0.351      0.011     5.7047     71.618     36.691  38.172160     2.3435      8.447   174.7222 1.5685e+02     2.3268      0.345      0.500    27.0018   996.5347 0.0000e+00
      0.357      0.007     5.6973     71.536     36.666  38.153798     2.3465      8.436   174.6194 1.5745e+02     2.3427      0.351      0.509    27.0004   996.5351 0.0000e+00
      0.359      0.002     5.7030     71.617     36.644  38.135970     2.3500      8.427   174.5648 1.5491e+02     2.3339      0.354      0.514    26.9981   996.5357 0.0000e+00
      0.358     -0.003     5.7185     71.822     36.649  38.147043     2.3511      8.421   174.6642 1.5090e+02     2.3519      0.352      0.511    27.0018   996.5347 0.0000e+00
      0.354     -0.007     5.7402     72.106     36.656  38.160736     2.3515      8.416   174.7886 1.4746e+02     2.3307      0.347      0.504    27.0127   996.5318 0.0000e+00
      0.349     -0.011     5.7623     72.396     36.663  38.174578     2.3715      8.411   174.8647 1.4654e+02     2.2736      0.341      0.495    27.0225   996.5289 0.0000e+00
      0.345     -0.012     5.7807     72.636     36.671  38.187471     2.4020      8.406   174.8960 1.4869e+02     2.2512      0.338      0.489    27.0288   996.5273 0.0000e+00
      0.343     -0.012     5.7955     72.831     36.669  38.189679     2.4166      8.399   174.9084 1.5217e+02     2.2567      0.337      0.488    27.0360   996.5253 0.0000e+00
      0.342     -0.011     5.8064     72.977     36.674  38.201283     2.4268      8.391   174.9294 1.5464e+02     2.2425      0.336      0.488    27.0462   996.5224 0.0000e+00
      0.339     -0.009     5.8120     73.060     36.667  38.200825     2.4304      8.384   175.0629 1.5545e+02     2.2427      0.333      0.483    27.0556   996.5198 0.0000e+00
      0.335     -0.006     5.8112     73.063     36.644  38.184142     2.4169      8.381   175.3190 1.5523e+02     2.2926      0.328      0.476    27.0625   996.5179 0.0000e+00
      0.332     -0.003     5.8025     72.962     36.645  38.190016     2.3931      8.380   175.5313 1.5410e+02     2.3209      0.325      0.471    27.0680   996.5164 0.0000e+00
      0.331      0.001     5.7870     72.773     36.659  38.208386     2.3852      8.378   175.6502 1.5348e+02     2.2900      0.324      0.469    27.0747   996.5145 0.0000e+00
      0.333      0.004     5.7672     72.530     36.664  38.215827     2.3995      8.374   175.8097 1.5406e+02     2.2136      0.326      0.473    27.0850   996.5117 0.0000e+00
      0.337      0.006     5.7454     72.265     36.660  38.216512     2.4096      8.369   175.9973 1.5434e+02     2.1178      0.331      0.479    27.0956   996.5088 0.0000e+00
      0.341      0.007     5.7230     71.993     36.655  38.216677     2.4121      8.364   176.1117 1.5411e+02     2.0819      0.334      0.485    27.1024   996.5070 0.0000e+00
      0.343      0.007     5.6995     71.704     36.652  38.217827     2.4130      8.359   176.2463 1.5360e+02     2.1076      0.336      0.488    27.1059   996.5060 0.0000e+00
      0.343      0.006     5.6762     71.416     36.660  38.230428     2.4288      8.350   176.4200 1.5310e+02     2.1670      0.336      0.487    27.1098   996.5049 0.0000e+00
      0.343      0.004     5.6576     71.188     36.669  38.242083     2.4562      8.343   176.4909 1.5276e+02     2.2432      0.336      0.488    27.1171   996.5029 0.0000e+00
      0.344      0.002     5.6430     71.010     36.655  38.231800     2.4669      8.340   176.5019 1.5213e+02     2.2747      0.338      0.490    27.1253   996.5006 0.0000e+00
      0.346      0.001     5.6290     70.844     36.651  38.233059     2.4711      8.338   176.5539 1.5186e+02     2.2859      0.339      0.492    27.1307   996.4991 0.0000e+00
      0.346     -0.001     5.6180     70.717     36.668  38.257304     2.4717      8.335   176.6027 1.5189e+02     2.3133      0.341      0.494    27.1346   996.4981 0.0000e+00
      0.346     -0.002     5.6096     70.622     36.675  38.271050     2.4652      8.333   176.6609 1.5147e+02     2.3440      0.339      0.493    27.1385   996.4970 0.0000e+00
      0.344     -0.002     5.6007     70.519     36.672  38.272313     2.4626      8.332   176.7424 1.5122e+02     2.3293      0.337      0.489    27.1437   996.4956 0.0000e+00
      0.342     -0.002     5.5909     70.400     36.670  38.272582     2.4573      8.331   176.8125 1.5188e+02     2.2659      0.336      0.487    27.1519   996.4933 0.0000e+00
      0.341     -0.001     5.5785     70.246     36.670  38.274310     2.4541      8.328   176.9929 1.5299e+02     2.2331      0.334      0.485    27.1610   996.4907 0.0000e+00
      0.341      0.001     5.5609     70.023     36.689  38.293208     2.4407      8.324   177.2892 1.5357e+02     2.2277      0.334      0.484    27.1699   996.4883 0.0000e+00
      0.342      0.003     5.5389     69.744     36.707  38.310649     2.4162      8.320   177.4696 1.5383e+02     2.2329      0.336      0.487    27.1775   996.4862 0.0000e+00
      0.344      0.004     5.5147     69.438     36.692  38.294754     2.4097      8.312   177.5391 1.5357e+02     2.2642      0.337      0.489    27.1806   996.4854 0.0000e+00
      0.345      0.004     5.4889     69.116     36.687  38.291453     2.4141      8.302   177.6128 1.5167e+02     2.2779      0.338      0.491    27.1816   996.4851 0.0000e+00
      0.347      0.003     5.4641     68.808     36.664  38.270738     2.4431      8.295   177.6725 1.4968e+02     2.2346      0.341      0.495    27.1812   996.4852 0.0000e+00
      0.347      0.003     5.4421     68.533     36.385  37.980818     2.5001      8.292   177.8310 1.4908e+02     2.1670      0.342      0.496    27.1776   996.4862 0.0000e+00
      0.347      0.003     5.4319     68.376     35.834  37.388550     2.5311      8.290   178.0672 1.4953e+02     2.1163      0.341      0.494    27.1777   996.4861 0.0000e+00
      0.347      0.004     5.5065     69.186     35.420  36.885871     2.5316      8.289   178.1190 1.5110e+02     2.0793      0.340      0.493    27.1795   996.4857 0.0000e+00
      0.348      0.006     5.8143     72.785     35.340  36.663407     2.5153      8.292   178.1129 1.5303e+02     2.1135      0.340      0.494    27.1863   996.4838 0.0000e+00
      0.350      0.009     6.4203     80.048     35.433  36.602718     2.4817      8.296   178.2515 1.5531e+02     2.2346      0.343      0.498    27.1883   996.4831 0.0000e+00
      0.353      0.012     7.2068     89.585     35.544  36.596147     2.4637      8.298   178.4189 1.5880e+02     2.2980      0.346      0.501    27.1911   996.4822 0.0000e+00
      0.356      0.015     8.0055     99.331     35.606  36.583765     2.4710      8.298   178.5017 1.6119e+02     2.2903      0.349      0.506    27.1089   996.5048 0.0000e+00
      0.360      0.017     8.7164    108.039     35.644  36.579835     2.4912      8.296   178.5640 1.6153e+02     2.3061      0.353      0.513    26.8706   996.5703 0.0000e+00
      0.365      0.017     9.2856    115.036     35.696  36.612045     2.5177      8.290   178.7422 1.6156e+02     2.3247      0.358      0.519    26.6206   996.6385 0.0000e+00
      0.371      0.016     9.6752    119.850     35.743  36.655818     2.5396      8.281   179.0207 1.6040e+02     2.3193      0.364      0.528    26.4494   996.6849 0.0000e+00
      0.376      0.015     9.8751    122.348     35.745  36.664776     2.5475      8.275   179.3510 1.5777e+02     2.3053      0.369      0.536    26.3505   996.7116 0.0000e+00
      0.380      0.013     9.9056    122.753     35.729  36.656894     2.5350      8.271   179.6377 1.5475e+02     2.2870      0.373      0.542    26.2963   996.7262 0.0000e+00
      0.382      0.012     9.8174    121.670     35.756  36.687483     2.5200      8.262   179.7348 1.5141e+02     2.2620      0.375      0.545    26.2685   996.7337 0.0000e+00
      0.382      0.011     9.6730    119.887     35.783  36.717262     2.5215      8.246   179.6648 1.4744e+02     2.2654      0.374      0.543    26.2637   996.7350 0.0000e+00
      0.385      0.009     9.5193    117.993     35.762  36.699593     2.5275      8.229   179.6518 1.4265e+02     2.2953      0.377      0.546    26.2778   996.7312 0.0000e+00
      0.390      0.008     9.3828    116.309     35.725  36.664279     2.5223      8.217   179.8350 1.3920e+02     2.2961      0.383      0.555    26.2971   996.7260 0.0000e+00
      0.394      0.010     9.2755    114.972     35.672  36.607639     2.5026      8.212   180.0732 1.3985e+02     2.2751      0.387      0.561    26.2967   996.7262 0.0000e+00
      0.394      0.011     9.1989    113.987     35.602  36.522535     2.4795      8.210   180.2092 1.4483e+02     2.2696      0.388      0.563    26.2967   996.7262 0.0000e+00
      0.392      0.011     9.1461    113.268     35.563  36.460417     2.4683      8.211   180.1887 1.5326e+02     2.2959      0.382      0.555    26.3058   996.7237 0.0000e+00
      0.395      0.010     9.1092    112.729     35.558  36.427785     2.4719      8.211   180.0842 1.6280e+02     2.3309      0.384      0.557    26.3110   996.7223 0.0000e+00
      0.404      0.009     9.0839    112.348     35.536  36.381824     2.4964      8.210   180.1502 1.6862e+02     2.2661      0.398      0.577    26.3090   996.7228 0.0000e+00
      0.410      0.009     9.0654    112.082     35.517  36.348961     2.5226      8.206   180.3847 1.6872e+02     2.1036      0.406      0.588    26.2935   996.7271 0.0000e+00
      0.408      0.009     9.0504    111.869     35.526  36.347781     2.5276      8.200   180.5954 1.6432e+02     2.0375      0.401      0.582    26.2592   996.7362 0.0000e+00
      0.406      0.007     9.0394    111.696     35.558  36.367549     2.5231      8.192   180.8048 1.5564e+02     2.0889      0.395      0.574    26.2126   996.7487 0.0000e+00
      0.407      0.006     9.0296    111.534     35.601  36.397542     2.5202      8.180   181.0240 1.4501e+02     2.1678      0.398      0.577    26.1758   996.7585 0.0000e+00
      0.411      0.007     9.0163    111.344     35.605  36.393040     2.5183      8.164   181.2663 1.3628e+02     2.2376      0.405      0.587    26.1629   996.7620 0.0000e+00
      0.414      0.010     8.9984    111.118     35.591  36.376574     2.5181      8.151   181.4979 1.3188e+02     2.2443      0.407      0.590    26.1535   996.7646 0.0000e+00
      0.415      0.011     8.9782    110.876     35.601  36.388862     2.5263      8.142   181.5873 1.3213e+02     2.2498      0.406      0.589    26.1332   996.7699 0.0000e+00
      0.417      0.011     8.9595    110.661     35.621  36.414675     2.5568      8.138   181.5727 1.3599e+02     2.2710      0.409      0.592    26.1086   996.7766 0.0000e+00
      0.422      0.010     8.9455    110.514     35.631  36.434803     2.6094      8.136   181.5794 1.4298e+02     2.2383      0.414      0.600    26.0954   996.7802 0.0000e+00
      0.427      0.009     8.9383    110.459     35.627  36.441819     2.6421      8.134   181.6683 1.5192e+02     2.2152      0.420      0.609    26.0952   996.7801 0.0000e+00
      0.429      0.006     8.9388    110.489     35.613  36.436057     2.6405      8.129   181.7869 1.6096e+02     2.2532      0.423      0.613    26.0991   996.7791 0.0000e+00
      0.429      0.002     8.9462    110.589     35.602  36.428621     2.6245      8.124   181.8948 1.6845e+02     2.3054      0.422      0.611    26.1058   996.7774 0.0000e+00
      0.428     -0.002     8.9578    110.733     35.589  36.415390     2.6037      8.119   181.9403 1.7278e+02     2.2892      0.420      0.609    26.1196   996.7737 0.0000e+00
      0.427     -0.006     8.9677    110.844     35.581  36.403022     2.5888      8.115   181.9940 1.7332e+02     2.2537      0.419      0.608    26.1403   996.7681 0.0000e+00
      0.426     -0.007     8.9731    110.887     35.592  36.406012     2.5832      8.112   182.2000 1.7159e+02     2.2688      0.418      0.607    26.1531   996.7647 0.0000e+00
      0.423     -0.007     8.9766    110.901     35.584  36.388063     2.5972      8.110   182.2794 1.6969e+02     2.2101      0.414      0.601    26.1558   996.7640 0.0000e+00
      0.419     -0.010     8.9781    110.897     35.581  36.376405     2.6274      8.106   181.8362 1.6974e+02     2.1012      0.411      0.595    26.1556   996.7640 0.0000e+00
      0.417     -0.024     8.9755    110.856     35.661  36.455446     2.6444      8.098   181.0570 1.7284e+02     2.0665      0.409      0.593    26.1513   996.7651 0.0000e+00
      0.417     -0.054     8.9687    110.799     35.776  36.582082     2.6476      8.085   180.4294 1.8086e+02     2.0853      0.409      0.594    26.1385   996.7686 0.0000e+00
      0.417     -0.100     8.9610    110.788     35.801  36.638134     2.6487      8.072   180.0130 2.1853e+02     2.0988      0.412      0.597    26.1213   996.7732 0.0000e+00
      0.403     -0.156     8.9595    110.874     35.753  36.625448     2.6056      8.061   179.7213 3.5881e+02     2.0993      0.408      0.591    26.1105   996.7761 0.0000e+00
      0.357     -0.211     8.9697    111.068     35.723  36.619168     2.5159      8.052   179.5693 5.6603e+02     2.0909      0.365      0.530    26.1013   996.7783 0.0000e+00
      0.277     -0.253     8.9892    111.339     35.719  36.625723     2.4577      8.045   179.6387 6.1781e+02     2.0627      0.278      0.402    26.1067   996.7765 0.0000e+00
      0.181     -0.277     9.0127    111.650     35.727  36.641239     2.4396      8.037   180.4733 4.8591e+02     2.0528      0.176      0.256    26.1579   996.7624 0.0000e+00
      0.087     -0.281     9.0355    111.956     35.757  36.679841     2.3401      8.027   189.3166 3.7721e+02     2.0704      0.078      0.113    26.2247   996.7441 0.0000e+00
      0.010     -0.266     9.0542    112.211     35.779  36.711641     2.1556      8.017   202.1583 3.5401e+02     2.0784     -0.000     -0.001    26.2564   996.7353 0.0000e+00
     -0.044     -0.236     9.0686    112.416     35.767  36.708378     2.0562      8.001   213.8228 3.5852e+02     2.0511     -0.048     -0.070    26.2625   996.7334 0.0000e+00
     -0.088     -0.202     9.0802    112.587     35.754  36.703879     2.0314      7.976   231.0625 3.5590e+02     2.0028     -0.082     -0.119    26.2714   996.7308 0.0000e+00
     -0.135     -0.173     9.0910    112.741     35.764  36.720736     1.8556      7.953   242.2233 3.5680e+02     1.8883     -0.131     -0.190    26.2848   996.7270 0.0000e+00
     -0.182     -0.152     9.0990    112.853     35.760  36.721787     1.5441      7.938   243.2827 3.7678e+02     1.7478     -0.184     -0.269    26.2954   996.7239 0.0000e+00
     -0.218     -0.136     9.1015    112.891     35.753  36.716594     1.3862      7.931   243.4415 3.9886e+02     2.1068     -0.215     -0.313    26.3084   996.7203 0.0000e+00
     -0.245     -0.116     9.0972    112.845     35.755  36.721425     1.4113      7.923   243.5414 4.8013e+02     6.9503     -0.239     -0.346    26.3239   996.7160 0.0000e+00
     -0.273     -0.090     9.0839    112.693     35.746  36.716723     1.7690      7.908   243.8009 8.6629e+02    60.1455     -0.269     -0.390    26.3337   996.7133 0.0000e+00
     -0.300     -0.064     9.0609    112.419     35.748  36.723221     2.4255      7.895   244.0844 1.4593e+03   157.6338     -0.298     -0.433    26.3394   996.7117 0.0000e+00
     -0.317     -0.040     9.0286    112.027     35.758  36.736527     2.7859      7.887   244.3884 1.7598e+03   210.3713     -0.317     -0.460    26.3418   996.7109 0.0000e+00
     -0.320     -0.019     8.9883    111.540     35.768  36.750676     2.7972      7.883   244.6376 1.7446e+03   210.3364     -0.317     -0.461    26.3445   996.7102 0.0000e+00
     -0.312      0.001     8.9445    111.013     35.778  36.767352     2.5016      7.881   244.6022 1.6014e+03   157.6378     -0.305     -0.443    26.3521   996.7082 0.0000e+00
     -0.305      0.021     8.9099    110.596     35.754  36.747740     1.9506      7.875   242.0672 1.3930e+03    60.2588     -0.297     -0.431    26.3580   996.7066 0.0000e+00
     -0.301      0.041     8.8964    110.429     35.712  36.703977     1.6413      7.862   226.3769 1.1630e+03     7.0890     -0.294     -0.427    26.3610   996.7059 0.0000e+00
     -0.297      0.063     8.9004    110.460     35.697  36.682523     1.6057      7.852   200.4708 8.3900e+02     2.2538     -0.293     -0.425    26.3665   996.7044 0.0000e+00
     -0.285      0.088     8.9113    110.558     35.707  36.678747     1.6149      7.856   185.7522 5.3055e+02     1.8622     -0.285     -0.414    26.3773   996.7015 0.0000e+00
     -0.260      0.114     8.9207    110.635     35.701  36.658307     1.6404      7.870   182.8085 3.9526e+02     2.0271     -0.260     -0.377    26.3857   996.6994 0.0000e+00
     -0.221      0.138     8.9270    110.676     35.682  36.625770     1.6617      7.881   181.3986 3.6143e+02     2.3460     -0.220     -0.319    26.3855   996.6995 0.0000e+00
     -0.173      0.158     8.9330    110.706     35.675  36.602690     1.6651      7.887   180.4062 3.4363e+02     2.5056     -0.170     -0.247    26.3777   996.7018 0.0000e+00
     -0.123      0.171     8.9363    110.701     35.659  36.569634     1.6649      7.887   179.6716 3.3076e+02     2.5156     -0.118     -0.172    26.3544   996.7084 0.0000e+00
     -0.078      0.176     8.9350    110.654     35.644  36.543431     1.7284      7.885   179.1415 3.2081e+02     2.4670     -0.076     -0.109    26.3326   996.7145 0.0000e+00
     -0.036      0.176     8.9332    110.611     35.647  36.539735     1.8432      7.882   178.8155 3.0906e+02     2.3770     -0.036     -0.053    26.3205   996.7179 0.0000e+00
      0.007      0.175     8.9355    110.616     35.641  36.524938     1.8994      7.879   178.6544 3.4902e+02     2.3118      0.007      0.009    26.2950   996.7249 0.0000e+00
      0.051      0.175     8.9430    110.682     35.617  36.491441     1.9138      7.877   178.5708 7.5346e+02     2.2687      0.050      0.073    26.2674   996.7324 0.0000e+00
      0.096      0.175     8.9532    110.777     35.589  36.452070     2.0429      7.877   178.4073 1.3165e+03     2.2813      0.095      0.137    26.2539   996.7363 0.0000e+00
      0.141      0.172     8.9602    110.830     35.579  36.429722     2.2726      7.876   178.3117 1.4823e+03     2.3010      0.139      0.200    26.2463   996.7386 0.0000e+00
      0.187      0.167     8.9626    110.824     35.574  36.411627     2.3942      7.874   178.7047 1.2738e+03     2.2767      0.181      0.263    26.2358   996.7416 0.0000e+00
      0.233      0.161     8.9615    110.776     35.536  36.360202     2.4125      7.870   179.4598 9.8629e+02     2.2823      0.229      0.333    26.2210   996.7457 0.0000e+00
      0.276      0.157     8.9565    110.678     35.505  36.315695     2.4853      7.863   180.0418 9.6608e+02     2.3034      0.276      0.400    26.2059   996.7500 0.0000e+00
      0.309      0.156     8.9496    110.552     35.521  36.317784     2.5974      7.858   180.3218 1.0198e+03     2.3030      0.306      0.444    26.1894   996.7545 0.0000e+00
      0.339      0.154     8.9437    110.432     35.541  36.321958     2.6408      7.855   180.6079 8.5416e+02     2.3097      0.328      0.476    26.1697   996.7599 0.0000e+00
      0.377      0.151     8.9387    110.330     35.536  36.302669     2.6368      7.854   181.0919 6.9527e+02     2.3194      0.364      0.530    26.1528   996.7645 0.0000e+00
      0.425      0.151     8.9343    110.243     35.521  36.274951     2.6620      7.849   181.7000 7.1847e+02     2.3220      0.419      0.607    26.1373   996.7689 0.0000e+00
      0.470      0.157     8.9315    110.172     35.500  36.240691     2.7021      7.841   182.2820 7.6146e+02     2.3090      0.468      0.677    26.1167   996.7747 0.0000e+00
      0.505      0.164     8.9295    110.100     35.482  36.205755     2.7226      7.833   182.7944 6.2852e+02     2.2925      0.496      0.719    26.0914   996.7815 0.0000e+00
      0.537      0.167     8.9253    109.994     35.466  36.169868     2.7283      7.828   183.2492 4.3595e+02     2.2861      0.522      0.757    26.0691   996.7876 0.0000e+00
      0.577      0.167     8.9153    109.819     35.439  36.124114     2.7281      7.826   183.5643 3.4094e+02     2.2647      0.562      0.816    26.0559   996.7913 0.0000e+00
      0.629      0.167     8.8941    109.514     35.427  36.096813     2.7899      7.823   183.7657 3.0135e+02     2.2636      0.615      0.892    26.0399   996.7958 0.0000e+00
      0.683      0.166     8.8619    109.086     35.436  36.093637     2.9290      7.820   183.9632 2.6084e+02     2.2716      0.675      0.979    26.0140   996.8028 0.0000e+00
      0.727      0.162     8.8188    108.531     35.436  36.085690     3.0145      7.817   184.2312 2.3407e+02     2.2645      0.718      1.041    25.9866   996.8104 0.0000e+00
      0.761      0.155     8.7644    107.838     35.424  36.064179     3.0257      7.812   184.5977 2.1488e+02     2.2757      0.745      1.080    25.9594   996.8177 0.0000e+00
      0.795      0.148     8.7101    107.142     35.394  36.023945     3.0727      7.808   184.9535 1.9863e+02     2.2764      0.780      1.130    25.9361   996.8240 0.0000e+00
      0.829      0.144     8.6620    106.519     35.362  35.980038     3.1761      7.804   185.2631 1.8813e+02     2.2723      0.814      1.181    25.9207   996.8282 0.0000e+00
      0.864      0.143     8.6177    105.941     35.372  35.977568     3.2521      7.802   185.5020 1.8448e+02     2.2923      0.845      1.226    25.9097   996.8314 0.0000e+00
      0.903      0.143     8.5810    105.458     35.399  35.994063     3.2807      7.800   185.6055 1.8837e+02     2.2883      0.885      1.282    25.8987   996.8345 0.0000e+00
      0.944      0.141     8.5580    105.153     35.403  35.989051     3.2792      7.798   185.7396 1.9815e+02     2.2566      0.927      1.346    25.8845   996.8384 0.0000e+00
      0.982      0.136     8.5525    105.068     35.401  35.980424     3.2607      7.796   185.9189 2.1525e+02     2.2692      0.965      1.402    25.8686   996.8427 0.0000e+00
      1.015      0.130     8.5626    105.178     35.379  35.953215     3.2558      7.795   185.9666 2.3855e+02     2.3095      0.997      1.446    25.8499   996.8477 0.0000e+00
      1.045      0.123     8.5810    105.388     35.346  35.913938     3.2635      7.792   186.0583 2.6253e+02     2.3184      1.026      1.487    25.8315   996.8528 0.0000e+00
      1.074      0.117     8.6024    105.628     35.326  35.886337     3.2845      7.790   186.2536 2.7914e+02     2.3114      1.053      1.527    25.8205   996.8559 0.0000e+00
      1.103      0.114     8.6280    105.913     35.324  35.873361     3.3095      7.787   186.4345 2.8219e+02     2.2903      1.082      1.569    25.8130   996.8580 0.0000e+00
      1.132      0.114     8.6575    106.238     35.349  35.883969     3.3156      7.782   186.6966 2.7824e+02     2.2593      1.111      1.612    25.8058   996.8599 0.0000e+00
      1.160      0.117     8.6823    106.501     35.368  35.887636     3.3151      7.776   187.0134 2.7220e+02     2.2648      1.137      1.650    25.7985   996.8620 0.0000e+00
      1.187      0.121     8.6929    106.587     35.413  35.917672     3.3197      7.770   187.3397 2.6344e+02     2.2918      1.163      1.686    25.7870   996.8652 0.0000e+00
      1.218      0.125     8.6834    106.412     35.759  36.247109     3.3192      7.765   187.8026 2.5472e+02     2.2896      1.193      1.731    25.7726   996.8690 0.0000e+00
      1.253      0.131     8.6509    105.910     36.429  36.887639     3.3184      7.760   188.2220 2.4561e+02     2.2713      1.229      1.783    25.7530   996.8743 0.0000e+00
      1.288      0.136     8.5985    105.075     36.862  37.251544     3.3186      7.756   188.4530 2.3581e+02     2.2995      1.264      1.833    25.7289   996.8809 0.0000e+00
      1.323      0.138     8.5300    103.950     36.942  37.219434     3.3129      7.753   188.7885 2.2661e+02     2.3364      1.295      1.879    25.7088   996.8864 0.0000e+00
      1.359      0.138     8.4529    102.679     37.049  37.197441     3.3102      7.751   189.2679 2.1738e+02     2.3240      1.330      1.930    25.6848   996.8929 0.0000e+00
      1.397      0.135     8.3826    101.521     37.147  37.175859     3.3113      7.750   189.8609 2.0810e+02     2.3131      1.371      1.987    25.6410   996.9049 0.0000e+00
      1.434      0.130     8.3271    100.598     37.156  37.085248     3.3090      7.747   190.8818 2.0016e+02     2.3035      1.408      2.042    25.5447   996.9304 0.0000e+00
      1.465      0.125     8.2746     99.762     37.271  37.117305     3.3002      7.743   191.9755 1.9393e+02     2.2729      1.438      2.086    25.3780   996.9739 0.0000e+00
      1.494      0.119     8.2127     98.842     37.536  37.309441     3.2570      7.739   192.4165 1.8834e+02     2.2716      1.465      2.125    25.1879   997.0233 0.0000e+00
      1.523      0.113     8.1479     97.905     37.733  37.440551     3.1856      7.735   192.5990 1.8373e+02     2.3210      1.494      2.166    25.0213   997.0663 0.0000e+00
      1.551      0.108     8.1051     97.257     37.847  37.496432     3.1472      7.730   192.9775 1.8008e+02     2.3450      1.522      2.207    24.8890   997.1003 0.0000e+00
      1.578      0.105     8.1180     97.312     37.997  37.604161     3.1310      7.727   193.3799 1.7594e+02     2.3316      1.548      2.245    24.7833   997.1274 0.0000e+00
      1.603      0.105     8.2056     98.285     38.089  37.663954     3.0763      7.724   193.8508 1.7089e+02     2.4213      1.573      2.281    24.6920   997.1507 0.0000e+00
      1.628      0.106     8.3541     99.973     38.111  37.648062     3.0056      7.720   194.3690 1.6587e+02     2.6104      1.596      2.315    24.6033   997.1733 0.0000e+00
      1.655      0.108     8.5251    101.879     38.186  37.665867     2.9784      7.715   194.7410 1.6081e+02     2.7178      1.622      2.353    24.5230   997.1937 0.0000e+00
      1.683      0.111     8.6760    103.509     38.473  37.879137     2.9735      7.711   194.9935 1.5556e+02     2.7370      1.651      2.395    24.4719   997.2068 0.0000e+00
      1.712      0.114     8.7760    104.517     38.998  38.322293     2.9813      7.707   195.1855 1.4996e+02     2.9403      1.679      2.435    24.4386   997.2153 0.0000e+00
      1.742      0.114     8.8006    104.610     39.408  38.643988     3.0128      7.702   195.3419 1.4354e+02     3.3408      1.707      2.476    24.3989   997.2252 0.0000e+00
      1.773      0.112     8.7320    103.579     39.382  38.531245     3.0239      7.697   195.5939 1.3714e+02     3.5808      1.738      2.521    24.3198   997.2453 0.0000e+00
      1.804      0.108     8.5785    101.563     39.091  38.165073     3.0198      7.694   195.9090 1.3143e+02     3.6140      1.771      2.569    24.2221   997.2698 0.0000e+00
      1.832      0.105     8.3775     99.054     38.742  37.771285     3.0411      7.691   196.1401 1.2671e+02     3.6436      1.800      2.610    24.1322   997.2925 0.0000e+00
      1.856      0.103     8.1825     96.658     38.322  37.324610     3.0735      7.690   196.3238 1.2301e+02     3.7430      1.822      2.641    24.0307   997.3179 0.0000e+00
      1.877      0.102     8.0535     94.956     38.020  36.953676     3.0829      7.691   196.5805 1.1913e+02     3.8319      1.840      2.668    23.9117   997.3472 0.0000e+00
      1.902      0.103     8.0330     94.364     37.925  36.713868     3.0763      7.692   196.9213 1.1426e+02     3.8336      1.864      2.703    23.7945   997.3759 0.0000e+00
      1.929      0.108     8.1331     95.089     37.985  36.582975     3.0715      7.692   197.1747 1.0926e+02     3.7957      1.891      2.743    23.7282   997.3921 0.0000e+00
      1.957      0.113     8.3457     97.146     38.229  36.640237     2.9987      7.690   197.0627 1.0471e+02     3.8992      1.918      2.783    23.7121   997.3961 0.0000e+00
      1.987      0.118     8.6360    100.154     38.522  36.771243     2.8557      7.688   196.7725 1.0024e+02     4.1345      1.949      2.826    23.6373   997.4144 0.0000e+00
      2.019      0.119     8.9392    103.334     38.793  36.897294     2.7810      7.686   196.9347 9.5770e+01     4.2479      1.979      2.870    23.4171   997.4677 0.0000e+00
      2.053      0.119     9.1883    105.933     39.643  37.592862     2.7801      7.683   197.5615 9.1711e+01     4.2870      2.014      2.921    23.1362   997.5352 0.0000e+00
      2.084      0.119     9.3323    107.372     42.731  40.420394     2.7929      7.680   198.0709 8.8367e+01     4.6071      2.046      2.967    22.9008   997.5911 0.0000e+00
      2.112      0.119     9.3278    107.057     52.972  49.944756     2.8148      7.675   198.1882 8.5282e+01     5.1358      2.071      3.003    22.7209   997.6338 0.0000e+00
      2.139      0.119     9.1469    104.637     71.606  67.253824     2.8282      7.667   197.6033 8.1967e+01     5.4037      2.097      3.042    22.5427   997.6752 0.0000e+00
      2.168      0.121     8.7722     99.994     92.603  86.640555     2.8417      7.652   196.5058 7.8298e+01     5.4869      2.124      3.082    22.3910   997.7109 0.0000e+00
      2.201      0.126     8.1637     92.734    111.021 103.477913     2.9347      7.623   195.6731 7.4618e+01     6.3388      2.158      3.130    22.3148   997.7288 0.0000e+00
      2.234      0.131     7.2761     82.352    122.516 113.736201     3.1037      7.587   192.5251 7.1269e+01     7.9034      2.191      3.179    22.1963   997.7589 0.0000e+00
      2.267      0.133     6.0877     68.635    127.071 117.438546     3.2035      7.552   183.9979 6.7809e+01     8.7385      2.221      3.220    21.9970   997.8121 0.0000e+00
      2.304      0.133     4.6623     52.365    130.383 119.952722     3.2132      7.516   173.4478 6.4104e+01     8.8328      2.257      3.274    21.8013   997.8635 0.0000e+00
      2.342      0.131     3.1487     35.245    135.957 124.567672     3.1508      7.478   165.7176 6.0872e+01     9.2738      2.299      3.335    21.6211   997.9114 0.0000e+00
      2.376      0.128     1.7037     19.020    143.112 130.654336     3.0300      7.440   161.1708 5.8330e+01    10.1052      2.332      3.384    21.4282   997.9584 0.0000e+00
      2.405      0.123     0.4591      5.126    149.065 135.652050     2.9665      7.403   158.2230 5.6044e+01    10.5938      2.359      3.421    21.2075   998.0074 0.0000e+00
      2.433      0.118    -0.5042     -5.571    152.018 137.929544     2.9995      7.366   155.8022 5.3647e+01    10.6913      2.385      3.460    20.9899   998.0559 0.0000e+00
      2.463      0.116    -1.1466    -12.666    152.842 138.290349     3.3507      7.326   153.1527 5.1104e+01    11.0219      2.415      3.503    20.8042   998.0981 0.0000e+00
      2.492      0.119    -1.4711    -16.220    155.168 140.014139     3.9796      7.285   150.2783 4.8784e+01    11.6099      2.445      3.547    20.6434   998.1357 0.0000e+00
      2.519      0.124    -1.5281    -16.815    160.955 144.862001     4.3259      7.245   147.8926 4.6635e+01    11.9015      2.471      3.583    20.4957   998.1694 0.0000e+00
      2.549      0.127    -1.4060    -15.440    167.290 150.196809     4.4692      7.207   145.7310 4.3932e+01    11.8273      2.497      3.620    20.3577   998.1996 0.0000e+00
      2.586      0.127    -1.1906    -13.049    172.765 154.738284     5.7548      7.172   142.9857 4.0647e+01    11.0076      2.534      3.676    20.2341   998.2255 0.0000e+00
      2.625      0.124    -0.9430    -10.314    178.627 159.618156     8.1055      7.138   139.9945 3.7547e+01     9.4951      2.577      3.738    20.1126   998.2512 0.0000e+00
      2.660      0.117    -0.7088     -7.738    183.419 163.543532     9.3870      7.106   137.6133 3.5109e+01     8.6472      2.612      3.788    19.9971   998.2780 0.0000e+00
      2.688      0.105    -0.5067     -5.521    186.484 165.925966     9.4753      7.077   135.5325 3.3157e+01     8.5559      2.638      3.825    19.8900   998.3028 0.0000e+00
      2.712      0.089    -0.3410     -3.710    189.302 168.111351     9.1563      7.051   132.3877 3.1274e+01     8.4568      2.660      3.858    19.7785   998.3270 0.0000e+00
      2.734      0.073    -0.2058     -2.236    193.128 171.248742     8.5643      7.028   128.0686 2.9540e+01     8.2686      2.683      3.892    19.6744   998.3510 0.0000e+00
      2.750      0.059    -0.0947     -1.027    200.224 177.343878     8.2469      7.006   123.1466 2.8118e+01     8.1485      2.699      3.915    19.5782   998.3724 0.0000e+00
      2.760      0.049    -0.0090     -0.097    209.901 185.755552     8.1887      6.986   117.9616 2.6770e+01     8.1514      2.707      3.926    19.4814   998.3926 0.0000e+00
      2.767      0.043     0.0543      0.588    217.653 192.467348     7.8168      6.967   113.5591 2.5314e+01     8.5004      2.714      3.936    19.3922   998.4116 0.0000e+00
      2.775      0.039     0.1008      1.091    224.473 198.323579     7.1412      6.947   110.2685 2.3580e+01     9.1239      2.721      3.946    19.3246   998.4260 0.0000e+00
      2.784      0.038     0.1327      1.434    232.516 205.188587     6.7732      6.927   107.6010 2.1264e+01     9.4300      2.730      3.959    19.2802   998.4372 0.0000e+00
      2.796      0.038     0.1528      1.651    237.784 209.559665     6.7062      6.907   105.0529 1.8589e+01     9.4483      2.741      3.975    19.2434   998.4494 0.0000e+00
      2.808      0.037     0.1669      1.802    240.104 211.366657     6.3382      6.888   102.3465 1.6387e+01     9.5752      2.755      3.995    19.2109   998.4582 0.0000e+00
      2.818      0.036     0.1764      1.903    243.717 214.360717     5.6799      6.869    99.7439 1.4978e+01     9.7844      2.765      4.010    19.1782   998.4663 0.0000e+00
      2.826      0.033     0.1799      1.938    248.531 218.419113     5.3269      6.850    97.3319 1.3935e+01     9.8800      2.771      4.019    19.1246   998.4813 0.0000e+00
      2.832      0.028     0.1799      1.938    252.850 222.078522     5.3046      6.832    94.8649 1.2900e+01     9.8796      2.778      4.029    19.0556   998.4967 0.0000e+00
      2.839      0.024     0.1793      1.931    259.968 228.248047     5.3496      6.814    92.1999 1.1900e+01     9.6814      2.784      4.038    19.0050   998.5064 0.0000e+00
      2.845      0.022     0.1786      1.922    272.534 239.128091     5.4291      6.798    89.4594 1.1056e+01     9.2859      2.790      4.047    18.9759   998.5137 0.0000e+00
      2.850      0.021     0.1778      1.911    283.172 248.122760     5.4677      6.783    86.9383 1.0400e+01     9.0635      2.796      4.056    18.9347   998.5240 0.0000e+00
      2.855      0.019     0.1760      1.889    285.052 249.358323     5.4698      6.770    84.6894 9.8021e+00     9.0567      2.800      4.061    18.9031   998.5313 0.0000e+00
      2.860      0.018     0.1748      1.874    283.768 248.044098     5.4722      6.765    83.6068 9.1040e+00     9.0724      2.804      4.067    18.8987   998.5337 0.0000e+00
      2.865 -9.990e-29 -9.990e-29 -9.990e-29 -9.990e-29 -9.990e-29 -9.990e-29 -9.990e-29 -9.990e-29 8.5440e+00 -9.990e-29      2.810      4.075    18.8847   998.5425 0.0000e+00
      2.869 -9.990e-29 -9.990e-29 -9.990e-29 -9.990e-29 -9.990e-29 -9.990e-29 -9.990e-29 -9.990e-29 8.3650e+00 -9.990e-29      2.814      4.081    18.8166   998.5614 0.0000e+00
      2.871 -9.990e-29 -9.990e-29 -9.990e-29 -9.990e-29 -9.990e-29 -9.990e-29 -9.990e-29 -9.990e-29 8.5493e+00 -9.990e-29      2.815      4.083    18.7169   998.5798 0.0000e+00
      2.871 -9.990e-29 -9.990e-29 -9.990e-29 -9.990e-29 -9.990e-29 -9.990e-29 -9.990e-29 -9.990e-29 8.7332e+00 -9.990e-29      2.816      4.084    18.6724   998.5867 0.0000e+00
