* Sea-Bird SBE19plus  Data File:
* FileName = C:\DATA\080519_fcr50_0006.hex
* Software version 2.8.0.119 SB_Terminal.dll
* Temperature SN = 7809
* Conductivity SN = 7809
* System UpLoad Time = Aug 05 2019 18:00:10
* <ApplicationData>
* <Seaterm232>
* <SoftwareVersion>2.8.0.119</SoftwareVersion>
* <BuildDate>07-Nov-2018</BuildDate>
* </Seaterm232>
* </ApplicationData>
* cast   6 05 Aug 2019 15:27:19 samples 2900 to 3743, avg = 1, stop = mag switch
# nquan = 16
# nvalues = 724                         
# units = specified
# name 0 = depFM: Depth [fresh water, m]
# name 1 = dz/dtM: Descent Rate [m/s]
# name 2 = sbeox0Mg/L: Oxygen, SBE 43 [mg/l]
# name 3 = sbeox0PS: Oxygen, SBE 43 [% saturation]
# name 4 = specc: Specific Conductance [uS/cm]
# name 5 = c0uS/cm: Conductivity [uS/cm]
# name 6 = flECO-AFL: Fluorescence, WET Labs ECO-AFL/FL [mg/m^3]
# name 7 = ph: pH
# name 8 = orp: Oxidation Reduction Potential [mV]
# name 9 = par/sat/log: PAR/Logarithmic, Satlantic
# name 10 = turbWETntu0: Turbidity, WET Labs ECO [NTU]
# name 11 = prdM: Pressure, Strain Gauge [db]
# name 12 = prdE: Pressure, Strain Gauge [psi]
# name 13 = tv290C: Temperature [ITS-90, deg C]
# name 14 = density00: Density [density, kg/m^3]
# name 15 = flag:  0.000e+00
# span 0 =     -0.599,      9.543       
# span 1 = -1.863e-07,      0.253       
# span 2 =     0.0656,     9.9909       
# span 3 =      0.595,    123.515       
# span 4 =      0.584,     92.735       
# span 5 =   0.658665,  66.692236       
# span 6 =    -0.7055,     6.8095       
# span 7 =     -2.137,      9.363       
# span 8 = -1240.7455,   305.2337       
# span 9 = 1.2328e-01, 6.5099e+02       
# span 10 =    -0.6378,    17.2732      
# span 11 =     -0.588,      9.359      
# span 12 =     -0.853,     13.575      
# span 13 =    10.9549,    31.3952      
# span 14 =   995.2271,   999.6911      
# span 15 = 0.0000e+00, 0.0000e+00      
# interval = seconds: 0.25
# start_time = Aug 05 2019 15:27:19 [Instrument's time stamp, header]
# bad_flag = -9.990e-29
# <Sensors count="9" >
#   <sensor Channel="1" >
#     <!-- Count, Temperature -->
#     <TemperatureSensor SensorID="58" >
#       <SerialNumber>7809</SerialNumber>
#       <CalibrationDate>24-Mar-19</CalibrationDate>
#       <A0>1.21792325e-003</A0>
#       <A1>2.81669265e-004</A1>
#       <A2>-1.60333336e-006</A2>
#       <A3>1.98414625e-007</A3>
#       <Slope>1.00000000</Slope>
#       <Offset>0.0000</Offset>
#     </TemperatureSensor>
#   </sensor>
#   <sensor Channel="2" >
#     <!-- Frequency 0, Conductivity -->
#     <ConductivitySensor SensorID="3" >
#       <SerialNumber>7809</SerialNumber>
#       <CalibrationDate>24-Mar-19</CalibrationDate>
#       <UseG_J>1</UseG_J>
#       <!-- Cell const and series R are applicable only for wide range sensors. -->
#       <SeriesR>0.0000</SeriesR>
#       <CellConst>2000.0000</CellConst>
#       <ConductivityType>0</ConductivityType>
#       <Coefficients equation="0" >
#         <A>0.00000000e+000</A>
#         <B>0.00000000e+000</B>
#         <C>0.00000000e+000</C>
#         <D>0.00000000e+000</D>
#         <M>0.0</M>
#         <CPcor>-9.57000000e-008</CPcor>
#       </Coefficients>
#       <Coefficients equation="1" >
#         <G>-1.00589325e+000</G>
#         <H>1.26816302e-001</H>
#         <I>-1.51560448e-004</I>
#         <J>2.67137274e-005</J>
#         <CPcor>-9.57000000e-008</CPcor>
#         <CTcor>3.2500e-006</CTcor>
#         <!-- WBOTC not applicable unless ConductivityType = 1. -->
#         <WBOTC>0.00000000e+000</WBOTC>
#       </Coefficients>
#       <Slope>1.00000000</Slope>
#       <Offset>0.00000</Offset>
#     </ConductivitySensor>
#   </sensor>
#   <sensor Channel="3" >
#     <!-- Count, Pressure, Strain Gauge -->
#     <PressureSensor SensorID="46" >
#       <SerialNumber>7809</SerialNumber>
#       <CalibrationDate>11-Mar-19</CalibrationDate>
#       <PA0>4.56561833e-002</PA0>
#       <PA1>4.85095118e-004</PA1>
#       <PA2>-2.88327090e-012</PA2>
#       <PTEMPA0>-5.48784562e+001</PTEMPA0>
#       <PTEMPA1>5.53756816e+001</PTEMPA1>
#       <PTEMPA2>-5.86727098e-001</PTEMPA2>
#       <PTCA0>5.25246745e+005</PTCA0>
#       <PTCA1>1.22304214e+001</PTCA1>
#       <PTCA2>-3.56745036e-001</PTCA2>
#       <PTCB0>2.51668750e+001</PTCB0>
#       <PTCB1>3.75000000e-004</PTCB1>
#       <PTCB2>0.00000000e+000</PTCB2>
#       <Offset>0.000000</Offset>
#     </PressureSensor>
#   </sensor>
#   <sensor Channel="4" >
#     <!-- A/D voltage 0, Oxygen, SBE 43 -->
#     <OxygenSensor SensorID="38" >
#       <SerialNumber>0434</SerialNumber>
#       <CalibrationDate>13-Apr-19</CalibrationDate>
#       <Use2007Equation>1</Use2007Equation>
#       <CalibrationCoefficients equation="0" >
#         <!-- Coefficients for Owens-Millard equation. -->
#         <Boc>0.0000</Boc>
#         <Soc>0.0000e+000</Soc>
#         <offset>0.0000</offset>
#         <Pcor>0.00e+000</Pcor>
#         <Tcor>0.0000</Tcor>
#         <Tau>0.0</Tau>
#       </CalibrationCoefficients>
#       <CalibrationCoefficients equation="1" >
#         <!-- Coefficients for Sea-Bird equation - SBE calibration in 2007 and later. -->
#         <Soc>4.2007e-001</Soc>
#         <offset>-0.6109</offset>
#         <A>-4.3656e-003</A>
#         <B> 1.7017e-004</B>
#         <C>-2.5341e-006</C>
#         <D0> 2.5826e+000</D0>
#         <D1> 1.92634e-004</D1>
#         <D2>-4.64803e-002</D2>
#         <E> 3.6000e-002</E>
#         <Tau20> 1.1800</Tau20>
#         <H1>-3.3000e-002</H1>
#         <H2> 5.0000e+003</H2>
#         <H3> 1.4500e+003</H3>
#       </CalibrationCoefficients>
#     </OxygenSensor>
#   </sensor>
#   <sensor Channel="5" >
#     <!-- A/D voltage 1, PAR/Logarithmic, Satlantic -->
#     <PARLog_SatlanticSensor SensorID="76" >
#       <SerialNumber>1122</SerialNumber>
#       <CalibrationDate>08-May-2019</CalibrationDate>
#       <a0>9.7456e-001</a0>
#       <a1>8.1640e-001</a1>
#       <Im>1.3589e+000</Im>
#       <Multiplier>1.0000e+000</Multiplier>
#     </PARLog_SatlanticSensor>
#   </sensor>
#   <sensor Channel="6" >
#     <!-- A/D voltage 2, pH -->
#     <pH_Sensor SensorID="43" >
#       <SerialNumber>0363</SerialNumber>
#       <CalibrationDate>15-Apr-19</CalibrationDate>
#       <Slope>4.5952</Slope>
#       <Offset>2.5370</Offset>
#     </pH_Sensor>
#   </sensor>
#   <sensor Channel="7" >
#     <!-- A/D voltage 3, Oxidation Reduction Potential -->
#     <OxidationReductionPotentialSensor SensorID="41" >
#       <SerialNumber>0363</SerialNumber>
#       <CalibrationDate>15-Apr-19</CalibrationDate>
#       <B>2.499480</B>
#       <M>-0.496195</M>
#       <Offset>0.0</Offset>
#     </OxidationReductionPotentialSensor>
#   </sensor>
#   <sensor Channel="8" >
#     <!-- A/D voltage 4, Fluorometer, WET Labs ECO-AFL/FL -->
#     <FluoroWetlabECO_AFL_FL_Sensor SensorID="20" >
#       <SerialNumber>FLNTURT-2496</SerialNumber>
#       <CalibrationDate>08-May-2019</CalibrationDate>
#       <ScaleFactor>5.00000000e+001</ScaleFactor>
#       <!-- Dark output -->
#       <Vblank>0.0550</Vblank>
#     </FluoroWetlabECO_AFL_FL_Sensor>
#   </sensor>
#   <sensor Channel="9" >
#     <!-- A/D voltage 5, Turbidity Meter, WET Labs, ECO-NTU -->
#     <TurbidityMeter SensorID="67" >
#       <SerialNumber>FLNTURT-2496</SerialNumber>
#       <CalibrationDate>08-May-2019</CalibrationDate>
#       <ScaleFactor>189.000000</ScaleFactor>
#       <!-- Dark output -->
#       <DarkVoltage>0.071000</DarkVoltage>
#     </TurbidityMeter>
#   </sensor>
# </Sensors>
# datcnv_date = Aug 05 2019 18:02:48, 7.26.7.129 [datcnv_vars = 15]
# datcnv_in = C:\DATA\080519_fcr50b.hex C:\DATA\SBE19plusV2_7809.xmlcon
# datcnv_skipover = 0
# datcnv_ox_hysteresis_correction = yes
# datcnv_ox_tau_correction = yes
# filter_date = Aug 05 2019 18:03:10, 7.26.7.129
# filter_in = C:\DATA\080519_fcr50b.cnv
# filter_low_pass_tc_A = 0.030
# filter_low_pass_tc_B = 0.150
# filter_low_pass_A_vars = prdM prdE tv290C density00
# filter_low_pass_B_vars = depFM dz/dtM sbeox0Mg/L sbeox0PS specc c0uS/cm flECO-AFL ph orp par/sat/log turbWETntu0
# alignctd_date = Aug 05 2019 18:03:32, 7.26.7.129
# alignctd_in = C:\DATA\080519_fcr50b.cnv
# alignctd_adv = dz/dtM 1.000, sbeox0Mg/L 1.000, sbeox0PS 1.000, specc 1.000, c0uS/cm 1.000, flECO-AFL 1.000, ph 1.000, orp 1.000, turbWETntu0 1.000                                                                                 
# file_type = ascii
*END*
     -0.598 -1.540e-09     6.9609     94.301      0.706   0.796372    -0.0937     -2.137 -1240.7455 5.2090e+02    -0.5485     -0.586     -0.851    31.3952   995.2271 0.0000e+00
     -0.599 -1.694e-08     6.9607     94.298      0.707   0.797163    -0.1077     -2.137 -1240.7455 5.0954e+02    -0.5504     -0.587     -0.852    31.3916   995.2283 0.0000e+00
     -0.599 -1.863e-07     6.9620     94.314      0.704   0.794421    -0.1257     -2.137 -1240.7455 5.1726e+02    -0.5292     -0.588     -0.853    31.3852   995.2302 0.0000e+00
     -0.599 -1.863e-07     6.9626     94.322      0.677   0.763221    -0.1200     -2.137 -1240.7455 5.4554e+02    -0.5215     -0.587     -0.852    31.3823   995.2311 0.0000e+00
     -0.598 -1.693e-08     6.9623     94.318      0.653   0.736707    -0.1165     -2.137 -1240.7455 5.4336e+02    -0.5565     -0.586     -0.851    31.3821   995.2312 0.0000e+00
     -0.598 -1.539e-09     6.9613     94.307      0.701   0.790641    -0.1270     -2.137 -1240.7455 5.0498e+02    -0.5905     -0.586     -0.850    31.3809   995.2316 0.0000e+00
     -0.598 -1.399e-10     6.9609     94.302      0.749   0.845107    -0.1252     -2.137 -1240.7455 4.7727e+02    -0.6056     -0.586     -0.850    31.3803   995.2318 0.0000e+00
     -0.598 -1.268e-11     6.9624     94.321      0.731   0.825028    -0.1126     -2.137 -1240.7455 4.6617e+02    -0.6076     -0.587     -0.851    31.3809   995.2316 0.0000e+00
     -0.599 -6.435e-13     6.9645     94.347      0.710   0.801295    -0.1137     -2.137 -1240.7455 4.6293e+02    -0.5827     -0.587     -0.851    31.3814   995.2315 0.0000e+00
     -0.599 5.5382e-12     6.9658     94.360      0.720   0.811586    -0.1202     -2.137 -1240.7455 4.7556e+02    -0.5338     -0.587     -0.851    31.3818   995.2313 0.0000e+00
     -0.599 6.2067e-11     6.9664     94.363      0.730   0.822745    -0.1142     -2.137 -1240.7455 5.1045e+02    -0.5078     -0.587     -0.851    31.3828   995.2310 0.0000e+00
     -0.599 6.8285e-10     6.9671     94.372      0.718   0.809503    -0.1098     -2.137 -1240.7454 5.5814e+02    -0.5301     -0.587     -0.851    31.3826   995.2310 0.0000e+00
     -0.598 7.5113e-09     6.9673     94.376      0.690   0.778192    -0.1192     -2.137 -1240.7442 5.7621e+02    -0.5746     -0.586     -0.850    31.3805   995.2317 0.0000e+00
     -0.598 8.2624e-08     6.9668     94.368      0.619   0.697595    -0.1241     -2.137 -1240.7311 5.4582e+02    -0.6187     -0.586     -0.850    31.3769   995.2329 0.0000e+00
     -0.598 9.0887e-07     6.9668     94.363      0.584   0.658665    -0.1161     -2.137 -1240.5873 5.0644e+02    -0.6378     -0.587     -0.851    31.3747   995.2335 0.0000e+00
     -0.598      0.000     6.9665     94.355      0.666   0.750994    -0.1099     -2.136 -1239.0050 4.6495e+02    -0.6083     -0.587     -0.851    31.3731   995.2340 0.0000e+00
     -0.598      0.000     6.9654     94.340      0.766   0.863574    -0.1100     -2.129 -1221.5995 3.7914e+02    -0.5573     -0.586     -0.849    31.3755   995.2333 0.0000e+00
     -0.598      0.001     6.9656     94.338      1.175   1.322926    -0.1095     -2.046 -1030.1394 2.7974e+02    -0.5460     -0.586     -0.850    31.3736   995.2339 0.0000e+00
     -0.598      0.008     6.9724     94.352      5.614   6.304979    -0.1123     -1.136  -503.4141 2.4076e+02    -0.5704     -0.586     -0.850    31.3719   995.2345 0.0000e+00
     -0.598      0.029     7.0050     94.384     16.796  18.758288    -0.2646      1.278    45.6383 2.5441e+02    -0.5890     -0.587     -0.852    31.3643   995.2368 0.0000e+00
     -0.598      0.065     7.0761     94.468     28.310  31.364557    -0.5553      4.194   251.5153 2.8793e+02    -0.5745     -0.585     -0.848    31.3734   995.2340 0.0000e+00
     -0.594      0.111     7.1594     94.578     33.836  37.140777    -0.7055      6.382   259.5357 3.3287e+02    -0.5592     -0.587     -0.851    31.3623   995.2373 0.0000e+00
     -0.571      0.159     7.2299     94.678     35.122  38.217779    -0.7022      7.736   258.6784 3.7555e+02    -0.5356     -0.576     -0.836    31.3839   995.2309 0.0000e+00
     -0.511      0.203     7.2938     94.833     35.398  38.229273    -0.6281      8.509   257.2396 4.0828e+02    -0.1252     -0.509     -0.739    31.2148   995.2873 0.0000e+00
     -0.429      0.236     7.3617     95.133     35.630  38.231437     0.1479      8.930   256.1631 4.3376e+02     4.4031     -0.418     -0.605    30.5368   995.5012 0.0000e+00
     -0.349      0.253     7.4338     95.581     35.833  38.243543     1.5793      9.160   254.6116 4.5597e+02    12.6928     -0.339     -0.489    29.8469   995.7125 0.0000e+00
     -0.279      0.246     7.5056     96.123     35.988  38.248367     2.3649      9.280   251.9884 4.7519e+02    17.1914     -0.271     -0.393    29.3836   995.8508 0.0000e+00
     -0.217      0.218     7.5733     96.701     36.142  38.289509     2.4335      9.339   250.0860 4.8871e+02    17.2732     -0.210     -0.305    28.9732   995.9723 0.0000e+00
     -0.162      0.179     7.6297     97.231     36.284  38.359931     2.3654      9.362   249.5923 4.9957e+02    13.6159     -0.156     -0.227    28.6251   996.0738 0.0000e+00
     -0.118      0.140     7.6689     97.644     36.358  38.401459     2.2258      9.363   248.8573 5.1026e+02     6.8576     -0.109     -0.159    28.3339   996.1581 0.0000e+00
     -0.090      0.105     7.6934     97.932     36.377  38.410700     2.1415      9.356   247.9968 5.1712e+02     3.1690     -0.082     -0.120    28.1174   996.2202 0.0000e+00
     -0.077      0.075     7.7058     98.090     36.375  38.408181     2.1271      9.345   247.7920 5.2277e+02     2.8381     -0.074     -0.108    27.9459   996.2690 0.0000e+00
     -0.068      0.051     7.7068     98.105     36.338  38.371004     2.1378      9.333   247.7584 5.2901e+02     2.8570     -0.066     -0.095    27.8270   996.3028 0.0000e+00
     -0.059      0.035     7.6992     97.996     36.256  38.278589     2.1496      9.322   247.5040 5.3452e+02     2.9063     -0.058     -0.084    27.7928   996.3125 0.0000e+00
     -0.051      0.026     7.6843     97.781     36.172  38.179462     2.1482      9.312   247.1248 5.3945e+02     2.8765     -0.050     -0.071    27.7864   996.3143 0.0000e+00
     -0.046      0.021     7.6369     97.152     36.130  38.124601     2.1382      9.301   246.2708 5.4190e+02     2.8244     -0.045     -0.065    27.7851   996.3147 0.0000e+00
     -0.043      0.016     7.5330     95.810     36.137  38.123058     2.1592      9.290   244.7506 5.4311e+02     2.8988     -0.044     -0.063    27.7967   996.3113 0.0000e+00
     -0.038      0.012     7.4380     94.589     36.178  38.160794     2.2201      9.277   242.9401 5.4317e+02     3.0233     -0.037     -0.053    27.7861   996.3144 0.0000e+00
     -0.035      0.008     7.4438     94.654     36.218  38.200002     2.2590      9.262   241.2445 5.4054e+02     3.0509     -0.034     -0.049    27.7683   996.3194 0.0000e+00
     -0.035      0.005     7.5375     95.840     36.236  38.216254     2.2653      9.249   239.8224 5.3774e+02     3.0358     -0.035     -0.050    27.7545   996.3233 0.0000e+00
     -0.035      0.003     7.6354     97.087     36.248  38.230342     2.2706      9.238   238.4793 5.3574e+02     3.0373     -0.034     -0.049    27.7400   996.3274 0.0000e+00
     -0.035      0.001     7.6811     97.682     36.255  38.243387     2.2791      9.228   237.2225 5.3392e+02     3.0370     -0.034     -0.050    27.7332   996.3293 0.0000e+00
     -0.035      0.000     7.6759     97.642     36.248  38.247031     2.2728      9.217   236.1557 5.3249e+02     3.0322     -0.034     -0.049    27.7303   996.3301 0.0000e+00
     -0.035 2.2370e-08     7.6533     97.387     36.261  38.274414     2.2646      9.205   235.1305 5.3096e+02     3.0443     -0.034     -0.049    27.7245   996.3318 0.0000e+00
     -0.035 2.4607e-07     7.6286     97.100     36.293  38.320586     2.2752      9.194   234.0332 5.2874e+02     3.0520     -0.034     -0.049    27.7244   996.3318 0.0000e+00
     -0.035 2.4607e-07     7.5846     96.560     36.324  38.360975     2.3230      9.186   233.1271 5.2631e+02     2.9942     -0.035     -0.050    27.7335   996.3292 0.0000e+00
     -0.035 2.2370e-08     7.5057     95.565     36.340  38.381906     2.3998      9.177   232.6068 5.2447e+02     2.9021     -0.034     -0.049    27.7492   996.3248 0.0000e+00
     -0.035 2.0336e-09     7.4004     94.231     36.338  38.383242     2.4407      9.167   232.2159 5.2332e+02     2.8561     -0.034     -0.050    27.7703   996.3189 0.0000e+00
     -0.034 1.8488e-10     7.2869     92.802     36.326  38.377130     2.4527      9.157   231.8430 5.2264e+02     2.8320     -0.034     -0.049    27.7880   996.3139 0.0000e+00
     -0.034 1.6807e-11     7.1749     91.407     36.308  38.371486     2.5018      9.148   231.7121 5.2206e+02     2.8070     -0.034     -0.049    27.7991   996.3107 0.0000e+00
     -0.035 1.5279e-12     7.0609     89.992     36.298  38.378505     2.5843      9.142   231.5795 5.2145e+02     2.8155     -0.034     -0.049    27.8036   996.3095 0.0000e+00
     -0.035 1.3890e-13     6.9395     88.478     36.302  38.398547     2.6433      9.136   230.9281 5.2110e+02     2.8374     -0.034     -0.049    27.8053   996.3090 0.0000e+00
     -0.035 1.2627e-14     6.8232     87.019     36.315  38.423406     2.6520      9.129   230.0315 5.2094e+02     2.8422     -0.034     -0.049    27.8128   996.3069 0.0000e+00
     -0.035 1.1480e-15     6.7395     85.967     36.310  38.425183     2.6280      9.123   229.3421 5.2075e+02     2.8409     -0.034     -0.049    27.8338   996.3010 0.0000e+00
     -0.035 1.0436e-16     6.7106     85.610     36.300  38.420046     2.6137      9.117   228.9588 5.2089e+02     2.8210     -0.034     -0.049    27.8612   996.2932 0.0000e+00
     -0.035 9.4870e-18     6.7402     85.997     36.300  38.424777     2.6263      9.112   228.7528 5.2159e+02     2.7988     -0.034     -0.049    27.8838   996.2868 0.0000e+00
     -0.035 8.6245e-19     6.8199     87.022     36.291  38.418916     2.6416      9.106   228.5724 5.2290e+02     2.8343     -0.034     -0.049    27.8981   996.2828 0.0000e+00
     -0.035 7.8405e-20     6.9371     88.521     36.284  38.412664     2.6252      9.100   228.4982 5.2441e+02     2.8568     -0.034     -0.050    27.9066   996.2803 0.0000e+00
     -0.035 7.1280e-21     7.0779     90.314     36.285  38.412663     2.5842      9.094   228.3724 5.2574e+02     2.8414     -0.034     -0.049    27.9141   996.2783 0.0000e+00
     -0.035 6.4800e-22     7.2256     92.190     36.295  38.418906     2.5628      9.089   228.0843 5.2690e+02     2.8453     -0.034     -0.049    27.9211   996.2762 0.0000e+00
     -0.035 5.8905e-23     7.3567     93.844     36.308  38.424662     2.5655      9.084   227.6816 5.2768e+02     2.8381     -0.034     -0.050    27.9269   996.2745 0.0000e+00
     -0.034 5.3550e-24     7.4521     95.031     36.314  38.418764     2.6002      9.079   227.0311 5.2828e+02     2.8204     -0.034     -0.049    27.9283   996.2742 0.0000e+00
     -0.034 4.8684e-25     7.5107     95.744     36.321  38.411052     2.6526      9.074   226.3276 5.2869e+02     2.7946     -0.033     -0.048    27.9265   996.2748 0.0000e+00
     -0.034 4.4258e-26     7.5465     96.172     36.317  38.394874     2.6786      9.070   225.5421 5.2815e+02     2.7889     -0.034     -0.049    27.9219   996.2760 0.0000e+00
     -0.034 4.0234e-27     7.5733     96.494     36.282  38.350088     2.6891      9.065   224.4174 5.2672e+02     2.8162     -0.033     -0.048    27.9109   996.2791 0.0000e+00
     -0.034 3.6577e-28     7.5959     96.778     36.250  38.313876     2.7101      9.058   223.6564 5.2641e+02     2.8298     -0.033     -0.048    27.8917   996.2846 0.0000e+00
     -0.034 3.3251e-29     7.6125     96.998     36.269  38.337902     2.7421      9.051   223.6529 5.2871e+02     2.8224     -0.034     -0.049    27.8694   996.2909 0.0000e+00
     -0.034 3.0229e-30     7.6181     97.091     36.307  38.386683     2.7555      9.046   223.7733 5.3181e+02     2.7926     -0.033     -0.049    27.8516   996.2959 0.0000e+00
     -0.034 2.7481e-31     7.6126     97.047     36.305  38.395881     2.7496      9.041   223.6496 5.3354e+02     2.7647     -0.033     -0.049    27.8399   996.2992 0.0000e+00
     -0.034 2.4982e-32     7.6001     96.913     36.285  38.385648     2.7489      9.036   223.2760 5.3427e+02     2.7795     -0.034     -0.050    27.8369   996.3001 0.0000e+00
     -0.034 2.2711e-33     7.5812     96.692     36.281  38.389929     2.7483      9.031   223.0425 5.3498e+02     2.8081     -0.033     -0.049    27.8430   996.2983 0.0000e+00
     -0.034 2.0647e-34     7.5507     96.320     36.269  38.384175     2.7510      9.027   223.2347 5.3611e+02     2.8161     -0.033     -0.048    27.8555   996.2949 0.0000e+00
     -0.034 1.8772e-35     7.5108     95.827     36.258  38.379563     2.7548      9.025   223.3630 5.3765e+02     2.8104     -0.033     -0.049    27.8729   996.2899 0.0000e+00
     -0.034 1.7298e-36     7.4762     95.401     36.269  38.397660     2.7506      9.022   223.1304 5.3946e+02     2.8045     -0.033     -0.049    27.8897   996.2851 0.0000e+00
     -0.034 4.1346e-37     7.4597     95.202     36.279  38.412570     2.7351      9.019   222.8314 5.4324e+02     2.8095     -0.033     -0.049    27.9007   996.2820 0.0000e+00
     -0.034 2.8559e-36     7.4626     95.247     36.294  38.432881     2.7142      9.014   222.5877 5.5201e+02     2.8059     -0.033     -0.048    27.9087   996.2798 0.0000e+00
     -0.034 3.1261e-35     7.4772     95.442     36.310  38.452818     2.7065      9.009   222.2482 5.6777e+02     2.7935     -0.033     -0.049    27.9180   996.2771 0.0000e+00
     -0.034 3.4385e-34     7.4906     95.622     36.316  38.463206     2.7027      9.006   221.8242 5.8975e+02     2.7909     -0.033     -0.048    27.9278   996.2743 0.0000e+00
     -0.034 3.7824e-33     7.4904     95.624     36.344  38.495003     2.7121      9.003   221.4193 6.1248e+02     2.8077     -0.033     -0.048    27.9353   996.2722 0.0000e+00
     -0.034 4.1606e-32     7.4704     95.372     36.366  38.519893     2.7421      9.000   220.9668 6.3026e+02     2.8322     -0.033     -0.049    27.9402   996.2709 0.0000e+00
     -0.034 4.5767e-31     7.4283     94.833     36.357  38.510237     2.7528      8.996   220.3104 6.4148e+02     2.8253     -0.033     -0.048    27.9447   996.2696 0.0000e+00
     -0.034 5.0343e-30     7.3622     93.987     36.353  38.505206     2.7463      8.991   219.4196 6.4717e+02     2.7902     -0.033     -0.048    27.9500   996.2681 0.0000e+00
     -0.034 5.5378e-29     7.2758     92.884     36.370  38.522548     2.7598      8.987   218.7138 6.4977e+02     2.7678     -0.033     -0.048    27.9544   996.2668 0.0000e+00
     -0.034 6.0915e-28     7.1771     91.624     36.377  38.529479     2.7936      8.983   218.5744 6.5073e+02     2.7833     -0.033     -0.048    27.9554   996.2666 0.0000e+00
     -0.034 6.7007e-27     7.0741     90.310     36.373  38.525536     2.8168      8.979   218.5942 6.5089e+02     2.8140     -0.033     -0.048    27.9544   996.2668 0.0000e+00
     -0.034 7.3708e-26     6.9719     89.007     36.384  38.538345     2.8149      8.975   218.6097 6.5099e+02     2.8111     -0.033     -0.048    27.9528   996.2673 0.0000e+00
     -0.034 8.1078e-25     6.8712     87.724     36.401  38.557398     2.7889      8.970   218.3308 6.5067e+02     2.7813     -0.033     -0.048    27.9517   996.2677 0.0000e+00
     -0.034 8.9186e-24     6.7741     86.488     36.406  38.565483     2.7534      8.965   217.6313 6.4993e+02     2.7812     -0.033     -0.048    27.9516   996.2676 0.0000e+00
     -0.034 9.8105e-23     6.6830     85.331     36.411  38.572617     2.7407      8.961   217.2930 6.4932e+02     2.8093     -0.033     -0.048    27.9522   996.2675 0.0000e+00
     -0.033 1.0792e-21     6.5984     84.256     36.416  38.580186     2.7486      8.959   217.1655 6.4895e+02     2.8271     -0.033     -0.048    27.9535   996.2671 0.0000e+00
     -0.033 1.1871e-20     6.5198     83.256     36.426  38.593516     2.7531      8.956   217.0367 6.4862e+02     2.8321     -0.033     -0.048    27.9555   996.2665 0.0000e+00
     -0.034 1.3058e-19     6.4448     82.305     36.436  38.606837     2.7518      8.952   217.1123 6.4831e+02     2.8701     -0.033     -0.048    27.9584   996.2657 0.0000e+00
     -0.034 1.4364e-18     6.3709     81.366     36.441  38.614300     2.7499      8.948   216.6170 6.4833e+02     2.9586     -0.033     -0.048    27.9616   996.2648 0.0000e+00
     -0.034 1.5800e-17     6.2989     80.453     36.443  38.620280     2.7569      8.944   215.6076 6.4822e+02     3.0175     -0.033     -0.048    27.9651   996.2638 0.0000e+00
     -0.034 1.7380e-16     6.2328     79.614     36.436  38.615667     2.7670      8.940   215.3190 6.4761e+02     3.0246     -0.034     -0.049    27.9687   996.2628 0.0000e+00
     -0.033 1.9118e-15     6.1725     78.849     36.439  38.622007     2.7502      8.935   215.7082 6.4733e+02     3.0117     -0.033     -0.048    27.9725   996.2617 0.0000e+00
     -0.033 2.1030e-14     6.1153     78.122     36.448  38.633453     2.7191      8.929   215.9266 6.4736e+02     3.0262     -0.033     -0.047    27.9763   996.2607 0.0000e+00
     -0.033 2.3133e-13     6.0603     77.425     36.439  38.627114     2.7027      8.923   215.2921 6.4734e+02     3.0681     -0.033     -0.048    27.9801   996.2596 0.0000e+00
     -0.033 2.5446e-12     6.0081     76.764     36.419  38.608843     2.6994      8.918   214.0594 6.4735e+02     3.0599     -0.033     -0.048    27.9838   996.2585 0.0000e+00
     -0.033 2.7990e-11     5.9603     76.159     36.411  38.602981     2.6965      8.915   213.3254 6.4724e+02     3.0248     -0.033     -0.048    27.9877   996.2574 0.0000e+00
     -0.033 3.0790e-10     5.9188     75.635     36.423  38.619726     2.6845      8.913   213.2996 6.4668e+02     3.0371     -0.032     -0.047    27.9914   996.2564 0.0000e+00
     -0.033 3.3868e-09     5.8824     75.177     36.421  38.620870     2.6759      8.911   213.5762 6.4587e+02     3.0777     -0.032     -0.047    27.9949   996.2554 0.0000e+00
     -0.033 3.7255e-08     5.8478     74.743     36.413  38.616820     2.6793      8.910   213.5722 6.4503e+02     3.0575     -0.032     -0.047    27.9989   996.2542 0.0000e+00
     -0.033 4.0981e-07     5.8153     74.335     36.426  38.634240     2.6995      8.908   213.0790 6.4379e+02     2.9557     -0.033     -0.048    28.0035   996.2529 0.0000e+00
     -0.033      0.000     5.7878     73.991     36.428  38.641070     2.7297      8.906   212.6036 6.4250e+02     2.8308     -0.032     -0.047    28.0084   996.2515 0.0000e+00
     -0.033      0.000     5.7642     73.696     36.419  38.635925     2.7498      8.905   212.4704 6.4180e+02     2.7605     -0.033     -0.048    28.0133   996.2502 0.0000e+00
     -0.033      0.001     5.7428     73.430     36.415  38.635517     2.7606      8.902   212.5868 6.4124e+02     2.7939     -0.033     -0.047    28.0185   996.2487 0.0000e+00
     -0.033      0.001     5.7248     73.207     36.411  38.636148     2.7899      8.898   212.6341 6.4004e+02     2.9064     -0.033     -0.048    28.0242   996.2470 0.0000e+00
     -0.032      0.001     5.7083     73.004     36.414  38.643563     2.8444      8.896   212.6124 6.3855e+02     3.0060     -0.032     -0.047    28.0304   996.2453 0.0000e+00
     -0.032      0.001     5.6922     72.806     36.427  38.661696     2.8729      8.893   212.5823 6.3770e+02     3.0478     -0.031     -0.046    28.0362   996.2436 0.0000e+00
     -0.032      0.001     5.6792     72.648     36.426  38.664962     2.8660      8.890   212.3567 6.3722e+02     3.0519     -0.032     -0.046    28.0418   996.2420 0.0000e+00
     -0.032      0.001     5.6683     72.515     36.380  38.619592     2.8569      8.887   211.9496 6.3687e+02     3.0226     -0.032     -0.046    28.0478   996.2403 0.0000e+00
     -0.032      0.002     5.6562     72.366     36.318  38.557478     2.8409      8.885   211.4455 6.3685e+02     3.0221     -0.032     -0.046    28.0538   996.2386 0.0000e+00
     -0.032      0.005     5.6399     72.163     36.308  38.548726     2.8189      8.882   211.3378 6.3698e+02     3.0775     -0.032     -0.046    28.0601   996.2368 0.0000e+00
     -0.031      0.007     5.6188     71.898     36.332  38.577260     2.8081      8.879   211.5940 6.3721e+02     3.1020     -0.031     -0.044    28.0661   996.2351 0.0000e+00
     -0.029      0.008     5.5963     71.618     36.335  38.585100     2.8052      8.876   211.4450 6.3742e+02     3.0569     -0.030     -0.043    28.0718   996.2335 0.0000e+00
     -0.026      0.008     5.5744     71.347     36.325  38.580046     2.8272      8.871   210.9990 6.3742e+02     3.0242     -0.025     -0.036    28.0769   996.2320 0.0000e+00
     -0.022      0.008     5.5540     71.094     36.320  38.579637     2.8668      8.866   210.5041 6.3691e+02     3.0664     -0.020     -0.029    28.0797   996.2312 0.0000e+00
     -0.020      0.007     5.5359     70.869     36.317  38.580157     2.8764      8.862   210.0214 6.3612e+02     3.1086     -0.019     -0.028    28.0829   996.2303 0.0000e+00
     -0.020      0.005     5.5196     70.666     36.320  38.586344     2.8743      8.858   210.1527 6.3541e+02     3.0756     -0.019     -0.028    28.0900   996.2283 0.0000e+00
     -0.019      0.003     5.5047     70.480     36.321  38.590970     2.8928      8.855   210.8002 6.3396e+02     3.0277     -0.019     -0.028    28.0980   996.2261 0.0000e+00
     -0.018      0.002     5.4928     70.334     36.300  38.572612     2.9184      8.852   211.1403 6.3154e+02     3.0538     -0.018     -0.026    28.1047   996.2242 0.0000e+00
     -0.017      0.002     5.4851     70.242     36.280  38.554817     2.9334      8.849   210.9098 6.2870e+02     3.0964     -0.016     -0.024    28.1095   996.2228 0.0000e+00
     -0.017      0.001     5.4800     70.182     36.287  38.566254     2.9347      8.846   210.5073 6.2520e+02     3.0517     -0.017     -0.024    28.1130   996.2218 0.0000e+00
     -0.017      0.001     5.4750     70.125     36.300  38.583954     2.9252      8.843   210.8341 6.2086e+02     2.9391     -0.017     -0.024    28.1175   996.2205 0.0000e+00
     -0.017      0.000     5.4705     70.074     36.292  38.578388     2.9141      8.841   211.6780 6.1610e+02     2.8492     -0.016     -0.024    28.1227   996.2191 0.0000e+00
     -0.017 1.8783e-08     5.4682     70.051     36.273  38.562443     2.9215      8.838   211.9342 6.1211e+02     2.8173     -0.017     -0.024    28.1278   996.2176 0.0000e+00
     -0.017 2.0661e-07     5.4671     70.043     36.288  38.581599     2.9363      8.836   211.6092 6.1019e+02     2.8149     -0.017     -0.024    28.1333   996.2160 0.0000e+00
     -0.017 2.0661e-07     5.4668     70.045     36.320  38.619581     2.9114      8.834   211.1902 6.1050e+02     2.8201     -0.017     -0.024    28.1387   996.2145 0.0000e+00
     -0.017 1.8783e-08     5.4661     70.042     36.337  38.640819     2.8546      8.832   211.1697 6.1174e+02     2.8146     -0.016     -0.024    28.1438   996.2130 0.0000e+00
     -0.017 1.7075e-09     5.4627     70.002     36.341  38.647957     2.8214      8.829   211.5333 6.1230e+02     2.8149     -0.016     -0.023    28.1490   996.2115 0.0000e+00
     -0.017 1.5523e-10     5.4580     69.947     36.333  38.642414     2.8138      8.825   211.6292 6.1255e+02     2.8228     -0.016     -0.024    28.1541   996.2101 0.0000e+00
     -0.017 1.4112e-11     5.4536     69.894     36.326  38.637280     2.8062      8.820   211.3826 6.1315e+02     2.8116     -0.017     -0.024    28.1591   996.2087 0.0000e+00
     -0.016 1.2829e-12     5.4480     69.825     36.336  38.649360     2.7995      8.815   211.0462 6.1330e+02     2.7786     -0.016     -0.023    28.1636   996.2073 0.0000e+00
     -0.016 1.1663e-13     5.4408     69.737     36.346  38.661526     2.8010      8.810   210.7454 6.1201e+02     2.7833     -0.016     -0.023    28.1677   996.2062 0.0000e+00
     -0.016 1.0602e-14     5.4328     69.636     36.341  38.657420     2.8072      8.806   210.5854 6.0921e+02     2.8361     -0.016     -0.023    28.1712   996.2052 0.0000e+00
     -0.016 9.6385e-16     5.4227     69.509     36.346  38.663191     2.8145      8.803   210.6599 6.0505e+02     2.8606     -0.016     -0.023    28.1739   996.2044 0.0000e+00
     -0.016 8.7625e-17     5.4132     69.388     36.349  38.667821     2.8279      8.803   210.8722 5.9970e+02     2.9155     -0.016     -0.023    28.1761   996.2038 0.0000e+00
     -0.016 7.9660e-18     5.4084     69.328     36.332  38.649933     2.8477      8.802   211.0015 5.9347e+02     3.0080     -0.015     -0.022    28.1779   996.2033 0.0000e+00
     -0.016 7.2415e-19     5.4042     69.275     36.319  38.637333     2.8632      8.800   211.0193 5.8598e+02     3.0289     -0.016     -0.023    28.1797   996.2029 0.0000e+00
     -0.016 6.5835e-20     5.3957     69.168     36.322  38.642440     2.8683      8.797   210.8287 5.7823e+02     3.0040     -0.016     -0.023    28.1814   996.2023 0.0000e+00
     -0.016 5.9851e-21     5.3872     69.061     36.326  38.648205     2.8834      8.796   210.5894 5.7179e+02     2.9686     -0.016     -0.023    28.1828   996.2019 0.0000e+00
     -0.016 5.4491e-22     5.3810     68.984     36.320  38.643569     2.9155      8.795   210.5353 5.6673e+02     2.8962     -0.016     -0.023    28.1841   996.2015 0.0000e+00
     -0.016 5.8381e-23     5.3764     68.928     36.324  38.649868     2.9357      8.792   210.5183 5.6350e+02     2.8170     -0.016     -0.023    28.1854   996.2012 0.0000e+00
     -0.016 1.0260e-22     5.3735     68.895     36.333  38.660889     2.9369      8.788   210.5564 5.6161e+02     2.7970     -0.016     -0.023    28.1868   996.2007 0.0000e+00
     -0.016 1.0796e-21     5.3704     68.859     36.322  38.649868     2.9294      8.786   210.6526 5.6036e+02     2.8838     -0.016     -0.023    28.1888   996.2001 0.0000e+00
     -0.016 1.1871e-20     5.3666     68.812     36.314  38.643577     2.9234      8.786   210.3042 5.6103e+02     3.0147     -0.016     -0.023    28.1912   996.1995 0.0000e+00
     -0.016 1.3058e-19     5.3641     68.781     36.317  38.648307     2.9247      8.785   209.6137 5.6331e+02     3.0690     -0.016     -0.023    28.1935   996.1988 0.0000e+00
     -0.016 1.4364e-18     5.3628     68.768     36.312  38.643582     2.9278      8.783   209.4445 5.6565e+02     3.0486     -0.015     -0.022    28.1958   996.1982 0.0000e+00
     -0.016 1.5800e-17     5.3613     68.751     36.317  38.649919     2.9007      8.781   209.7212 5.6844e+02     3.0300     -0.015     -0.022    28.1982   996.1975 0.0000e+00
     -0.016 1.7380e-16     5.3581     68.711     36.327  38.661450     2.8401      8.780   209.8620 5.7144e+02     3.0731     -0.015     -0.022    28.2004   996.1969 0.0000e+00
     -0.016 1.9118e-15     5.3534     68.651     36.321  38.656048     2.8097      8.779   209.4260 5.7328e+02     3.1109     -0.016     -0.023    28.2026   996.1962 0.0000e+00
     -0.016 2.1030e-14     5.3487     68.590     36.314  38.648079     2.8104      8.777   208.6651 5.7397e+02     3.0613     -0.016     -0.023    28.2044   996.1957 0.0000e+00
     -0.016 2.3133e-13     5.3440     68.530     36.296  38.628578     2.8053      8.776   208.4062 5.7326e+02     3.0303     -0.015     -0.022    28.2058   996.1954 0.0000e+00
     -0.016 2.5446e-12     5.3380     68.452     36.280  38.610699     2.8175      8.775   208.6185 5.7149e+02     3.0314     -0.016     -0.023    28.2065   996.1951 0.0000e+00
     -0.016 2.7991e-11     5.3308     68.359     36.291  38.622334     2.8542      8.774   208.9095 5.6968e+02     3.0104     -0.015     -0.022    28.2071   996.1949 0.0000e+00
     -0.016 3.0790e-10     5.3233     68.262     36.310  38.642312     2.8767      8.772   208.8264 5.6694e+02     3.0377     -0.015     -0.022    28.2075   996.1948 0.0000e+00
     -0.016 3.3869e-09     5.3153     68.159     36.328  38.661814     2.8730      8.770   208.3020 5.6330e+02     3.0663     -0.015     -0.022    28.2073   996.1949 0.0000e+00
     -0.015 3.7256e-08     5.3082     68.068     36.334  38.667689     2.8790      8.767   207.9036 5.6047e+02     3.0939     -0.015     -0.022    28.2071   996.1949 0.0000e+00
     -0.015 4.0982e-07     5.3033     68.005     36.317  38.649866     2.9141      8.764   207.9673 5.5883e+02     3.2073     -0.015     -0.022    28.2064   996.1951 0.0000e+00
     -0.015      0.000     5.2992     67.951     36.305  38.636756     2.9415      8.761   208.2981 5.5807e+02     3.2898     -0.016     -0.023    28.2058   996.1953 0.0000e+00
     -0.015      0.000     5.2948     67.895     36.305  38.636141     2.9416      8.759   208.4614 5.5815e+02     3.2727     -0.015     -0.022    28.2054   996.1954 0.0000e+00
     -0.015      0.001     5.2910     67.847     36.311  38.642431     2.9322      8.758   208.3924 5.5947e+02     3.1316     -0.015     -0.022    28.2049   996.1956 0.0000e+00
     -0.015      0.001     5.2873     67.800     36.317  38.649326     2.9234      8.757   208.2385 5.6258e+02     2.8946     -0.015     -0.022    28.2045   996.1957 0.0000e+00
     -0.015      0.001     5.2830     67.745     36.322  38.656022     2.9229      8.755   208.1504 5.6684e+02     2.8001     -0.014     -0.021    28.2044   996.1957 0.0000e+00
     -0.015      0.001     5.2785     67.688     36.327  38.659925     2.9257      8.753   208.1012 5.7149e+02     2.8411     -0.014     -0.021    28.2046   996.1957 0.0000e+00
     -0.015      0.001     5.2749     67.641     36.302  38.633036     2.9127      8.752   207.8155 5.7727e+02     2.8328     -0.014     -0.021    28.2048   996.1956 0.0000e+00
     -0.015      0.003     5.2707     67.585     36.258  38.584817     2.8882      8.748   207.3629 5.8412e+02     2.7981     -0.015     -0.022    28.2050   996.1955 0.0000e+00
     -0.015      0.008     5.2632     67.482     36.201  38.521250     2.8730      8.742   206.7589 5.9044e+02     2.7817     -0.014     -0.021    28.2053   996.1955 0.0000e+00
     -0.014      0.015     5.2512     67.321     36.125  38.435753     2.8671      8.730   205.4165 5.9438e+02     2.7662     -0.014     -0.020    28.2052   996.1955 0.0000e+00
     -0.012      0.024     5.2350     67.097     36.079  38.376273     2.8687      8.714   203.6940 5.8062e+02     2.8070     -0.013     -0.020    28.2047   996.1957 0.0000e+00
     -0.005      0.034     5.2165     66.835     36.090  38.373358     2.8750      8.697   202.7965 5.2727e+02     2.9152     -0.007     -0.011    28.2035   996.1961 0.0000e+00
      0.006      0.043     5.1977     66.578     36.125  38.400487     2.8736      8.684   202.8243 4.5241e+02     2.9931      0.004      0.007    28.1965   996.1980 0.0000e+00
      0.021      0.051     5.1804     66.350     36.115  38.386887     2.8695      8.674   202.9115 4.0265e+02     3.0269      0.019      0.028    28.1928   996.1992 0.0000e+00
      0.038      0.058     5.1675     66.165     36.079  38.335871     2.8767      8.669   202.6464 3.8828e+02     3.0941      0.039      0.056    28.1826   996.2021 0.0000e+00
      0.055      0.065     5.1610     66.040     36.061  38.291451     2.8831      8.667   202.4588 3.8425e+02     3.2160      0.056      0.081    28.1514   996.2111 0.0000e+00
      0.068      0.072     5.1621     66.010     35.970  38.167150     2.8785      8.667   202.1055 3.7509e+02     3.2889      0.066      0.096    28.1360   996.2156 0.0000e+00
      0.082      0.077     5.1889     66.309     35.875  38.038967     2.8722      8.666   201.4722 3.7006e+02     3.2542      0.077      0.112    28.1441   996.2133 0.0000e+00
      0.104      0.081     5.3382     68.118     35.962  38.074571     2.8674      8.664   201.6851 3.6238e+02     3.2223      0.100      0.146    28.1296   996.2175 0.0000e+00
      0.132      0.085     5.7511     73.193     36.134  38.153215     2.8730      8.660   202.7010 3.4104e+02     3.1984      0.132      0.190    28.0862   996.2300 0.0000e+00
      0.157      0.086     6.4321     81.638     36.249  38.164484     2.8795      8.655   203.1716 3.2670e+02     3.0964      0.156      0.226    28.0402   996.2432 0.0000e+00
      0.178      0.082     7.2329     91.628     36.309  38.147168     2.8766      8.649   202.7290 3.1863e+02     3.0046      0.175      0.254    28.0238   996.2479 0.0000e+00
      0.198      0.074     8.0069    101.315     36.344  38.134157     2.8813      8.647   202.0817 3.0706e+02     3.0057      0.195      0.283    27.9677   996.2640 0.0000e+00
      0.218      0.067     8.6745    109.676     36.376  38.134040     2.9178      8.646   202.3143 2.9824e+02     3.0774      0.215      0.312    27.7888   996.3147 0.0000e+00
      0.234      0.062     9.1934    116.158     36.353  38.082226     2.9720      8.644   203.4770 2.9551e+02     3.1189      0.230      0.335    27.6145   996.3639 0.0000e+00
      0.245      0.061     9.5355    120.385     36.260  37.951972     2.9900      8.639   204.4387 2.9662e+02     3.0807      0.240      0.348    27.5124   996.3925 0.0000e+00
      0.257      0.063     9.6969    122.279     36.187  37.828623     2.9884      8.632   204.9081 2.9609e+02     3.0422      0.251      0.362    27.4489   996.4103 0.0000e+00
      0.272      0.066     9.6997    122.142     36.212  37.796784     2.9962      8.624   204.9360 2.9633e+02     3.0133      0.266      0.385    27.4088   996.4216 0.0000e+00
      0.291      0.068     9.5927    120.658     36.279  37.820822     2.9975      8.619   204.7770 2.9654e+02     3.0255      0.284      0.412    27.3729   996.4317 0.0000e+00
      0.312      0.069     9.4424    118.701     36.282  37.801809     2.9945      8.618   205.3081 2.9454e+02     3.0594      0.305      0.442    27.3369   996.4418 0.0000e+00
      0.333      0.069     9.2997    116.861     36.255  37.757298     2.9956      8.617   206.4532 2.8983e+02     3.0303      0.330      0.477    27.2685   996.4608 0.0000e+00
      0.351      0.068     9.1820    115.306     36.251  37.726949     3.0108      8.616   207.3517 2.9084e+02     3.0011      0.346      0.502    27.1752   996.4867 0.0000e+00
      0.364      0.066     9.0912    114.076     36.245  37.688722     3.0389      8.615   207.7397 2.9434e+02     3.0333      0.356      0.517    27.1015   996.5072 0.0000e+00
      0.378      0.065     9.0281    113.209     36.259  37.675893     3.0583      8.612   207.7881 2.8650e+02     3.0595      0.370      0.537    27.0832   996.5122 0.0000e+00
      0.394      0.066     8.9896    112.670     36.300  37.698747     3.0547      8.606   207.7650 2.7752e+02     3.0234      0.387      0.561    27.0763   996.5143 0.0000e+00
      0.412      0.070     8.9690    112.365     36.328  37.711119     3.0303      8.597   208.0622 2.7138e+02     2.9899      0.404      0.586    27.0300   996.5271 0.0000e+00
      0.430      0.074     8.9581    112.182     36.332  37.698502     3.0057      8.587   208.5424 2.6665e+02     3.0140      0.420      0.610    26.9804   996.5408 0.0000e+00
      0.449      0.076     8.9518    112.050     36.326  37.673122     3.0007      8.576   208.7529 2.6526e+02     3.0526      0.438      0.637    26.9442   996.5509 0.0000e+00
      0.471      0.074     8.9513    111.995     36.329  37.658122     3.0034      8.569   208.8873 2.6205e+02     3.0639      0.461      0.669    26.9173   996.5583 0.0000e+00
      0.494      0.071     8.9608    112.076     36.328  37.644057     2.9956      8.566   209.1338 2.5691e+02     3.0524      0.487      0.705    26.8980   996.5638 0.0000e+00
      0.514      0.066     8.9789    112.274     36.325  37.630002     3.0015      8.566   208.9800 2.5226e+02     2.9792      0.507      0.736    26.8749   996.5702 0.0000e+00
      0.527      0.062     9.0003    112.510     36.321  37.615105     3.0315      8.565   208.6625 2.4887e+02     2.8338      0.519      0.752    26.8473   996.5777 0.0000e+00
      0.538      0.060     9.0209    112.731     36.311  37.590880     3.0546      8.563   208.9955 2.4651e+02     2.7701      0.526      0.764    26.8202   996.5852 0.0000e+00
      0.550      0.061     9.0400    112.926     36.326  37.590976     3.0642      8.559   209.7355 2.4349e+02     2.8306      0.539      0.781    26.8029   996.5900 0.0000e+00
      0.564      0.063     9.0562    113.077     36.368  37.616244     3.0612      8.555   210.1251 2.4141e+02     2.9097      0.551      0.799    26.7913   996.5932 0.0000e+00
      0.583      0.066     9.0672    113.162     36.411  37.642469     3.0531      8.550   209.5765 2.3801e+02     2.9730      0.569      0.825    26.7749   996.5977 0.0000e+00
      0.605      0.066     9.0761    113.225     36.440  37.654127     3.0530      8.544   208.6953 2.2952e+02     3.0062      0.594      0.861    26.7573   996.6026 0.0000e+00
      0.625      0.062     9.0900    113.355     36.431  37.630217     3.0600      8.538   208.5046 2.2226e+02     3.0163      0.615      0.892    26.7362   996.6084 0.0000e+00
      0.641      0.053     9.1130    113.610     36.420  37.607252     3.0769      8.536   208.8187 2.1886e+02     2.9639      0.629      0.913    26.7095   996.6158 0.0000e+00
      0.653      0.045     9.1467    114.011     36.449  37.630344     3.1006      8.535   209.3961 2.1733e+02     2.8645      0.643      0.931    26.6834   996.6230 0.0000e+00
      0.662      0.042     9.1922    114.561     36.480  37.655505     3.1121      8.532   209.8933 2.1809e+02     2.8304      0.653      0.945    26.6594   996.6296 0.0000e+00
      0.666      0.046     9.2451    115.176     36.496  37.657568     3.1130      8.526   209.5823 2.1798e+02     2.8472      0.655      0.949    26.6365   996.6358 0.0000e+00
      0.670      0.056     9.2964    115.728     36.524  37.655254     3.1459      8.521   208.8186 2.1491e+02     2.9029      0.654      0.950    26.6212   996.6400 0.0000e+00
      0.680      0.070     9.3459    116.235     36.534  37.627486     3.2061      8.518   208.4894 2.0909e+02     3.0127      0.661      0.958    26.6136   996.6421 0.0000e+00
      0.705      0.085     9.4069    116.885     36.520  37.575663     3.2340      8.516   208.4406 2.0077e+02     3.0600      0.690      1.000    26.6086   996.6436 0.0000e+00
      0.738      0.097     9.4859    117.750     36.521  37.536411     3.2415      8.514   208.4871 1.9270e+02     3.0161      0.725      1.052    26.5945   996.6476 0.0000e+00
      0.769      0.103     9.5759    118.744     36.559  37.533677     3.3390      8.514   208.4504 1.8635e+02     3.0064      0.754      1.094    26.5463   996.6607 0.0000e+00
      0.798      0.101     9.6692    119.801     36.600  37.542544     3.5113      8.515   207.9963 1.8099e+02     3.0414      0.783      1.136    26.4859   996.6772 0.0000e+00
      0.825      0.091     9.7604    120.861     36.597  37.516619     3.6001      8.516   207.5565 1.7605e+02     3.0459      0.810      1.175    26.4436   996.6887 0.0000e+00
      0.847      0.080     9.8434    121.851     36.568  37.474086     3.6066      8.518   207.3495 1.7200e+02     3.0274      0.833      1.208    26.3866   996.7042 0.0000e+00
      0.864      0.072     9.9133    122.702     36.510  37.409111     3.6064      8.518   207.4722 1.6920e+02     3.0151      0.849      1.232    26.3213   996.7219 0.0000e+00
      0.876      0.067     9.9644    123.302     36.415  37.302275     3.6588      8.515   208.0067 1.6664e+02     3.0274      0.859      1.246    26.2777   996.7337 0.0000e+00
      0.889      0.067     9.9885    123.515     36.340  37.197905     3.7718      8.510   208.4783 1.6381e+02     3.0779      0.870      1.263    26.2444   996.7427 0.0000e+00
      0.906      0.071     9.9909    123.415     36.285  37.099259     3.8375      8.501   208.6998 1.6011e+02     3.1014      0.886      1.286    26.2263   996.7476 0.0000e+00
      0.926      0.076     9.9791    123.124     36.233  36.998122     3.8457      8.492   208.7921 1.5545e+02     3.0823      0.907      1.315    26.2288   996.7470 0.0000e+00
      0.948      0.080     9.9401    122.497     36.210  36.927089     3.9053      8.485   208.8196 1.5117e+02     3.1753      0.929      1.348    26.2228   996.7487 0.0000e+00
      0.971      0.082     9.8718    121.510     36.206  36.875063     4.0207      8.479   209.0335 1.4751e+02     3.3729      0.952      1.381    26.1811   996.7599 0.0000e+00
      0.994      0.082     9.7858    120.317     36.189  36.813320     4.0877      8.472   209.4853 1.4394e+02     3.4730      0.976      1.415    26.1160   996.7773 0.0000e+00
      1.014      0.083     9.6909    119.035     36.166  36.751739     4.1002      8.463   209.8935 1.4057e+02     3.4672      0.996      1.445    26.0508   996.7948 0.0000e+00
      1.032      0.086     9.6008    117.822     36.151  36.701684     4.1798      8.452   210.2698 1.3730e+02     3.4016      1.011      1.467    25.9857   996.8121 0.0000e+00
      1.051      0.089     9.5248    116.784     36.138  36.652359     4.3398      8.441   211.0236 1.3388e+02     3.3016      1.030      1.494    25.9168   996.8305 0.0000e+00
      1.074      0.094     9.4597    115.880     36.122  36.599610     4.4403      8.428   212.1236 1.3002e+02     3.2421      1.051      1.526    25.8534   996.8473 0.0000e+00
      1.100      0.099     9.3951    114.985     36.130  36.571624     4.4757      8.414   212.9877 1.2577e+02     3.2398      1.078      1.565    25.8015   996.8612 0.0000e+00
      1.129      0.103     9.3214    113.981     36.161  36.567821     4.6817      8.401   213.5555 1.2162e+02     3.3723      1.108      1.609    25.7560   996.8733 0.0000e+00
      1.158      0.104     9.2374    112.856     36.180  36.553578     5.0488      8.387   214.0848 1.1772e+02     3.5982      1.135      1.646    25.7054   996.8868 0.0000e+00
      1.185      0.103     9.1494    111.696     36.184  36.526299     5.2378      8.373   214.5686 1.1422e+02     3.7101      1.163      1.686    25.6536   996.9005 0.0000e+00
      1.211      0.101     9.0606    110.537     36.176  36.491837     5.2687      8.360   214.9317 1.1114e+02     3.7097      1.189      1.724    25.6059   996.9130 0.0000e+00
      1.235      0.097     8.9690    109.350     36.164  36.454216     5.4298      8.348   215.2913 1.0802e+02     3.6909      1.211      1.756    25.5568   996.9261 0.0000e+00
      1.259      0.091     8.8737    108.125     36.185  36.452218     5.7031      8.337   215.7334 1.0480e+02     3.6789      1.235      1.791    25.5082   996.9389 0.0000e+00
      1.284      0.083     8.7797    106.924     36.220  36.467648     5.8507      8.327   216.0606 1.0188e+02     3.6641      1.260      1.827    25.4659   996.9500 0.0000e+00
      1.306      0.073     8.6957    105.854     36.220  36.450324     5.8628      8.319   216.3229 9.9693e+01     3.6430      1.284      1.862    25.4296   996.9596 0.0000e+00
      1.324      0.063     8.6246    104.950     36.217  36.433147     5.8672      8.311   216.9249 9.8175e+01     3.6525      1.300      1.887    25.3953   996.9686 0.0000e+00
      1.338      0.055     8.5647    104.187     36.247  36.450367     5.9377      8.305   217.9189 9.6940e+01     3.6145      1.312      1.903    25.3628   996.9771 0.0000e+00
      1.349      0.051     8.5135    103.531     36.277  36.468096     6.0657      8.297   218.7059 9.5873e+01     3.5122      1.323      1.920    25.3348   996.9844 0.0000e+00
      1.357      0.051     8.4666    102.923     36.280  36.457069     6.1407      8.285   219.0407 9.4951e+01     3.4643      1.331      1.930    25.3109   996.9906 0.0000e+00
      1.366      0.056     8.4223    102.351     36.280  36.443955     6.1584      8.271   219.2995 9.3830e+01     3.4609      1.338      1.940    25.2912   996.9957 0.0000e+00
      1.378      0.061     8.3796    101.815     36.280  36.436470     6.1763      8.256   219.5977 9.1930e+01     3.4714      1.350      1.957    25.2749   997.0000 0.0000e+00
      1.398      0.066     8.3374    101.292     36.278  36.430025     6.2004      8.243   219.8074 8.9374e+01     3.4933      1.369      1.985    25.2588   997.0043 0.0000e+00
      1.422      0.069     8.3006    100.828     36.284  36.429491     6.2158      8.233   220.0279 8.6918e+01     3.4964      1.395      2.022    25.2384   997.0097 0.0000e+00
      1.443      0.070     8.2726    100.468     36.292  36.430001     6.2241      8.222   220.5434 8.5082e+01     3.5085      1.417      2.055    25.2142   997.0161 0.0000e+00
      1.460      0.070     8.2535    100.224     36.303  36.436177     6.2314      8.208   221.3084 8.3678e+01     3.5411      1.433      2.078    25.2083   997.0176 0.0000e+00
      1.474      0.069     8.2486    100.141     36.316  36.440691     6.2347      8.192   222.3937 8.2327e+01     3.5635      1.445      2.097    25.2069   997.0181 0.0000e+00
      1.487      0.067     8.2578    100.197     36.319  36.421091     6.2293      8.178   223.9437 8.0885e+01     3.5493      1.456      2.114    25.1958   997.0210 0.0000e+00
      1.503      0.065     8.2662    100.258     36.303  36.389577     6.2268      8.166   225.2505 7.8647e+01     3.5007      1.470      2.132    25.1818   997.0247 0.0000e+00
      1.526      0.064     8.2603    100.182     36.293  36.376988     6.3003      8.156   225.8035 7.6216e+01     3.4680      1.498      2.172    25.1769   997.0261 0.0000e+00
      1.546      0.065     8.2367     99.858     36.326  36.395823     6.4336      8.146   225.8983 7.4987e+01     3.4811      1.522      2.208    25.1798   997.0254 0.0000e+00
      1.558      0.066     8.1983     99.309     36.391  36.426868     6.5022      8.136   225.8806 7.4126e+01     3.4952      1.527      2.216    25.1291   997.0385 0.0000e+00
      1.569      0.066     8.1483     98.617     36.433  36.434942     6.5061      8.126   226.0188 7.2726e+01     3.4746      1.536      2.228    25.0963   997.0470 0.0000e+00
      1.585      0.063     8.0866     97.787     36.462  36.429924     6.5068      8.118   226.3651 7.0853e+01     3.3964      1.552      2.251    25.1244   997.0398 0.0000e+00
      1.607      0.062     8.0166     96.852     36.498  36.429629     6.5105      8.110   226.7986 6.8738e+01     3.3025      1.575      2.284    25.1024   997.0457 0.0000e+00
      1.628      0.062     7.9421     95.859     36.538  36.431312     6.5161      8.103   227.3887 6.7085e+01     3.2905      1.599      2.318    25.0402   997.0617 0.0000e+00
      1.643      0.062     7.8629     94.808     36.597  36.450213     6.5224      8.095   228.2521 6.6081e+01     3.3163      1.614      2.340    24.9957   997.0732 0.0000e+00
      1.654      0.063     7.7789     93.706     36.652  36.467686     6.5263      8.085   229.1491 6.5251e+01     3.2871      1.622      2.352    24.9537   997.0839 0.0000e+00
      1.665      0.065     7.6916     92.585     36.667  36.452102     6.5452      8.073   229.8893 6.4199e+01     3.2328      1.631      2.366    24.8999   997.0978 0.0000e+00
      1.679      0.070     7.6031     91.460     36.692  36.452160     6.5773      8.062   230.4043 6.2735e+01     3.2491      1.645      2.385    24.8505   997.1105 0.0000e+00
      1.699      0.076     7.5135     90.325     36.733  36.468345     6.5948      8.051   230.6443 6.0731e+01     3.2871      1.662      2.411    24.7931   997.1252 0.0000e+00
      1.725      0.083     7.4202     89.136     36.753  36.457350     6.6003      8.038   231.3280 5.8629e+01     3.2663      1.692      2.454    24.7354   997.1400 0.0000e+00
      1.750      0.089     7.3234     87.868     36.790  36.446116     6.6440      8.027   232.2180 5.7069e+01     3.1288      1.719      2.492    24.7024   997.1485 0.0000e+00
      1.771      0.091     7.2243     86.542     36.867  36.459396     6.7235      8.017   232.4570 5.5667e+01     2.9029      1.735      2.517    24.6666   997.1577 0.0000e+00
      1.793      0.088     7.1157     85.108     36.962  36.490871     6.7563      8.008   232.5835 5.3942e+01     2.7959      1.756      2.546    24.6326   997.1663 0.0000e+00
      1.818      0.082     6.9862     83.453     37.032  36.509228     6.7543      8.001   232.8007 5.2212e+01     2.8184      1.783      2.586    24.6030   997.1739 0.0000e+00
      1.842      0.075     6.8321     81.533     37.052  36.490860     6.7595      7.994   233.0181 5.0848e+01     2.7820      1.809      2.624    24.5362   997.1909 0.0000e+00
      1.861      0.070     6.6614     79.441     37.047  36.459154     6.7584      7.986   233.9213 4.9892e+01     2.6839      1.827      2.651    24.4389   997.2154 0.0000e+00
      1.875      0.066     6.4893     77.357     37.047  36.443181     6.7578      7.977   235.2041 4.9249e+01     2.6471      1.839      2.669    24.3519   997.2373 0.0000e+00
      1.886      0.065     6.3328     75.469     37.041  36.424654     6.7697      7.970   235.7940 4.8642e+01     2.6328      1.849      2.682    24.2830   997.2546 0.0000e+00
      1.898      0.065     6.2028     73.884     37.061  36.425548     6.7902      7.962   235.9771 4.7687e+01     2.6423      1.858      2.695    24.2318   997.2674 0.0000e+00
      1.915      0.068     6.0994     72.605     37.116  36.453962     6.8065      7.953   235.9561 4.6372e+01     2.7285      1.875      2.721    24.1943   997.2768 0.0000e+00
      1.938      0.073     6.0170     71.587     37.133  36.450804     6.8095      7.945   235.7107 4.5107e+01     2.8236      1.901      2.759    24.1741   997.2819 0.0000e+00
      1.960      0.077     5.9455     70.717     37.145  36.450800     6.8012      7.938   236.2806 4.4044e+01     2.8419      1.923      2.789    24.1693   997.2833 0.0000e+00
      1.979      0.079     5.8791     69.918     37.154  36.453899     6.7583      7.929   237.5979 4.3001e+01     2.7529      1.939      2.813    24.1412   997.2903 0.0000e+00
      1.998      0.079     5.8209     69.202     37.138  36.424804     6.6893      7.919   238.4745 4.1977e+01     2.6322      1.959      2.841    24.0960   997.3016 0.0000e+00
      2.017      0.079     5.7685     68.518     37.165  36.416350     6.6522      7.911   238.7053 4.0978e+01     2.5626      1.978      2.868    24.0707   997.3079 0.0000e+00
      2.037      0.078     5.7165     67.818     37.214  36.415109     6.6394      7.904   238.7537 3.9950e+01     2.5664      1.998      2.898    24.0557   997.3117 0.0000e+00
      2.058      0.075     5.6629     67.108     37.253  36.409714     6.6301      7.897   239.3182 3.8896e+01     2.6126      2.018      2.927    24.0540   997.3122 0.0000e+00
      2.080      0.071     5.6056     66.375     37.291  36.414530     6.5830      7.891   240.3673 3.7902e+01     2.6300      2.040      2.958    24.0504   997.3132 0.0000e+00
      2.099      0.067     5.5451     65.608     37.318  36.409824     6.4856      7.886   241.2009 3.7146e+01     2.6123      2.061      2.989    23.9934   997.3274 0.0000e+00
      2.114      0.065     5.4832     64.810     37.366  36.416247     6.4240      7.880   241.6535 3.6625e+01     2.5955      2.075      3.009    23.9152   997.3467 0.0000e+00
      2.126      0.064     5.4205     63.986     37.431  36.428652     6.4011      7.872   241.7097 3.6097e+01     2.5902      2.084      3.023    23.8561   997.3613 0.0000e+00
      2.140      0.065     5.3557     63.136     37.491  36.432795     6.3472      7.863   241.7081 3.5435e+01     2.5822      2.097      3.042    23.8166   997.3711 0.0000e+00
      2.155      0.067     5.2871     62.255     37.573  36.466265     6.2757      7.856   241.9785 3.4635e+01     2.5642      2.113      3.064    23.7842   997.3790 0.0000e+00
      2.175      0.072     5.2183     61.395     37.657  36.515903     6.2380      7.848   242.4835 3.3676e+01     2.5688      2.132      3.091    23.7295   997.3925 0.0000e+00
      2.197      0.077     5.1571     60.634     37.695  36.525139     6.2125      7.839   242.9956 3.2806e+01     2.5726      2.156      3.127    23.6559   997.4105 0.0000e+00
      2.217      0.081     5.1083     59.995     37.729  36.514432     6.0719      7.831   243.2665 3.2142e+01     2.5436      2.175      3.155    23.5798   997.4291 0.0000e+00
      2.236      0.082     5.0712     59.464     37.794  36.513324     5.8389      7.823   243.5222 3.1369e+01     2.5470      2.190      3.177    23.5121   997.4457 0.0000e+00
      2.257      0.082     5.0370     58.958     37.866  36.511645     5.7187      7.818   243.5917 3.0454e+01     2.6138      2.213      3.210    23.4736   997.4551 0.0000e+00
      2.281      0.081     4.9924     58.336     37.920  36.494032     5.6934      7.812   243.5050 2.9629e+01     2.6627      2.238      3.246    23.4538   997.4600 0.0000e+00
      2.302      0.080     4.9297     57.515     37.980  36.490683     5.5330      7.805   243.9363 2.8934e+01     2.6471      2.258      3.277    23.3966   997.4739 0.0000e+00
      2.322      0.077     4.8487     56.496     38.081  36.534541     5.2449      7.799   244.5906 2.8339e+01     2.6212      2.279      3.305    23.3026   997.4966 0.0000e+00
      2.340      0.073     4.7556     55.344     38.178  36.579934     5.0882      7.794   245.2210 2.7735e+01     2.6122      2.295      3.328    23.2051   997.5200 0.0000e+00
      2.358      0.069     4.6624     54.196     38.243  36.595144     5.0770      7.789   245.9655 2.7082e+01     2.6024      2.313      3.354    23.1104   997.5426 0.0000e+00
      2.377      0.067     4.5821     53.203     38.286  36.591435     5.1104      7.783   246.0213 2.6520e+01     2.6011      2.332      3.382    23.0293   997.5620 0.0000e+00
      2.393      0.066     4.5246     52.490     38.330  36.598505     5.1704      7.776   245.4657 2.6057e+01     2.5966      2.347      3.403    22.9631   997.5779 0.0000e+00
      2.408      0.065     4.5004     52.190     38.365  36.617097     5.2037      7.770   245.4427 2.5581e+01     2.5820      2.361      3.423    22.9004   997.5927 0.0000e+00
      2.424      0.065     4.5171     52.380     38.378  36.625802     5.2099      7.765   245.9151 2.5051e+01     2.5882      2.376      3.446    22.8400   997.6070 0.0000e+00
      2.442      0.065     4.5670     52.944     38.404  36.640278     5.2026      7.760   246.6173 2.4512e+01     2.5727      2.394      3.472    22.7783   997.6216 0.0000e+00
      2.459      0.066     4.6305     53.630     38.469  36.665162     5.1669      7.754   247.3944 2.3989e+01     2.5253      2.412      3.498    22.7234   997.6345 0.0000e+00
      2.475      0.069     4.6965     54.300     38.551  36.672733     5.1170      7.747   247.3945 2.3493e+01     2.5077      2.427      3.521    22.7104   997.6377 0.0000e+00
      2.491      0.072     4.7588     54.900     38.640  36.668238     5.0933      7.741   246.8769 2.3024e+01     2.5232      2.442      3.543    22.7174   997.6361 0.0000e+00
      2.509      0.074     4.8106     55.396     38.724  36.674148     5.0885      7.736   246.9012 2.2528e+01     2.5486      2.460      3.568    22.7087   997.6382 0.0000e+00
      2.529      0.074     4.8539     55.834     38.777  36.680616     5.0410      7.730   247.5153 2.1963e+01     2.5205      2.479      3.596    22.6680   997.6479 0.0000e+00
      2.551      0.073     4.8910     56.216     38.813  36.682910     4.9525      7.724   248.2794 2.1389e+01     2.4459      2.501      3.628    22.5708   997.6707 0.0000e+00
      2.572      0.070     4.9220     56.528     38.867  36.701841     4.9031      7.719   248.5685 2.0913e+01     2.4003      2.524      3.661    22.4328   997.7027 0.0000e+00
      2.590      0.067     4.9479     56.768     38.928  36.719048     4.8944      7.714   248.4296 2.0558e+01     2.3951      2.541      3.687    22.3289   997.7269 0.0000e+00
      2.605      0.063     4.9668     56.888     38.983  36.700490     4.8307      7.709   248.5788 2.0270e+01     2.4152      2.555      3.706    22.2905   997.7358 0.0000e+00
      2.617      0.061     4.9747     56.833     39.058  36.667778     4.7044      7.705   249.1685 1.9969e+01     2.4147      2.567      3.723    22.2515   997.7448 0.0000e+00
      2.631      0.060     4.9695     56.616     39.150  36.640742     4.6253      7.700   249.8810 1.9598e+01     2.3887      2.579      3.741    22.2083   997.7547 0.0000e+00
      2.647      0.061     4.9503     56.265     39.237  36.627331     4.6196      7.695   250.3104 1.9179e+01     2.3955      2.595      3.764    22.1725   997.7631 0.0000e+00
      2.663      0.062     4.9203     55.838     39.309  36.632441     4.6526      7.690   250.4885 1.8786e+01     2.4311      2.612      3.787    22.0870   997.7826 0.0000e+00
      2.681      0.063     4.8888     55.440     39.348  36.638967     4.7035      7.686   250.6572 1.8436e+01     2.4588      2.628      3.813    21.9387   997.8164 0.0000e+00
      2.698      0.064     4.8608     55.098     39.372  36.642728     4.7232      7.682   250.8878 1.8109e+01     2.4678      2.646      3.839    21.7814   997.8520 0.0000e+00
      2.713      0.065     4.8424     54.832     39.387  36.614418     4.7088      7.677   251.2979 1.7789e+01     2.4418      2.660      3.858    21.6538   997.8806 0.0000e+00
      2.728      0.068     4.8370     54.653     39.343  36.487031     4.6776      7.671   251.7437 1.7463e+01     2.3742      2.674      3.879    21.5724   997.8989 0.0000e+00
      2.744      0.071     4.8365     54.486     39.279  36.308366     4.6326      7.665   252.0625 1.7125e+01     2.3066      2.691      3.903    21.5454   997.9049 0.0000e+00
      2.762      0.076     4.8289     54.230     39.264  36.167778     4.6063      7.660   252.5714 1.6713e+01     2.2471      2.707      3.926    21.5420   997.9058 0.0000e+00
      2.783      0.081     4.8107     53.869     39.270  36.056458     4.5934      7.653   253.2498 1.6264e+01     2.2106      2.729      3.958    21.4991   997.9155 0.0000e+00
      2.805      0.085     4.7876     53.467     39.301  35.977787     4.5720      7.647   253.8126 1.5860e+01     2.1941      2.751      3.990    21.3805   997.9417 0.0000e+00
      2.827      0.086     4.7670     53.113     39.333  35.914604     4.4940      7.642   254.3861 1.5403e+01     2.1124      2.770      4.018    21.2151   997.9781 0.0000e+00
      2.854      0.085     4.7594     52.925     39.362  35.863628     4.3618      7.637   255.0215 1.4906e+01     2.0423      2.798      4.059    21.0456   998.0152 0.0000e+00
      2.879      0.083     4.7726     52.970     39.453  35.869113     4.2914      7.632   255.6449 1.4577e+01     2.0350      2.829      4.102    20.9002   998.0468 0.0000e+00
      2.897      0.080     4.8091     53.250     39.539  35.853874     4.2840      7.627   256.1592 1.4382e+01     1.9906      2.842      4.123    20.7628   998.0764 0.0000e+00
      2.911      0.076     4.8638     53.711     39.605  35.806199     4.3159      7.622   256.5932 1.4102e+01     1.9316      2.852      4.138    20.6371   998.1033 0.0000e+00
      2.931      0.070     4.9197     54.196     39.707  35.800299     4.3912      7.619   257.1058 1.3736e+01     1.9122      2.872      4.166    20.5501   998.1219 0.0000e+00
      2.953      0.065     4.9580     54.525     39.763  35.782402     4.4404      7.616   257.6249 1.3437e+01     1.9196      2.898      4.203    20.4636   998.1403 0.0000e+00
      2.972      0.065     4.9650     54.540     39.741  35.716655     4.4511      7.613   258.1383 1.3247e+01     1.9230      2.918      4.232    20.3430   998.1658 0.0000e+00
      2.984      0.067     4.9367     54.167     39.707  35.640004     4.4426      7.610   258.5812 1.3098e+01     1.8552      2.926      4.244    20.1954   998.1967 0.0000e+00
      2.994      0.070     4.8805     53.464     39.684  35.553732     4.4155      7.605   258.9357 1.2883e+01     1.7555      2.933      4.254    20.0588   998.2251 0.0000e+00
      3.010      0.075     4.8068     52.545     39.646  35.435106     4.3928      7.600   259.4129 1.2556e+01     1.7336      2.950      4.278    19.9776   998.2421 0.0000e+00
      3.033      0.082     4.7252     51.530     39.583  35.284567     4.3930      7.595   259.8776 1.2225e+01     1.7536      2.976      4.316    19.9331   998.2514 0.0000e+00
      3.057      0.090     4.6472     50.544     39.529  35.129782     4.4175      7.591   260.2519 1.1943e+01     1.7351      3.000      4.351    19.8844   998.2614 0.0000e+00
      3.081      0.094     4.5792     49.656     39.541  35.023262     4.4465      7.588   260.4966 1.1626e+01     1.7076      3.020      4.379    19.8028   998.2782 0.0000e+00
      3.108      0.093     4.5231     48.914     39.577  34.948512     4.4570      7.584   260.5992 1.1273e+01     1.7146      3.047      4.419    19.6847   998.3023 0.0000e+00
      3.137      0.089     4.4846     48.390     39.574  34.860531     4.4583      7.580   260.8043 1.0988e+01     1.7225      3.079      4.466    19.5731   998.3250 0.0000e+00
      3.160      0.083     4.4634     48.074     39.569  34.784454     4.4196      7.577   261.1696 1.0805e+01     1.6718      3.102      4.499    19.4401   998.3518 0.0000e+00
      3.177      0.075     4.4505     47.868     39.566  34.726720     4.3351      7.573   261.7464 1.0646e+01     1.5607      3.116      4.519    19.2761   998.3846 0.0000e+00
      3.194      0.067     4.4419     47.731     39.542  34.670154     4.2871      7.571   262.3580 1.0466e+01     1.4926      3.131      4.541    19.1368   998.4123 0.0000e+00
      3.210      0.060     4.4376     47.637     39.516  34.608218     4.2802      7.569   262.6271 1.0315e+01     1.5042      3.150      4.568    19.0343   998.4325 0.0000e+00
      3.224      0.057     4.4363     47.554     39.440  34.485538     4.2780      7.565   262.5915 1.0193e+01     1.5039      3.164      4.589    18.9453   998.4499 0.0000e+00
      3.235      0.059     4.4365     47.470     39.269  34.265695     4.2863      7.562   262.7029 1.0059e+01     1.4568      3.172      4.600    18.8647   998.4657 0.0000e+00
      3.247      0.062     4.4355     47.335     39.131  34.044425     4.2948      7.560   263.1135 9.9250e+00     1.4253      3.184      4.618    18.8384   998.4709 0.0000e+00
      3.262      0.067     4.4300     47.118     39.118  33.904424     4.2853      7.558   263.6845 9.7770e+00     1.4518      3.198      4.638    18.7979   998.4787 0.0000e+00
      3.281      0.072     4.4195     46.852     39.119  33.778616     4.2755      7.556   264.3578 9.5860e+00     1.5144      3.216      4.663    18.7127   998.4952 0.0000e+00
      3.305      0.076     4.4030     46.542     39.043  33.602026     4.2363      7.553   264.6289 9.3955e+00     1.5589      3.243      4.702    18.6428   998.5087 0.0000e+00
      3.327      0.077     4.3813     46.187     38.951  33.419221     4.1502      7.549   264.4672 9.2424e+00     1.5315      3.264      4.733    18.5134   998.5334 0.0000e+00
      3.346      0.075     4.3589     45.829     38.908  33.281732     4.0922      7.546   264.5542 9.1130e+00     1.4790      3.281      4.758    18.3253   998.5691 0.0000e+00
      3.364      0.070     4.3377     45.489     38.936  33.208804     4.0817      7.544   264.8196 8.9858e+00     1.4817      3.300      4.786    18.1602   998.6002 0.0000e+00
      3.383      0.063     4.3203     45.204     38.992  33.171955     4.1016      7.542   265.1820 8.8489e+00     1.4981      3.318      4.812    18.0241   998.6255 0.0000e+00
      3.399      0.058     4.3098     45.015     39.048  33.153406     4.1333      7.541   265.8378 8.7300e+00     1.4802      3.335      4.837    17.8944   998.6495 0.0000e+00
      3.412      0.056     4.3025     44.887     39.126  33.174841     4.1434      7.539   266.2956 8.6598e+00     1.4625      3.348      4.858    17.7653   998.6732 0.0000e+00
      3.422      0.057     4.2954     44.782     39.159  33.177213     4.1369      7.537   266.3300 8.5930e+00     1.4795      3.355      4.866    17.6368   998.6965 0.0000e+00
      3.433      0.059     4.2904     44.695     39.125  33.118586     4.0982      7.536   266.3398 8.4769e+00     1.5223      3.364      4.879    17.5222   998.7173 0.0000e+00
      3.448      0.063     4.2858     44.570     39.105  33.037124     4.0229      7.534   266.4138 8.3426e+00     1.5545      3.380      4.903    17.4403   998.7320 0.0000e+00
      3.467      0.065     4.2722     44.310     39.125  32.953731     3.9724      7.532   266.7092 8.2094e+00     1.5414      3.399      4.930    17.3793   998.7430 0.0000e+00
      3.488      0.066     4.2388     43.843     39.151  32.871713     3.9638      7.529   267.3304 8.0628e+00     1.4949      3.420      4.960    17.3562   998.7472 0.0000e+00
      3.509      0.066     4.1771     43.105     39.178  32.806861     3.9630      7.526   267.9870 7.9300e+00     1.4837      3.441      4.992    17.3418   998.7498 0.0000e+00
      3.525      0.066     4.0865     42.090     39.260  32.804123     3.9620      7.523   268.3668 7.8383e+00     1.5045      3.459      5.016    17.2569   998.7649 0.0000e+00
      3.537      0.066     3.9785     40.903     39.383  32.838516     3.9700      7.521   268.4815 7.7685e+00     1.5169      3.470      5.032    17.1099   998.7909 0.0000e+00
      3.549      0.065     3.8625     39.633     39.475  32.841851     3.9728      7.518   268.6000 7.6783e+00     1.5029      3.478      5.044    16.9663   998.8159 0.0000e+00
      3.566      0.064     3.7403     38.305     39.565  32.844357     3.9528      7.514   268.7668 7.5542e+00     1.4664      3.494      5.067    16.8572   998.8348 0.0000e+00
      3.589      0.060     3.6151     36.963     39.667  32.868732     3.8139      7.511   269.0357 7.4309e+00     1.4680      3.520      5.106    16.7736   998.8493 0.0000e+00
      3.609      0.055     3.4825     35.567     39.736  32.882639     3.5684      7.508   269.8717 7.3409e+00     1.4898      3.543      5.139    16.6916   998.8634 0.0000e+00
      3.623      0.049     3.3364     34.049     39.774  32.885520     3.4298      7.505   271.1313 7.2840e+00     1.5007      3.555      5.156    16.5942   998.8800 0.0000e+00
      3.631      0.043     3.1867     32.504     39.820  32.903545     3.4123      7.503   271.7035 7.2506e+00     1.5003      3.562      5.166    16.4959   998.8967 0.0000e+00
      3.636      0.038     3.0452     31.041     39.935  32.973628     3.4252      7.502   271.4563 7.2330e+00     1.4856      3.566      5.172    16.4190   998.9097 0.0000e+00
      3.641      0.037     2.9147     29.682     40.129  33.098228     3.4559      7.499   271.1530 7.1913e+00     1.4874      3.569      5.176    16.3660   998.9184 0.0000e+00
      3.650      0.038     2.7962     28.450     40.298  33.204237     3.4804      7.496   271.3064 7.0962e+00     1.4884      3.577      5.187    16.3321   998.9241 0.0000e+00
      3.663      0.042     2.6882     27.340     40.360  33.239919     3.4958      7.492   272.3648 6.9868e+00     1.4982      3.592      5.209    16.3126   998.9275 0.0000e+00
      3.678      0.049     2.5832     26.279     40.391  33.275787     3.5379      7.490   273.7977 6.9034e+00     1.5075      3.608      5.234    16.2877   998.9318 0.0000e+00
      3.690      0.057     2.4732     25.171     40.577  33.447536     3.6087      7.487   274.4348 6.8564e+00     1.5023      3.620      5.252    16.2355   998.9406 0.0000e+00
      3.700      0.063     2.3549     23.953     40.876  33.666491     3.6493      7.484   274.4749 6.8064e+00     1.5342      3.629      5.262    16.1839   998.9491 0.0000e+00
      3.714      0.066     2.2288     22.613     41.042  33.701872     3.6554      7.480   274.2829 6.6944e+00     1.5657      3.638      5.276    16.1641   998.9524 0.0000e+00
      3.736      0.068     2.1040     21.275     41.102  33.621340     3.6130      7.478   274.0912 6.5433e+00     1.5552      3.662      5.311    16.1768   998.9504 0.0000e+00
      3.761      0.069     1.9851     20.018     41.178  33.581122     3.5268      7.476   274.9107 6.4288e+00     1.5056      3.692      5.354    16.2316   998.9416 0.0000e+00
      3.781      0.069     1.8626     18.751     41.197  33.532792     3.4799      7.472   276.2764 6.3697e+00     1.4581      3.710      5.382    16.2232   998.9432 0.0000e+00
      3.795      0.067     1.7307     17.405     41.107  33.417697     3.4794      7.467   276.7509 6.3124e+00     1.4725      3.721      5.397    16.0639   998.9693 0.0000e+00
      3.807      0.062     1.5906     15.975     41.066  33.331827     3.4429      7.464   276.6905 6.2234e+00     1.5482      3.731      5.412    15.8797   998.9993 0.0000e+00
      3.822      0.057     1.4503     14.536     41.229  33.382986     3.3507      7.462   276.5780 6.1382e+00     1.6527      3.747      5.435    15.7538   999.0196 0.0000e+00
      3.838      0.055     1.3205     13.201     41.534  33.528442     3.2918      7.459   276.2516 6.0741e+00     1.7200      3.765      5.461    15.6812   999.0312 0.0000e+00
      3.853      0.057     1.2012     11.977     41.948  33.757656     3.2863      7.456   276.7012 6.0092e+00     1.7390      3.780      5.483    15.6490   999.0364 0.0000e+00
      3.865      0.062     1.0916     10.854     42.458  34.059918     3.2671      7.454   278.0565 5.9432e+00     1.7503      3.791      5.498    15.5957   999.0448 0.0000e+00
      3.877      0.067     1.0002      9.916     42.937  34.326993     3.2166      7.452   278.9581 5.8737e+00     1.7591      3.801      5.512    15.4897   999.0615 0.0000e+00
      3.894      0.072     0.9319      9.211     43.473  34.638441     3.1780      7.448   279.0850 5.7842e+00     1.7476      3.816      5.535    15.3581   999.0822 0.0000e+00
      3.916      0.076     0.8787      8.662     44.103  35.032877     3.1644      7.444   279.0745 5.6802e+00     1.7411      3.839      5.569    15.2360   999.1012 0.0000e+00
      3.940      0.078     0.8278      8.141     44.548  35.287841     3.1564      7.440   279.4333 5.5857e+00     1.7461      3.866      5.606    15.1128   999.1204 0.0000e+00
      3.962      0.076     0.7709      7.565     44.691  35.309236     3.1064      7.434   280.2394 5.4972e+00     1.8411      3.886      5.636    14.9713   999.1421 0.0000e+00
      3.982      0.071     0.7049      6.904     44.606  35.164516     3.0026      7.429   281.1641 5.4075e+00     2.0696      3.905      5.664    14.8308   999.1633 0.0000e+00
      4.001      0.066     0.6276      6.137     44.471  34.997760     2.9321      7.425   281.7520 5.3391e+00     2.2156      3.926      5.695    14.7093   999.1816 0.0000e+00
      4.013      0.065     0.5381      5.255     44.479  34.943143     2.9224      7.422   282.0992 5.2874e+00     2.2299      3.939      5.713    14.6034   999.1974 0.0000e+00
      4.022      0.067     0.4401      4.291     44.581  34.948364     2.9026      7.417   282.5223 5.2186e+00     2.2754      3.943      5.718    14.4957   999.2131 0.0000e+00
      4.036      0.070     0.3434      3.341     44.669  34.933865     2.8488      7.412   282.7376 5.1141e+00     2.3725      3.953      5.734    14.4036   999.2263 0.0000e+00
      4.059      0.074     0.2599      2.524     44.719  34.894673     2.8096      7.407   282.8951 4.9929e+00     2.4207      3.979      5.772    14.3464   999.2346 0.0000e+00
      4.085      0.075     0.1994      1.933     44.746  34.855219     2.7927      7.403   283.3081 4.8836e+00     2.4320      4.009      5.813    14.2859   999.2433 0.0000e+00
      4.108      0.072     0.1626      1.574     44.766  34.837576     2.7485      7.398   283.6883 4.7729e+00     2.5087      4.029      5.844    14.1972   999.2561 0.0000e+00
      4.126      0.064     0.1443      1.397     44.743  34.808255     2.6731      7.393   283.9644 4.6686e+00     2.5951      4.047      5.870    14.0963   999.2704 0.0000e+00
      4.141      0.055     0.1394      1.349     44.683  34.754565     2.6274      7.391   284.4096 4.6064e+00     2.5913      4.064      5.893    14.0044   999.2833 0.0000e+00
      4.151      0.048     0.1409      1.364     44.619  34.696157     2.6208      7.388   284.7695 4.5688e+00     2.5608      4.072      5.905    13.9336   999.2932 0.0000e+00
      4.158      0.046     0.1453      1.407     44.507  34.609787     2.6370      7.385   284.7010 4.5288e+00     2.5876      4.077      5.913    13.8964   999.2982 0.0000e+00
      4.167      0.047     0.1516      1.468     44.399  34.535354     2.6668      7.381   284.7005 4.4843e+00     2.6204      4.085      5.925    13.8945   999.2985 0.0000e+00
      4.177      0.051     0.1568      1.519     44.419  34.557824     2.6873      7.377   284.8495 4.4214e+00     2.5969      4.095      5.939    13.8911   999.2991 0.0000e+00
      4.191      0.056     0.1596      1.545     44.506  34.627614     2.7019      7.374   284.8676 4.3393e+00     2.5653      4.109      5.960    13.8707   999.3020 0.0000e+00
      4.209      0.060     0.1610      1.559     44.497  34.617557     2.7229      7.372   284.9194 4.2555e+00     2.6977      4.128      5.987    13.8718   999.3019 0.0000e+00
      4.228      0.062     0.1629      1.577     44.451  34.563156     2.7408      7.368   284.7871 4.1762e+00     2.9518      4.146      6.014    13.8914   999.2992 0.0000e+00
      4.245      0.062     0.1673      1.617     44.471  34.541051     2.7451      7.364   284.4727 4.1006e+00     3.0489      4.163      6.038    13.8988   999.2983 0.0000e+00
      4.260      0.060     0.1748      1.688     44.439  34.477174     2.7486      7.360   284.4741 4.0360e+00     3.0194      4.179      6.061    13.8991   999.2983 0.0000e+00
      4.275      0.055     0.1838      1.774     44.338  34.361993     2.7573      7.357   284.7185 3.9729e+00     3.0220      4.192      6.080    13.9000   999.2983 0.0000e+00
      4.289      0.051     0.1934      1.864     44.230  34.227309     2.8331      7.353   285.1040 3.9071e+00     3.1128      4.206      6.101    13.8858   999.3002 0.0000e+00
      4.302      0.048     0.2037      1.961     44.088  34.054536     2.9799      7.351   285.6931 3.8562e+00     3.2325      4.220      6.121    13.8307   999.3079 0.0000e+00
      4.312      0.046     0.2127      2.043     43.996  33.923075     3.0673      7.349   285.9910 3.8110e+00     3.2561      4.230      6.135    13.7827   999.3144 0.0000e+00
      4.322      0.043     0.2189      2.100     44.034  33.907079     3.0836      7.346   285.7801 3.7592e+00     3.2349      4.237      6.146    13.7569   999.3179 0.0000e+00
      4.332      0.042     0.2249      2.158     44.083  33.924540     3.1416      7.342   285.8103 3.7067e+00     3.2699      4.248      6.161    13.6956   999.3263 0.0000e+00
      4.345      0.044     0.2329      2.235     43.947  33.816850     3.2488      7.339   286.4427 3.6643e+00     3.3850      4.261      6.181    13.6137   999.3373 0.0000e+00
      4.356      0.049     0.2453      2.353     43.704  33.620451     3.3047      7.337   287.2314 3.6400e+00     3.4793      4.273      6.199    13.5444   999.3466 0.0000e+00
      4.364      0.055     0.2648      2.537     43.692  33.580781     3.3062      7.334   287.7746 3.6033e+00     3.4925      4.279      6.206    13.4859   999.3545 0.0000e+00
      4.375      0.061     0.2904      2.779     43.930  33.717962     3.2760      7.331   287.8489 3.5046e+00     3.4800      4.287      6.218    13.4641   999.3574 0.0000e+00
      4.395      0.067     0.3201      3.060     44.123  33.819344     3.2170      7.328   287.6993 3.3693e+00     3.4588      4.309      6.249    13.4771   999.3557 0.0000e+00
      4.418      0.072     0.3503      3.345     44.142  33.791078     3.1825      7.325   287.7720 3.2597e+00     3.4661      4.335      6.287    13.4712   999.3564 0.0000e+00
      4.437      0.077     0.3750      3.577     44.068  33.693481     3.1710      7.322   288.0402 3.1763e+00     3.5017      4.353      6.313    13.4322   999.3617 0.0000e+00
      4.456      0.077     0.3922      3.737     43.903  33.527786     3.0946      7.321   288.2755 3.0778e+00     3.4963      4.368      6.336    13.3734   999.3697 0.0000e+00
      4.476      0.075     0.4092      3.896     43.664  33.310776     2.9523      7.320   288.4659 2.9561e+00     3.4667      4.390      6.367    13.3180   999.3771 0.0000e+00
      4.497      0.074     0.4332      4.122     43.426  33.100456     2.8732      7.317   288.7066 2.8530e+00     3.4715      4.412      6.399    13.2722   999.3831 0.0000e+00
      4.515      0.074     0.4682      4.452     43.186  32.888711     2.8667      7.315   288.9490 2.7722e+00     3.4889      4.428      6.423    13.2252   999.3893 0.0000e+00
      4.532      0.075     0.5177      4.917     43.001  32.717915     2.8121      7.312   289.1601 2.6820e+00     3.5463      4.443      6.444    13.1787   999.3953 0.0000e+00
      4.550      0.076     0.5797      5.503     42.907  32.621913     2.6986      7.309   289.4519 2.5885e+00     3.6403      4.460      6.469    13.1381   999.4004 0.0000e+00
      4.570      0.077     0.6476      6.145     42.929  32.616403     2.6300      7.306   289.8955 2.5042e+00     3.6755      4.481      6.499    13.1093   999.4042 0.0000e+00
      4.592      0.080     0.7143      6.772     43.015  32.651263     2.6159      7.304   290.3090 2.4250e+00     3.7091      4.504      6.532    13.0766   999.4083 0.0000e+00
      4.612      0.082     0.7752      7.342     43.082  32.662598     2.6063      7.301   290.5792 2.3478e+00     3.7519      4.523      6.560    13.0358   999.4136 0.0000e+00
      4.633      0.082     0.8274      7.828     43.174  32.689941     2.5398      7.299   290.9252 2.2698e+00     3.7995      4.543      6.588    13.0099   999.4170 0.0000e+00
      4.654      0.081     0.8683      8.208     43.274  32.727972     2.4101      7.297   291.3948 2.2001e+00     3.8912      4.563      6.619    12.9901   999.4195 0.0000e+00
      4.675      0.080     0.8983      8.484     43.330  32.741609     2.3304      7.296   291.7838 2.1311e+00     3.9429      4.585      6.650    12.9549   999.4242 0.0000e+00
      4.697      0.078     0.9202      8.686     43.340  32.727871     2.3124      7.295   292.0145 2.0522e+00     3.9661      4.607      6.682    12.9058   999.4304 0.0000e+00
      4.717      0.075     0.9348      8.819     43.319  32.688774     2.1924      7.293   292.0327 1.9870e+00     3.9754      4.627      6.711    12.8541   999.4371 0.0000e+00
      4.735      0.070     0.9386      8.849     43.302  32.649626     1.9632      7.290   291.9178 1.9224e+00     3.9234      4.644      6.735    12.8080   999.4429 0.0000e+00
      4.752      0.066     0.9286      8.749     43.400  32.698743     1.8383      7.289   292.0024 1.8634e+00     3.8624      4.660      6.759    12.7753   999.4470 0.0000e+00
      4.768      0.063     0.9083      8.553     43.615  32.838374     1.8265      7.288   292.1953 1.8289e+00     3.8939      4.678      6.785    12.7556   999.4496 0.0000e+00
      4.783      0.062     0.8827      8.307     43.694  32.878239     1.8211      7.286   292.4433 1.7809e+00     4.0085      4.691      6.804    12.7290   999.4530 0.0000e+00
      4.797      0.063     0.8565      8.057     43.531  32.736473     1.8162      7.283   292.7633 1.7344e+00     4.1018      4.704      6.822    12.6955   999.4572 0.0000e+00
      4.811      0.064     0.8375      7.874     43.356  32.583917     1.8196      7.280   292.6234 1.7082e+00     4.1364      4.718      6.842    12.6670   999.4607 0.0000e+00
      4.828      0.066     0.8328      7.825     43.352  32.556767     1.8275      7.278   292.3003 1.6733e+00     4.1322      4.733      6.865    12.6423   999.4639 0.0000e+00
      4.847      0.069     0.8476      7.959     43.440  32.598573     1.7730      7.275   292.4703 1.6356e+00     4.2467      4.754      6.894    12.6193   999.4668 0.0000e+00
      4.866      0.073     0.8860      8.315     43.446  32.581660     1.6632      7.272   292.7868 1.5981e+00     4.5055      4.774      6.923    12.5984   999.4694 0.0000e+00
      4.884      0.075     0.9489      8.900     43.336  32.479172     1.6007      7.270   293.1152 1.5543e+00     4.6395      4.789      6.946    12.5754   999.4721 0.0000e+00
      4.903      0.075     1.0307      9.662     43.223  32.374775     1.5809      7.267   293.6870 1.5078e+00     4.6215      4.807      6.972    12.5461   999.4758 0.0000e+00
      4.924      0.073     1.1259     10.549     43.197  32.334768     1.5464      7.264   293.8496 1.4610e+00     4.6485      4.829      7.003    12.5171   999.4795 0.0000e+00
      4.945      0.068     1.2304     11.522     43.279  32.376193     1.4950      7.262   293.3607 1.4210e+00     4.7691      4.851      7.035    12.4932   999.4824 0.0000e+00
      4.964      0.064     1.3361     12.506     43.461  32.494853     1.4626      7.260   293.1111 1.3888e+00     4.8674      4.870      7.063    12.4709   999.4851 0.0000e+00
      4.979      0.060     1.4375     13.451     43.572  32.563668     1.4579      7.258   293.3259 1.3725e+00     4.8865      4.884      7.084    12.4474   999.4880 0.0000e+00
      4.990      0.058     1.5343     14.352     43.344  32.383215     1.4634      7.256   293.8066 1.3649e+00     4.8695      4.894      7.098    12.4242   999.4908 0.0000e+00
      5.001      0.061     1.6260     15.207     42.793  31.962998     1.4862      7.254   294.4497 1.3352e+00     4.8589      4.902      7.111    12.4004   999.4937 0.0000e+00
      5.014      0.067     1.7098     15.986     42.250  31.544331     1.5174      7.252   294.9070 1.2906e+00     4.8556      4.916      7.130    12.3796   999.4964 0.0000e+00
      5.032      0.075     1.7842     16.670     41.981  31.319093     1.5285      7.250   294.8616 1.2561e+00     4.8298      4.933      7.155    12.3636   999.4984 0.0000e+00
      5.053      0.084     1.8501     17.269     41.960  31.270318     1.5253      7.248   294.5030 1.2213e+00     4.8096      4.954      7.185    12.3511   999.4998 0.0000e+00
      5.078      0.089     1.9072     17.787     42.006  31.271844     1.5482      7.247   294.4425 1.1792e+00     4.8734      4.980      7.222    12.3453   999.5004 0.0000e+00
      5.106      0.090     1.9603     18.269     41.962  31.210592     1.5957      7.246   294.8189 1.1279e+00     5.0113      5.007      7.262    12.3333   999.5017 0.0000e+00
      5.131      0.089     2.0211     18.823     41.845  31.100813     1.6052      7.245   295.3548 1.0773e+00     5.0680      5.034      7.301    12.3013   999.5056 0.0000e+00
      5.152      0.088     2.0986     19.536     41.765  31.023273     1.5774      7.244   295.7589 1.0519e+00     5.0344      5.055      7.331    12.2585   999.5107 0.0000e+00
      5.171      0.087     2.1988     20.459     41.805  31.034525     1.5287      7.244   295.8336 1.0316e+00     5.1288      5.070      7.354    12.2180   999.5155 0.0000e+00
      5.190      0.084     2.3190     21.567     41.931  31.109928     1.4578      7.243   295.4830 9.9087e-01     5.3904      5.088      7.380    12.1839   999.5196 0.0000e+00
      5.212      0.081     2.4484     22.763     42.032  31.173460     1.4233      7.241   295.1338 9.3508e-01     5.5749      5.110      7.411    12.1557   999.5230 0.0000e+00
      5.237      0.079     2.5803     23.985     42.204  31.295010     1.4143      7.239   295.1396 8.7583e-01     5.5907      5.136      7.449    12.1382   999.5250 0.0000e+00
      5.261      0.077     2.7115     25.198     42.494  31.500786     1.3489      7.238   295.3806 8.3370e-01     5.5482      5.162      7.487    12.1173   999.5276 0.0000e+00
      5.279      0.074     2.8333     26.315     42.698  31.630796     1.2566      7.238   295.8116 8.2227e-01     5.5527      5.180      7.512    12.0891   999.5311 0.0000e+00
      5.291      0.069     2.9344     27.229     42.786  31.661213     1.2265      7.237   296.1337 8.1465e-01     5.6120      5.188      7.523    12.0773   999.5325 0.0000e+00
      5.306      0.064     3.0085     27.889     42.859  31.678142     1.2360      7.236   296.0922 7.8879e-01     5.6103      5.199      7.542    12.0753   999.5328 0.0000e+00
      5.326      0.060     3.0538     28.289     42.850  31.645058     1.2330      7.234   295.9117 7.6174e-01     5.4659      5.225      7.578    12.0677   999.5340 0.0000e+00
      5.345      0.059     3.0731     28.456     42.781  31.578467     1.2174      7.232   295.9303 7.3804e-01     5.3080      5.245      7.608    12.0443   999.5367 0.0000e+00
      5.356      0.060     3.0732     28.450     42.784  31.571031     1.2114      7.231   296.1451 7.1802e-01     5.2745      5.252      7.618    11.9970   999.5422 0.0000e+00
      5.367      0.060     3.0579     28.303     42.772  31.555131     1.2296      7.228   296.4432 7.0184e-01     5.2906      5.260      7.629    11.9483   999.5478 0.0000e+00
      5.382      0.063     3.0325     28.065     42.549  31.386226     1.2381      7.226   297.0402 6.7728e-01     5.3061      5.278      7.655    11.9184   999.5513 0.0000e+00
      5.399      0.069     3.0077     27.829     42.194  31.115267     1.2184      7.224   297.6843 6.5113e-01     5.2654      5.296      7.682    11.9012   999.5533 0.0000e+00
      5.416      0.078     2.9892     27.637     41.999  30.944214     1.2082      7.222   297.8639 6.3011e-01     5.1594      5.311      7.703    11.8930   999.5543 0.0000e+00
      5.435      0.083     2.9774     27.496     42.003  30.904444     1.2186      7.221   297.9214 6.0796e-01     5.1059      5.328      7.727    11.8836   999.5554 0.0000e+00
      5.460      0.086     2.9726     27.421     42.038  30.888185     1.2228      7.221   298.0360 5.8335e-01     5.0766      5.353      7.763    11.8792   999.5560 0.0000e+00
      5.488      0.086     2.9799     27.463     42.066  30.874502     1.2076      7.220   298.1301 5.5463e-01     4.9363      5.384      7.808    11.8783   999.5561 0.0000e+00
      5.513      0.086     3.0083     27.703     42.091  30.865885     1.1816      7.219   298.8879 5.2729e-01     4.7210      5.409      7.844    11.8441   999.5599 0.0000e+00
      5.532      0.087     3.0608     28.167     42.100  30.847415     1.1691      7.217   300.0572 5.1035e-01     4.6033      5.425      7.869    11.7846   999.5667 0.0000e+00
      5.548      0.089     3.1298     28.782     42.127  30.841525     1.1690      7.215   300.4809 5.0211e-01     4.5953      5.441      7.891    11.7315   999.5727 0.0000e+00
      5.567      0.092     3.2080     29.479     42.186  30.858104     1.1629      7.215   300.2253 4.8836e-01     4.5915      5.458      7.916    11.6924   999.5771 0.0000e+00
      5.591      0.096     3.2941     30.249     42.220  30.857472     1.1558      7.213   299.8061 4.5866e-01     4.5572      5.480      7.948    11.6621   999.5805 0.0000e+00
      5.621      0.100     3.3812     31.031     42.217  30.833861     1.1612      7.211   299.5417 4.2672e-01     4.5405      5.511      7.993    11.6333   999.5838 0.0000e+00
      5.652      0.100     3.4580     31.720     42.232  30.826420     1.1681      7.210   300.1259 4.0059e-01     4.5863      5.546      8.043    11.6036   999.5872 0.0000e+00
      5.680      0.097     3.5197     32.274     42.260  30.830944     1.1263      7.209   301.3628 3.8101e-01     4.6847      5.572      8.082    11.5709   999.5910 0.0000e+00
      5.703      0.091     3.5643     32.671     42.271  30.825075     1.0363      7.207   301.9352 3.6828e-01     4.7805      5.593      8.113    11.5391   999.5945 0.0000e+00
      5.724      0.084     3.5911     32.905     42.280  30.818902     0.9825      7.206   301.9709 3.4643e-01     4.8269      5.615      8.143    11.5132   999.5974 0.0000e+00
      5.743      0.078     3.6042     33.012     42.301  30.819755     0.9780      7.205   301.8803 3.3375e-01     4.8521      5.633      8.170    11.4922   999.5998 0.0000e+00
      5.759      0.073     3.6081     33.032     42.346  30.835379     0.9743      7.203   301.4418 3.3519e-01     4.7576      5.648      8.191    11.4741   999.6018 0.0000e+00
      5.776      0.068     3.6051     32.986     42.436  30.880866     0.9716      7.201   301.2296 3.1234e-01     4.5364      5.664      8.214    11.4581   999.6036 0.0000e+00
      5.796      0.063     3.5978     32.905     42.607  30.988974     0.9706      7.199   301.8954 2.7829e-01     4.4058      5.685      8.245    11.4437   999.6052 0.0000e+00
      5.815      0.060     3.5878     32.804     42.811  31.127171     0.9634      7.197   303.0388 2.6244e-01     4.3911      5.706      8.275    11.4287   999.6069 0.0000e+00
      5.829      0.060     3.5737     32.669     43.035  31.282636     0.9623      7.196   303.5251 2.7231e-01     4.3911      5.719      8.295    11.4080   999.6092 0.0000e+00
      5.839      0.063     3.5598     32.535     43.569  31.662977     0.9489      7.194   303.4733 2.8577e-01     4.3081      5.725      8.304    11.3799   999.6122 0.0000e+00
      5.849      0.069     3.5460     32.400     44.286  32.172097     0.9136      7.193   303.2724 2.7587e-01     4.1737      5.733      8.315    11.3584   999.6147 0.0000e+00
      5.866      0.077     3.5217     32.164     44.833  32.551935     0.9006      7.191   302.9026 2.5741e-01     4.1436      5.750      8.340    11.3523   999.6154 0.0000e+00
      5.890      0.086     3.4821     31.786     45.328  32.892099     0.9130      7.188   303.2189 2.4105e-01     4.2064      5.775      8.376    11.3432   999.6165 0.0000e+00
      5.918      0.092     3.4256     31.256     45.655  33.111821     0.9159      7.185   304.2573 2.2356e-01     4.2444      5.803      8.417    11.3349   999.6178 0.0000e+00
      5.947      0.095     3.3472     30.530     45.678  33.114281     0.9176      7.181   304.8754 2.0231e-01     4.2090      5.831      8.459    11.3248   999.6193 0.0000e+00
      5.973      0.094     3.2407     29.553     45.598  33.048747     0.9250      7.177   304.9273 1.9011e-01     4.1396      5.858      8.497    11.3011   999.6221 0.0000e+00
      5.996      0.091     3.1049     28.313     45.472  32.954089     0.9193      7.174   304.7983 1.9740e-01     4.1256      5.880      8.528    11.2791   999.6247 0.0000e+00
      6.016      0.087     2.9448     26.853     45.340  32.858259     0.8998      7.170   304.6073 1.9840e-01     4.1051      5.899      8.556    11.2588   999.6270 0.0000e+00
      6.036      0.083     2.7651     25.214     45.404  32.905491     0.8722      7.168   304.6825 1.8834e-01     3.9910      5.918      8.584    11.2421   999.6288 0.0000e+00
      6.057      0.082     2.5783     23.512     45.732  33.144388     0.8547      7.165   305.0190 1.7433e-01     3.8926      5.939      8.614    11.2348   999.6297 0.0000e+00
      6.079      0.083     2.4057     21.938     46.085  33.398569     0.8520      7.163   305.2337 1.5677e-01     3.8653      5.962      8.647    11.2323   999.6299 0.0000e+00
      6.099      0.084     2.2595     20.603     46.146  33.440195     0.8135      7.160   305.2134 1.4659e-01     3.9567      5.983      8.677    11.2310   999.6300 0.0000e+00
      6.118      0.084     2.1459     19.565     45.998  33.330365     0.7533      7.157   304.9466 1.4538e-01     4.1123      5.999      8.701    11.2338   999.6299 0.0000e+00
      6.139      0.084     2.0678     18.852     46.189  33.466846     0.7318      7.153   304.3305 1.4496e-01     4.1733      6.019      8.729    11.2367   999.6299 0.0000e+00
      6.164      0.086     2.0193     18.409     46.681  33.821046     0.7267      7.149   303.5288 1.3544e-01     4.2028      6.045      8.768    11.2334   999.6305 0.0000e+00
      6.186      0.089     1.9917     18.156     46.838  33.931962     0.7178      7.147   302.9976 1.2880e-01     4.4366      6.067      8.801    11.2296   999.6310 0.0000e+00
      6.206      0.090     1.9801     18.050     46.735  33.855951     0.7103      7.145   302.7261 1.3018e-01     4.8373      6.085      8.826    11.2283   999.6311 0.0000e+00
      6.228      0.087     1.9773     18.024     46.646  33.790531     0.7054      7.143   302.2248 1.2886e-01     5.0492      6.105      8.854    11.2264   999.6314 0.0000e+00
      6.255      0.081     1.9746     17.999     46.537  33.712167     0.7024      7.142   301.4100 1.2553e-01     5.0657      6.134      8.896    11.2230   999.6322 0.0000e+00
      6.280      0.075     1.9687     17.946     46.479  33.670053     0.6997      7.140   300.1882 1.2364e-01     5.0683      6.163      8.938    11.2202   999.6326 0.0000e+00
      6.298      0.070     1.9551     17.823     46.465  33.662132     0.7510      7.137   298.5502 1.2336e-01     5.3111      6.179      8.961    11.2179   999.6329 0.0000e+00
      6.310      0.066     1.9340     17.633     46.658  33.806792     0.8543      7.135   297.4367 1.2336e-01     5.8061      6.188      8.975    11.2175   999.6330 0.0000e+00
      6.321      0.064     1.9135     17.448     47.299  34.276722     0.9088      7.133   297.3941 1.2340e-01     6.0386      6.199      8.990    11.2182   999.6329 0.0000e+00
      6.335      0.065     1.8956     17.286     47.985  34.774376     0.9071      7.131   297.6044 1.2341e-01     5.9923      6.210      9.007    11.2178   999.6330 0.0000e+00
      6.352      0.067     1.8794     17.136     48.301  35.000306     0.9196      7.127   297.3123 1.2339e-01     6.1636      6.227      9.031    11.2189   999.6329 0.0000e+00
      6.373      0.069     1.8683     17.034     48.624  35.231295     0.9564      7.124   296.4438 1.2338e-01     6.5375      6.250      9.065    11.2253   999.6324 0.0000e+00
      6.396      0.071     1.8618     16.974     49.221  35.663119     0.9792      7.123   295.4493 1.2335e-01     6.7108      6.274      9.100    11.2343   999.6319 0.0000e+00
      6.414      0.071     1.8551     16.912     49.822  36.095804     0.9786      7.121   294.3227 1.2335e-01     6.6855      6.292      9.126    11.2346   999.6322 0.0000e+00
      6.429      0.073     1.8417     16.788     50.250  36.400601     0.9748      7.118   292.8030 1.2339e-01     6.6578      6.305      9.145    11.2272   999.6331 0.0000e+00
      6.443      0.077     1.8132     16.526     50.735  36.745976     0.9775      7.115   291.7869 1.2341e-01     6.6716      6.318      9.162    11.2248   999.6334 0.0000e+00
      6.461      0.083     1.7684     16.116     51.490  37.288351     0.9841      7.112   291.3288 1.2344e-01     6.7205      6.335      9.188    11.2260   999.6336 0.0000e+00
      6.482      0.087     1.7104     15.586     51.877  37.562891     0.9852      7.107   289.6734 1.2345e-01     6.7901      6.354      9.216    11.2226   999.6343 0.0000e+00
      6.510      0.085     1.6427     14.966     51.573  37.335886     0.9824      7.100   285.8829 1.2343e-01     7.1202      6.381      9.256    11.2166   999.6352 0.0000e+00
      6.541      0.078     1.5706     14.308     51.404  37.209709     0.9766      7.094   281.6339 1.2343e-01     7.6967      6.417      9.308    11.2100   999.6361 0.0000e+00
      6.567      0.068     1.4997     13.662     51.713  37.433824     0.9757      7.090   278.9096 1.2343e-01     7.9923      6.446      9.350    11.2067   999.6370 0.0000e+00
      6.579      0.056     1.4375     13.096     52.162  37.760451     0.9892      7.087   277.7222 1.2345e-01     8.0069      6.456      9.364    11.2032   999.6377 0.0000e+00
      6.583      0.041     1.3856     12.623     52.297  37.858068     1.0092      7.085   276.9143 1.2345e-01     8.0365      6.455      9.362    11.1925   999.6385 0.0000e+00
      6.588      0.028     1.3446     12.249     52.029  37.661932     1.0272      7.082   275.9381 1.2335e-01     8.0564      6.459      9.368    11.1880   999.6389 0.0000e+00
      6.596      0.020     1.3172     11.999     51.697  37.420296     1.0327      7.077   275.3838 1.2329e-01     8.0507      6.471      9.383    11.1908   999.6388 0.0000e+00
      6.602      0.016     1.3028     11.868     51.419  37.221672     1.0332      7.074   275.2031 1.2335e-01     8.0656      6.477      9.393    11.1931   999.6388 0.0000e+00
      6.605      0.017     1.2981     11.827     51.509  37.291662     1.0330      7.073   274.7856 1.2340e-01     8.0721      6.477      9.395    11.1936   999.6389 0.0000e+00
      6.606      0.024     1.2988     11.836     52.847  38.266534     1.0129      7.071   273.9492 1.2341e-01     7.9991      6.477      9.394    11.1910   999.6389 0.0000e+00
      6.608      0.038     1.3042     11.885     55.233  39.994445     0.9804      7.066   272.7478 1.2343e-01     7.8703      6.481      9.398    11.1879   999.6391 0.0000e+00
      6.612      0.055     1.3138     11.968     56.877  41.170189     0.9699      7.061   271.2729 1.2342e-01     7.7943      6.483      9.402    11.1906   999.6388 0.0000e+00
      6.624      0.069     1.3259     12.073     57.191  41.372412     0.9813      7.056   269.4519 1.2341e-01     7.7998      6.488      9.411    11.1967   999.6381 0.0000e+00
      6.653      0.080     1.3389     12.187     57.202  41.360197     0.9878      7.051   267.6794 1.2343e-01     8.0679      6.519      9.455    11.2034   999.6379 0.0000e+00
      6.692      0.089     1.3476     12.263     58.243  42.101802     0.9802      7.046   266.5341 1.2344e-01     8.5785      6.568      9.526    11.2090   999.6388 0.0000e+00
      6.720      0.096     1.3468     12.253     60.163  43.481687     0.9665      7.040   265.4978 1.2344e-01     8.8615      6.598      9.569    11.1937   999.6410 0.0000e+00
      6.732      0.099     1.3339     12.133     61.353  44.329469     0.9605      7.033   264.0123 1.2345e-01     8.9332      6.601      9.573    11.1649   999.6441 0.0000e+00
      6.747      0.098     1.3094     11.909     61.841  44.669333     0.9948      7.027   262.1675 1.2343e-01     9.3139      6.610      9.586    11.1464   999.6458 0.0000e+00
      6.775      0.096     1.2736     11.581     62.292  44.987433     1.0608      7.021   260.0562 1.2343e-01     9.9571      6.641      9.632    11.1407   999.6468 0.0000e+00
      6.809      0.098     1.2277     11.162     62.584  45.191040     1.0991      7.014   258.1879 1.2347e-01    10.2867      6.681      9.691    11.1357   999.6487 0.0000e+00
      6.839      0.099     1.1699     10.634     62.734  45.289572     1.1026      7.007   256.6994 1.2345e-01    10.2837      6.709      9.731    11.1235   999.6503 0.0000e+00
      6.862      0.095     1.1002      9.998     62.838  45.353240     1.0856      7.001   255.0511 1.2340e-01    10.2164      6.728      9.758    11.1118   999.6516 0.0000e+00
      6.884      0.086     1.0269      9.331     62.811  45.325810     1.0591      6.995   253.0570 1.2340e-01    10.1619      6.750      9.790    11.1067   999.6525 0.0000e+00
      6.905      0.076     0.9551      8.678     62.658  45.211915     1.0418      6.990   250.9159 1.2339e-01    10.1492      6.772      9.823    11.1038   999.6530 0.0000e+00
      6.922      0.069     0.8866      8.055     62.531  45.119189     1.0325      6.985   249.1242 1.2338e-01    10.1283      6.790      9.848    11.0936   999.6542 0.0000e+00
      6.937      0.065     0.8219      7.468     62.405  45.030186     1.0422      6.980   247.7412 1.2340e-01    10.1063      6.803      9.867    11.0831   999.6554 0.0000e+00
      6.951      0.064     0.7625      6.929     62.303  44.961310     1.0723      6.976   246.6690 1.2339e-01    10.1122      6.816      9.885    11.0779   999.6559 0.0000e+00
      6.966      0.064     0.7133      6.483     62.328  44.984930     1.0934      6.972   246.1415 1.2333e-01    10.1339      6.831      9.907    11.0747   999.6562 0.0000e+00
      6.982      0.065     0.6790      6.171     62.340  44.998283     1.0970      6.969   245.9231 1.2332e-01    10.1395      6.847      9.931    11.0739   999.6564 0.0000e+00
      7.000      0.067     0.6581      5.981     62.502  45.122761     1.1071      6.966   245.3195 1.2331e-01    10.1144      6.865      9.957    11.0750   999.6563 0.0000e+00
      7.019      0.068     0.6466      5.878     63.067  45.537443     1.1295      6.962   244.2632 1.2333e-01    10.0916      6.883      9.983    11.0805   999.6558 0.0000e+00
      7.036      0.068     0.6461      5.874     63.373  45.757486     1.1427      6.958   243.6482 1.2339e-01    10.0934      6.901     10.009    11.0855   999.6554 0.0000e+00
      7.053      0.064     0.6578      5.979     63.030  45.497185     1.1533      6.954   243.6479 1.2338e-01    10.1034      6.917     10.032    11.0874   999.6553 0.0000e+00
      7.071      0.058     0.6781      6.162     62.705  45.247789     1.1625      6.951   243.6570 1.2338e-01    10.1144      6.934     10.057    11.0931   999.6547 0.0000e+00
      7.088      0.051     0.6999      6.358     62.855  45.345676     1.2021      6.947   242.9842 1.2346e-01    10.0957      6.953     10.084    11.1029   999.6542 0.0000e+00
      7.101      0.046     0.7183      6.525     63.390  45.728181     1.2855      6.943   241.7940 1.2349e-01    10.0403      6.966     10.103    11.1032   999.6544 0.0000e+00
      7.108      0.044     0.7352      6.679     64.118  46.252914     1.3382      6.940   241.0540 1.2348e-01    10.0348      6.971     10.111    11.0892   999.6556 0.0000e+00
      7.113      0.047     0.7519      6.830     64.703  46.673310     1.3541      6.937   240.8336 1.2348e-01    10.0949      6.974     10.116    11.0749   999.6568 0.0000e+00
      7.121      0.054     0.7639      6.937     65.078  46.937311     1.3391      6.932   240.8501 1.2345e-01    10.1778      6.981     10.126    11.0671   999.6578 0.0000e+00
      7.136      0.063     0.7699      6.992     65.396  47.158663     1.2954      6.928   240.7379 1.2340e-01    10.2501      6.996     10.147    11.0650   999.6582 0.0000e+00
      7.156      0.073     0.7738      7.026     65.535  47.253884     1.2766      6.924   240.2513 1.2340e-01    10.2803      7.017     10.177    11.0672   999.6584 0.0000e+00
      7.179      0.083     0.7773      7.058     65.462  47.199510     1.2847      6.921   239.8710 1.2347e-01    10.3128      7.040     10.210    11.0671   999.6588 0.0000e+00
      7.204      0.089     0.7801      7.084     65.376  47.136308     1.3328      6.917   239.9254 1.2351e-01    10.3489      7.066     10.248    11.0602   999.6597 0.0000e+00
      7.228      0.092     0.7798      7.080     65.452  47.188303     1.4166      6.913   240.1335 1.2346e-01    10.3559      7.089     10.282    11.0522   999.6608 0.0000e+00
      7.251      0.093     0.7752      7.038     65.639  47.320104     1.4570      6.910   240.1509 1.2341e-01    10.3327      7.111     10.313    11.0487   999.6613 0.0000e+00
      7.274      0.091     0.7681      6.973     65.749  47.396222     1.4569      6.907   239.9649 1.2338e-01    10.2978      7.133     10.346    11.0488   999.6613 0.0000e+00
      7.298      0.086     0.7591      6.891     65.859  47.473557     1.4924      6.904   239.6905 1.2336e-01    10.3600      7.156     10.379    11.0481   999.6614 0.0000e+00
      7.323      0.082     0.7489      6.799     66.064  47.620051     1.5570      6.900   239.2425 1.2331e-01    10.4950      7.182     10.416    11.0454   999.6619 0.0000e+00
      7.345      0.079     0.7389      6.708     66.185  47.706751     1.5885      6.896   239.0217 1.2328e-01    10.5531      7.205     10.450    11.0430   999.6623 0.0000e+00
      7.361      0.077     0.7299      6.626     66.171  47.696211     1.5867      6.892   239.0849 1.2332e-01    10.5385      7.220     10.470    11.0410   999.6626 0.0000e+00
      7.375      0.074     0.7215      6.550     66.065  47.619636     1.5788      6.890   238.6304 1.2339e-01    10.5805      7.229     10.485    11.0394   999.6628 0.0000e+00
      7.393      0.070     0.7142      6.483     65.870  47.479495     1.5798      6.888   237.7439 1.2345e-01    10.7012      7.247     10.511    11.0385   999.6632 0.0000e+00
      7.416      0.067     0.7094      6.439     65.758  47.398976     1.5898      6.886   236.9694 1.2346e-01    10.7852      7.273     10.549    11.0378   999.6634 0.0000e+00
      7.436      0.066     0.7048      6.398     65.857  47.471716     1.5959      6.883   237.0098 1.2345e-01    10.8087      7.295     10.581    11.0375   999.6635 0.0000e+00
      7.451      0.066     0.6992      6.348     65.942  47.533363     1.5931      6.881   237.5435 1.2345e-01    10.7889      7.308     10.600    11.0377   999.6635 0.0000e+00
      7.462      0.065     0.6937      6.298     65.825  47.445748     1.5641      6.878   237.3131 1.2341e-01    10.6772      7.316     10.612    11.0379   999.6634 0.0000e+00
      7.476      0.064     0.6892      6.255     65.724  47.365000     1.5146      6.876   236.4618 1.2335e-01    10.5067      7.330     10.631    11.0373   999.6635 0.0000e+00
      7.493      0.065     0.6862      6.227     65.759  47.382651     1.4798      6.874   235.6819 1.2334e-01    10.3991      7.348     10.658    11.0383   999.6635 0.0000e+00
      7.513      0.066     0.6823      6.192     65.796  47.405127     1.4726      6.871   235.9710 1.2337e-01    10.3583      7.368     10.687    11.0414   999.6634 0.0000e+00
      7.531      0.068     0.6748      6.123     65.856  47.446223     1.4710      6.869   237.0327 1.2337e-01    10.4074      7.387     10.713    11.0381   999.6637 0.0000e+00
      7.548      0.069     0.6608      5.997     66.019  47.561983     1.4609      6.868   236.9889 1.2339e-01    10.5016      7.402     10.736    11.0299   999.6646 0.0000e+00
      7.565      0.069     0.6362      5.773     66.159  47.661609     1.4626      6.866   236.0442 1.2342e-01    10.5143      7.419     10.761    11.0237   999.6653 0.0000e+00
      7.581      0.068     0.6010      5.453     66.210  47.698151     1.4742      6.864   235.8490 1.2340e-01    10.5280      7.435     10.783    11.0208   999.6657 0.0000e+00
      7.598      0.067     0.5596      5.077     66.194  47.686255     1.4460      6.862   236.4359 1.2333e-01    10.5032      7.450     10.805    11.0202   999.6658 0.0000e+00
      7.618      0.064     0.5166      4.687     66.049  47.581281     1.3819      6.860   236.6866 1.2330e-01    10.3777      7.471     10.835    11.0191   999.6661 0.0000e+00
      7.637      0.059     0.4763      4.322     65.861  47.445079     1.3487      6.859   236.4706 1.2334e-01    10.2889      7.491     10.865    11.0177   999.6664 0.0000e+00
      7.652      0.054     0.4427      4.017     65.763  47.373142     1.3484      6.859   235.8896 1.2338e-01    10.2819      7.505     10.885    11.0174   999.6665 0.0000e+00
      7.663      0.049     0.4179      3.792     65.728  47.346577     1.3695      6.857   235.2548 1.2341e-01    10.2929      7.515     10.898    11.0174   999.6666 0.0000e+00
      7.672      0.046     0.4022      3.649     65.684  47.314411     1.4036      6.855   235.2486 1.2345e-01    10.2904      7.523     10.912    11.0173   999.6666 0.0000e+00
      7.681      0.046     0.3953      3.586     65.664  47.301774     1.4137      6.853   235.3837 1.2345e-01    10.2852      7.531     10.923    11.0164   999.6666 0.0000e+00
      7.691      0.048     0.3951      3.586     65.772  47.384308     1.4056      6.851   235.1681 1.2342e-01    10.2623      7.541     10.936    11.0153   999.6668 0.0000e+00
      7.705      0.052     0.3974      3.607     65.906  47.486710     1.4352      6.850   234.7929 1.2340e-01    10.3079      7.555     10.958    11.0142   999.6669 0.0000e+00
      7.720      0.056     0.3975      3.608     65.953  47.523776     1.5024      6.849   234.4601 1.2337e-01    10.4434      7.571     10.982    11.0135   999.6671 0.0000e+00
      7.735      0.061     0.3936      3.572     65.941  47.514922     1.5334      6.847   234.3279 1.2339e-01    10.5248      7.586     11.002    11.0143   999.6670 0.0000e+00
      7.750      0.066     0.3898      3.538     65.844  47.443175     1.5250      6.844   234.3993 1.2342e-01    10.5381      7.600     11.022    11.0187   999.6667 0.0000e+00
      7.766      0.072     0.3890      3.530     65.901  47.481896     1.5048      6.844   234.4631 1.2347e-01    10.5390      7.616     11.046    11.0246   999.6662 0.0000e+00
      7.785      0.077     0.3896      3.534     66.248  47.729049     1.4791      6.842   233.9806 1.2351e-01    10.5356      7.633     11.071    11.0275   999.6660 0.0000e+00
      7.805      0.080     0.3917      3.554     66.478  47.891080     1.4657      6.839   233.1265 1.2347e-01    10.5305      7.652     11.098    11.0265   999.6662 0.0000e+00
      7.829      0.078     0.3983      3.614     66.430  47.853258     1.4649      6.838   232.8257 1.2345e-01    10.5425      7.675     11.133    11.0243   999.6665 0.0000e+00
      7.855      0.073     0.4081      3.702     66.330  47.779821     1.4608      6.837   233.1823 1.2347e-01    10.5488      7.705     11.175    11.0232   999.6667 0.0000e+00
      7.877      0.067     0.4182      3.794     66.310  47.765271     1.4413      6.835   233.6530 1.2344e-01    10.5413      7.729     11.210    11.0210   999.6673 0.0000e+00
      7.891      0.061     0.4252      3.858     66.363  47.804356     1.4115      6.833   233.0960 1.2340e-01    10.5503      7.740     11.226    11.0172   999.6678 0.0000e+00
      7.899      0.056     0.4274      3.878     66.454  47.871337     1.3956      6.831   231.8677 1.2337e-01    10.5594      7.746     11.234    11.0146   999.6680 0.0000e+00
      7.908      0.053     0.4282      3.885     66.548  47.940040     1.4045      6.830   231.7085 1.2341e-01    10.5531      7.753     11.245    11.0139   999.6681 0.0000e+00
      7.921      0.053     0.4284      3.887     66.632  47.999932     1.4666      6.829   232.2893 1.2348e-01    10.5405      7.767     11.265    11.0138   999.6682 0.0000e+00
      7.938      0.057     0.4289      3.891     66.757  48.087396     1.5749      6.828   232.6090 1.2349e-01    10.5385      7.785     11.291    11.0146   999.6682 0.0000e+00
      7.955      0.064     0.4289      3.892     66.877  48.171912     1.6397      6.826   231.9606 1.2344e-01    10.5284      7.803     11.317    11.0159   999.6682 0.0000e+00
      7.970      0.070     0.4284      3.887     66.825  48.132644     1.6522      6.826   230.8165 1.2339e-01    10.5154      7.817     11.338    11.0164   999.6683 0.0000e+00
      7.985      0.075     0.4302      3.903     66.632  47.993677     1.6471      6.825   230.5623 1.2340e-01    10.5135      7.829     11.354    11.0159   999.6683 0.0000e+00
      8.005      0.076     0.4333      3.931     66.485  47.888914     1.6298      6.824   230.9529 1.2346e-01    10.4723      7.847     11.380    11.0147   999.6686 0.0000e+00
      8.030      0.075     0.4341      3.938     66.385  47.818627     1.6245      6.822   230.7208 1.2349e-01    10.4429      7.875     11.421    11.0127   999.6691 0.0000e+00
      8.055      0.074     0.4329      3.927     66.325  47.778948     1.6272      6.820   229.6485 1.2346e-01    10.4865      7.904     11.464    11.0110   999.6693 0.0000e+00
      8.073      0.070     0.4346      3.943     66.335  47.790228     1.6021      6.819   228.9147 1.2342e-01    10.5735      7.919     11.486    11.0108   999.6693 0.0000e+00
      8.086      0.064     0.4403      3.996     66.383  47.827994     1.5552      6.818   228.9894 1.2338e-01    10.6754      7.928     11.498    11.0122   999.6692 0.0000e+00
      8.100      0.058     0.4507      4.091     66.417  47.854513     1.5286      6.816   229.3478 1.2335e-01    10.7357      7.943     11.521    11.0136   999.6691 0.0000e+00
      8.114      0.055     0.4700      4.266     66.419  47.856831     1.5225      6.814   229.2897 1.2336e-01    10.7448      7.959     11.544    11.0158   999.6689 0.0000e+00
      8.127      0.054     0.4979      4.519     66.418  47.856011     1.5245      6.813   228.6318 1.2345e-01    10.7538      7.969     11.559    11.0195   999.6686 0.0000e+00
      8.139      0.055     0.5278      4.790     66.402  47.844597     1.5356      6.813   227.9325 1.2354e-01    10.7788      7.980     11.576    11.0222   999.6684 0.0000e+00
      8.154      0.055     0.5557      5.043     66.404  47.845850     1.5357      6.812   227.6315 1.2352e-01    10.7844      7.996     11.598    11.0238   999.6683 0.0000e+00
      8.169      0.055     0.5787      5.252     66.441  47.871167     1.5251      6.811   227.5737 1.2343e-01    10.7556      8.012     11.621    11.0237   999.6684 0.0000e+00
      8.183      0.055     0.5952      5.402     66.477  47.896658     1.5197      6.811   227.4910 1.2342e-01    10.7257      8.026     11.641    11.0232   999.6685 0.0000e+00
      8.197      0.055     0.6023      5.467     66.481  47.900015     1.5146      6.810   227.4067 1.2346e-01    10.6843      8.039     11.659    11.0244   999.6684 0.0000e+00
      8.210      0.055     0.5991      5.437     66.496  47.911755     1.5157      6.809   227.1563 1.2341e-01    10.6163      8.052     11.678    11.0242   999.6685 0.0000e+00
      8.224      0.056     0.5894      5.349     66.670  48.038605     1.5247      6.807   226.7869 1.2332e-01    10.5583      8.066     11.698    11.0231   999.6687 0.0000e+00
      8.237      0.059     0.5752      5.220     66.931  48.227044     1.5367      6.806   226.9841 1.2330e-01    10.5405      8.078     11.716    11.0223   999.6689 0.0000e+00
      8.250      0.061     0.5596      5.078     67.012  48.284807     1.5559      6.805   227.4751 1.2336e-01    10.5976      8.089     11.732    11.0222   999.6689 0.0000e+00
      8.268      0.063     0.5469      4.963     66.847  48.165417     1.5755      6.803   227.2180 1.2342e-01    10.6920      8.108     11.759    11.0228   999.6689 0.0000e+00
      8.287      0.066     0.5369      4.873     66.603  47.990225     1.5828      6.803   226.6275 1.2347e-01    10.7313      8.129     11.790    11.0243   999.6689 0.0000e+00
      8.304      0.070     0.5293      4.804     66.543  47.944882     1.5837      6.802   226.3587 1.2351e-01    10.7457      8.145     11.813    11.0256   999.6690 0.0000e+00
      8.320      0.072     0.5240      4.755     66.709  48.061755     1.5867      6.801   226.9790 1.2346e-01    10.7671      8.157     11.832    11.0240   999.6693 0.0000e+00
      8.338      0.071     0.5179      4.700     66.901  48.196620     1.5842      6.799   228.1914 1.2340e-01    10.7615      8.175     11.858    11.0237   999.6693 0.0000e+00
      8.359      0.069     0.5094      4.622     67.056  48.305290     1.5784      6.797   228.7139 1.2340e-01    10.7435      8.198     11.890    11.0249   999.6692 0.0000e+00
      8.380      0.067     0.5008      4.544     67.400  48.550018     1.5782      6.796   228.5641 1.2343e-01    10.7452      8.219     11.922    11.0234   999.6694 0.0000e+00
      8.397      0.065     0.4942      4.484     67.846  48.869139     1.5637      6.795   228.7895 1.2348e-01    10.7166      8.236     11.946    11.0212   999.6698 0.0000e+00
      8.410      0.065     0.4875      4.423     68.013  48.988104     1.5332      6.794   229.8054 1.2350e-01    10.6271      8.248     11.963    11.0187   999.6703 0.0000e+00
      8.422      0.066     0.4782      4.338     67.816  48.845179     1.5222      6.793   230.4357 1.2347e-01    10.5477      8.260     11.980    11.0154   999.6706 0.0000e+00
      8.436      0.071     0.4676      4.243     67.391  48.538326     1.5262      6.792   230.2152 1.2345e-01    10.5104      8.272     11.998    11.0134   999.6710 0.0000e+00
      8.455      0.077     0.4599      4.173     67.096  48.326592     1.5980      6.791   229.8927 1.2346e-01    10.5699      8.290     12.023    11.0122   999.6715 0.0000e+00
      8.479      0.084     0.4553      4.131     67.082  48.317532     1.7487      6.788   230.0651 1.2347e-01    10.7102      8.314     12.058    11.0110   999.6717 0.0000e+00
      8.504      0.089     0.4490      4.074     67.412  48.555809     1.8314      6.784   230.7507 1.2348e-01    10.7970      8.340     12.096    11.0101   999.6718 0.0000e+00
      8.529      0.093     0.4399      3.990     67.921  48.921101     1.8254      6.783   231.2126 1.2348e-01    10.8321      8.365     12.132    11.0099   999.6718 0.0000e+00
      8.552      0.095     0.4324      3.923     68.191  49.113992     1.7985      6.782   231.1754 1.2344e-01    10.8079      8.387     12.165    11.0107   999.6717 0.0000e+00
      8.574      0.094     0.4300      3.901     68.451  49.300216     1.7491      6.780   230.9897 1.2341e-01    10.7005      8.408     12.196    11.0117   999.6717 0.0000e+00
      8.598      0.089     0.4297      3.899     68.760  49.521324     1.6962      6.777   230.8594 1.2336e-01    10.6149      8.431     12.228    11.0116   999.6719 0.0000e+00
      8.625      0.082     0.4276      3.879     68.998  49.691390     1.6699      6.775   230.8913 1.2332e-01    10.5920      8.459     12.267    11.0109   999.6725 0.0000e+00
      8.650      0.074     0.4252      3.858     69.373  49.959110     1.6566      6.774   230.9443 1.2335e-01    10.5874      8.485     12.305    11.0094   999.6727 0.0000e+00
      8.669      0.068     0.4265      3.869     69.734  50.217626     1.6398      6.773   230.6400 1.2340e-01    10.5592      8.504     12.333    11.0083   999.6730 0.0000e+00
      8.679      0.063     0.4289      3.890     69.906  50.339906     1.6309      6.770   229.8797 1.2343e-01    10.5132      8.512     12.346    11.0078   999.6732 0.0000e+00
      8.688      0.061     0.4284      3.885     70.019  50.421306     1.6363      6.768   229.1503 1.2342e-01    10.5234      8.518     12.354    11.0066   999.6733 0.0000e+00
      8.700      0.064     0.4260      3.864     70.133  50.503121     1.6446      6.767   228.8772 1.2340e-01    10.5842      8.531     12.373    11.0050   999.6738 0.0000e+00
      8.718      0.070     0.4236      3.843     70.222  50.566896     1.6011      6.766   228.8142 1.2341e-01    10.6917      8.549     12.399    11.0035   999.6742 0.0000e+00
      8.738      0.077     0.4201      3.811     70.297  50.620742     1.5091      6.766   228.7330 1.2340e-01    10.8721      8.568     12.427    11.0027   999.6744 0.0000e+00
      8.760      0.081     0.4157      3.771     70.333  50.646014     1.4591      6.764   228.3254 1.2341e-01    10.9964      8.590     12.458    11.0027   999.6745 0.0000e+00
      8.785      0.080     0.4104      3.722     70.296  50.618374     1.4565      6.761   227.6720 1.2345e-01    11.0146      8.616     12.497    11.0028   999.6747 0.0000e+00
      8.809      0.075     0.4032      3.656     70.190  50.540624     1.5035      6.761   227.4578 1.2345e-01    10.9611      8.642     12.534    11.0027   999.6748 0.0000e+00
      8.829      0.070     0.3960      3.591     70.090  50.468176     1.5950      6.760   227.5424 1.2341e-01    10.8414      8.660     12.560    11.0028   999.6750 0.0000e+00
      8.844      0.067     0.3911      3.547     69.965  50.377595     1.6425      6.759   227.1459 1.2338e-01    10.7473      8.674     12.580    11.0021   999.6751 0.0000e+00
      8.855      0.067     0.3886      3.525     69.817  50.271153     1.6369      6.757   226.4499 1.2340e-01    10.7404      8.684     12.594    11.0007   999.6753 0.0000e+00
      8.866      0.069     0.3868      3.509     69.892  50.324519     1.6218      6.757   226.1823 1.2347e-01    10.7248      8.692     12.607    10.9997   999.6754 0.0000e+00
      8.884      0.072     0.3849      3.491     70.158  50.514696     1.6068      6.756   226.2333 1.2351e-01    10.6247      8.710     12.633    10.9995   999.6754 0.0000e+00
      8.908      0.077     0.3834      3.477     70.369  50.665003     1.5944      6.754   226.0341 1.2348e-01    10.5459      8.737     12.671    10.9996   999.6756 0.0000e+00
      8.933      0.081     0.3834      3.477     70.394  50.680933     1.5845      6.753   225.4940 1.2344e-01    10.5264      8.762     12.709    10.9997   999.6755 0.0000e+00
      8.954      0.081     0.3838      3.481     70.254  50.580261     1.5742      6.752   225.1238 1.2343e-01    10.5204      8.781     12.736    10.9993   999.6757 0.0000e+00
      8.973      0.077     0.3839      3.482     70.093  50.464092     1.5747      6.750   225.0848 1.2341e-01    10.5383      8.798     12.760    10.9980   999.6760 0.0000e+00
      8.993      0.072     0.3829      3.473     69.943  50.356172     1.5899      6.748   225.1091 1.2340e-01    10.5785      8.819     12.791    10.9965   999.6764 0.0000e+00
      9.013      0.067     0.3794      3.441     69.852  50.291697     1.6020      6.748   224.9883 1.2342e-01    10.5808      8.840     12.821    10.9954   999.6766 0.0000e+00
      9.028      0.067     0.3754      3.404     69.801  50.256189     1.5991      6.748   224.6558 1.2347e-01    10.5323      8.854     12.842    10.9949   999.6766 0.0000e+00
      9.040      0.068     0.3716      3.370     69.695  50.180922     1.5987      6.747   224.2731 1.2347e-01    10.4843      8.865     12.857    10.9951   999.6766 0.0000e+00
      9.055      0.069     0.3689      3.345     69.641  50.143867     1.6228      6.746   224.0597 1.2345e-01    10.4270      8.879     12.877    10.9953   999.6766 0.0000e+00
      9.074      0.072     0.3671      3.329     69.703  50.189278     1.6479      6.746   224.0551 1.2349e-01    10.3963      8.896     12.904    10.9956   999.6766 0.0000e+00
      9.096      0.075     0.3667      3.326     69.748  50.221833     1.6510      6.746   224.0451 1.2350e-01    10.4074      8.920     12.938    10.9964   999.6767 0.0000e+00
      9.118      0.076     0.3690      3.346     69.659  50.156378     1.6609      6.746   224.0253 1.2345e-01    10.4304      8.943     12.972    10.9976   999.6766 0.0000e+00
      9.137      0.076     0.3720      3.374     69.489  50.033051     1.6888      6.744   224.0740 1.2341e-01    10.4783      8.961     12.996    10.9989   999.6765 0.0000e+00
      9.155      0.072     0.3735      3.388     69.533  50.064561     1.7115      6.743   224.0310 1.2336e-01    10.5268      8.977     13.020    10.9997   999.6765 0.0000e+00
      9.175      0.067     0.3754      3.405     70.102  50.473834     1.7270      6.743   223.9353 1.2334e-01    10.5584      8.998     13.051    10.9998   999.6767 0.0000e+00
      9.193      0.063     0.3792      3.439     70.895  51.043369     1.7467      6.742   223.8635 1.2338e-01    10.5657      9.018     13.079    10.9988   999.6768 0.0000e+00
      9.207      0.060     0.3797      3.443     71.253  51.297533     1.7671      6.741   223.6791 1.2340e-01    10.5497      9.030     13.096    10.9981   999.6769 0.0000e+00
      9.218      0.058     0.3772      3.421     71.206  51.260178     1.7733      6.741   223.4267 1.2339e-01    10.5283      9.039     13.110    10.9981   999.6768 0.0000e+00
      9.232      0.057     0.3748      3.399     71.340  51.353972     1.7706      6.741   223.2215 1.2335e-01    10.5040      9.052     13.129    10.9979   999.6772 0.0000e+00
      9.247      0.060     0.3714      3.368     71.691  51.605792     1.8119      6.740   223.0040 1.2337e-01    10.5507      9.069     13.153    10.9971   999.6778 0.0000e+00
      9.262      0.065     0.3649      3.309     71.825  51.700512     1.8997      6.739   222.6910 1.2348e-01    10.6992      9.083     13.174    10.9944   999.6783 0.0000e+00
      9.277      0.070     0.3520      3.192     71.701  51.609930     1.9481      6.738   222.2750 1.2353e-01    10.7925      9.097     13.194    10.9912   999.6785 0.0000e+00
      9.295      0.075     0.3337      3.026     71.498  51.463396     1.9372      6.736   221.9330 1.2349e-01    10.7606      9.115     13.220    10.9896   999.6788 0.0000e+00
      9.317      0.077     0.3152      2.858     71.395  51.389787     1.8557      6.734   221.7388 1.2344e-01    10.6736      9.137     13.252    10.9888   999.6791 0.0000e+00
      9.341      0.076     0.2969      2.692     71.608  51.545713     1.7256      6.732   221.4763 1.2338e-01    10.5940      9.160     13.286    10.9880   999.6793 0.0000e+00
      9.363      0.074     0.2789      2.529     72.167  51.951193     1.6552      6.732   221.1677 1.2338e-01    10.5512      9.183     13.319    10.9871   999.6794 0.0000e+00
      9.383      0.071     0.2632      2.387     72.724  52.353990     1.6381      6.730   221.0191 1.2338e-01    10.5164      9.204     13.349    10.9864   999.6796 0.0000e+00
      9.398      0.068     0.2512      2.278     72.987  52.540948     1.6309      6.728   220.8844 1.2337e-01    10.5013      9.218     13.369    10.9860   999.6796 0.0000e+00
      9.410      0.065     0.2452      2.224     73.285  52.750629     1.6375      6.726   220.5709 1.2343e-01    10.5330      9.227     13.383    10.9881   999.6795 0.0000e+00
      9.425      0.063     0.2455      2.226     74.235  53.428125     1.6486      6.725   220.1539 1.2344e-01    10.5717      9.241     13.403    10.9918   999.6794 0.0000e+00
      9.444      0.063     0.2480      2.248     76.890  55.332628     1.6615      6.722   219.8003 1.2339e-01    10.5757      9.262     13.433    10.9935   999.6797 0.0000e+00
      9.463      0.062     0.2477      2.245     81.561  58.687128     1.6638      6.720   219.5652 1.2337e-01    10.5490      9.281     13.461    10.9915   999.6800 0.0000e+00
      9.479      0.059     0.2430      2.202     86.035  61.898958     1.6500      6.718   219.3764 1.2336e-01    10.5110      9.296     13.482    10.9875   999.6805 0.0000e+00
      9.494      0.053     0.2348      2.128     88.411  63.600224     1.6423      6.718   219.1514 1.2336e-01    10.4773      9.310     13.504    10.9831   999.6812 0.0000e+00
      9.509      0.045     0.2233      2.023     89.423  64.321674     1.6484      6.717   218.8248 1.2339e-01    10.5016      9.326     13.526    10.9790   999.6824 0.0000e+00
      9.520      0.036     0.2083      1.888     90.413  65.028585     1.6548      6.716   218.5247 1.2343e-01    10.5751      9.338     13.544    10.9754   999.6850 0.0000e+00
      9.527      0.027     0.1871      1.695     91.743  65.981707     1.6404      6.715   218.2757 1.2343e-01    10.5468      9.344     13.552    10.9707   999.6874 0.0000e+00
      9.531      0.020     0.1601      1.451     92.735  66.692236     1.6054      6.714   218.0517 1.2339e-01    10.3878      9.347     13.556    10.9654   999.6885 0.0000e+00
      9.533      0.015     0.1352      1.226     92.643  66.627063     1.5787      6.713   217.9669 1.2337e-01    10.2922      9.349     13.560    10.9618   999.6890 0.0000e+00
      9.536      0.010     0.1154      1.046     91.788  66.020110     1.5683      6.712   217.9387 1.2340e-01    10.3082      9.352     13.564    10.9593   999.6896 0.0000e+00
      9.538      0.007     0.0976      0.885     90.900  65.392629     1.5488      6.711   217.7981 1.2339e-01    10.3193      9.354     13.566    10.9571   999.6905 0.0000e+00
      9.540      0.006     0.0824      0.747     90.187  64.888415     1.5078      6.710   217.4706 1.2332e-01    10.3283      9.357     13.569    10.9555   999.6911 0.0000e+00
      9.542      0.004     0.0716      0.649     89.642  64.500394     1.4802      6.709   217.1617 1.2329e-01    10.3504      9.358     13.572    10.9549   999.6911 0.0000e+00
      9.542      0.003     0.0656      0.595     89.219  64.197097     1.4756      6.708   217.0754 1.2331e-01    10.3575      9.357     13.572    10.9597   999.6902 0.0000e+00
      9.542      0.001     0.0670      0.608     88.704  63.827337     1.4772      6.708   217.0288 1.2336e-01    10.3817      9.358     13.572    10.9680   999.6890 0.0000e+00
      9.543      0.001     0.0735      0.667     88.016  63.334834     1.4912      6.707   216.8569 1.2342e-01    10.4466      9.358     13.573    10.9728   999.6883 0.0000e+00
      9.543      0.000     0.0807      0.732     87.201  62.755047     1.5065      6.705   216.7178 1.2344e-01    10.5196      9.358     13.573    10.9743   999.6879 0.0000e+00
      9.542      0.000     0.0905      0.821     86.262  62.092512     1.5230      6.702   216.7234 1.2341e-01    10.5756      9.357     13.572    10.9750   999.6877 0.0000e+00
      9.542      0.000     0.0967      0.877     85.765  61.743354     1.5351      6.702   216.7523 1.2336e-01    10.5992      9.358     13.573    10.9744   999.6877 0.0000e+00
      9.543 -9.990e-29 -9.990e-29 -9.990e-29 -9.990e-29 -9.990e-29 -9.990e-29 -9.990e-29 -9.990e-29 1.2331e-01 -9.990e-29      9.359     13.574    10.9769   999.6871 0.0000e+00
      9.543 -9.990e-29 -9.990e-29 -9.990e-29 -9.990e-29 -9.990e-29 -9.990e-29 -9.990e-29 -9.990e-29 1.2338e-01 -9.990e-29      9.358     13.573    10.9777   999.6867 0.0000e+00
      9.543 -9.990e-29 -9.990e-29 -9.990e-29 -9.990e-29 -9.990e-29 -9.990e-29 -9.990e-29 -9.990e-29 1.2344e-01 -9.990e-29      9.359     13.574    10.9877   999.6853 0.0000e+00
      9.543 -9.990e-29 -9.990e-29 -9.990e-29 -9.990e-29 -9.990e-29 -9.990e-29 -9.990e-29 -9.990e-29 1.2344e-01 -9.990e-29      9.359     13.575    11.0000   999.6837 0.0000e+00
