* Sea-Bird SBE19plus  Data File:
* FileName = C:\DATA\080519_fcr50_0001.hex
* Software version 2.8.0.119 SB_Terminal.dll
* Temperature SN = 7809
* Conductivity SN = 7809
* System UpLoad Time = Aug 05 2019 17:58:35
* <ApplicationData>
* <Seaterm232>
* <SoftwareVersion>2.8.0.119</SoftwareVersion>
* <BuildDate>07-Nov-2018</BuildDate>
* </Seaterm232>
* </ApplicationData>
* cast   1 05 Aug 2019 11:12:49 samples 1 to 382, avg = 1, stop = mag switch
# nquan = 16
# nvalues = 291                         
# units = specified
# name 0 = depFM: Depth [fresh water, m]
# name 1 = dz/dtM: Descent Rate [m/s]
# name 2 = sbeox0Mg/L: Oxygen, SBE 43 [mg/l]
# name 3 = sbeox0PS: Oxygen, SBE 43 [% saturation]
# name 4 = specc: Specific Conductance [uS/cm]
# name 5 = c0uS/cm: Conductivity [uS/cm]
# name 6 = flECO-AFL: Fluorescence, WET Labs ECO-AFL/FL [mg/m^3]
# name 7 = ph: pH
# name 8 = orp: Oxidation Reduction Potential [mV]
# name 9 = par/sat/log: PAR/Logarithmic, Satlantic
# name 10 = turbWETntu0: Turbidity, WET Labs ECO [NTU]
# name 11 = prdM: Pressure, Strain Gauge [db]
# name 12 = prdE: Pressure, Strain Gauge [psi]
# name 13 = tv290C: Temperature [ITS-90, deg C]
# name 14 = density00: Density [density, kg/m^3]
# name 15 = flag:  0.000e+00
# span 0 =     -0.588,      2.324       
# span 1 =     -0.014,      0.160       
# span 2 =    -0.5810,     9.5704       
# span 3 =     -6.793,    118.227       
# span 4 =      2.608,     64.134       
# span 5 =   2.724026,  61.772878       
# span 6 =    -0.1342,     8.9444       
# span 7 =      6.663,      9.052       
# span 8 = -1240.7455,   467.4806       
# span 9 = 1.4624e+01, 6.4858e+02       
# span 10 =    -0.5921,     8.9044      
# span 11 =     -0.577,      2.279      
# span 12 =     -0.837,      3.306      
# span 13 =    23.1455,    27.2278      
# span 14 =   996.4590,   997.5424      
# span 15 = 0.0000e+00, 0.0000e+00      
# interval = seconds: 0.25
# start_time = Aug 05 2019 11:12:49 [Instrument's time stamp, header]
# bad_flag = -9.990e-29
# <Sensors count="9" >
#   <sensor Channel="1" >
#     <!-- Count, Temperature -->
#     <TemperatureSensor SensorID="58" >
#       <SerialNumber>7809</SerialNumber>
#       <CalibrationDate>24-Mar-19</CalibrationDate>
#       <A0>1.21792325e-003</A0>
#       <A1>2.81669265e-004</A1>
#       <A2>-1.60333336e-006</A2>
#       <A3>1.98414625e-007</A3>
#       <Slope>1.00000000</Slope>
#       <Offset>0.0000</Offset>
#     </TemperatureSensor>
#   </sensor>
#   <sensor Channel="2" >
#     <!-- Frequency 0, Conductivity -->
#     <ConductivitySensor SensorID="3" >
#       <SerialNumber>7809</SerialNumber>
#       <CalibrationDate>24-Mar-19</CalibrationDate>
#       <UseG_J>1</UseG_J>
#       <!-- Cell const and series R are applicable only for wide range sensors. -->
#       <SeriesR>0.0000</SeriesR>
#       <CellConst>2000.0000</CellConst>
#       <ConductivityType>0</ConductivityType>
#       <Coefficients equation="0" >
#         <A>0.00000000e+000</A>
#         <B>0.00000000e+000</B>
#         <C>0.00000000e+000</C>
#         <D>0.00000000e+000</D>
#         <M>0.0</M>
#         <CPcor>-9.57000000e-008</CPcor>
#       </Coefficients>
#       <Coefficients equation="1" >
#         <G>-1.00589325e+000</G>
#         <H>1.26816302e-001</H>
#         <I>-1.51560448e-004</I>
#         <J>2.67137274e-005</J>
#         <CPcor>-9.57000000e-008</CPcor>
#         <CTcor>3.2500e-006</CTcor>
#         <!-- WBOTC not applicable unless ConductivityType = 1. -->
#         <WBOTC>0.00000000e+000</WBOTC>
#       </Coefficients>
#       <Slope>1.00000000</Slope>
#       <Offset>0.00000</Offset>
#     </ConductivitySensor>
#   </sensor>
#   <sensor Channel="3" >
#     <!-- Count, Pressure, Strain Gauge -->
#     <PressureSensor SensorID="46" >
#       <SerialNumber>7809</SerialNumber>
#       <CalibrationDate>11-Mar-19</CalibrationDate>
#       <PA0>4.56561833e-002</PA0>
#       <PA1>4.85095118e-004</PA1>
#       <PA2>-2.88327090e-012</PA2>
#       <PTEMPA0>-5.48784562e+001</PTEMPA0>
#       <PTEMPA1>5.53756816e+001</PTEMPA1>
#       <PTEMPA2>-5.86727098e-001</PTEMPA2>
#       <PTCA0>5.25246745e+005</PTCA0>
#       <PTCA1>1.22304214e+001</PTCA1>
#       <PTCA2>-3.56745036e-001</PTCA2>
#       <PTCB0>2.51668750e+001</PTCB0>
#       <PTCB1>3.75000000e-004</PTCB1>
#       <PTCB2>0.00000000e+000</PTCB2>
#       <Offset>0.000000</Offset>
#     </PressureSensor>
#   </sensor>
#   <sensor Channel="4" >
#     <!-- A/D voltage 0, Oxygen, SBE 43 -->
#     <OxygenSensor SensorID="38" >
#       <SerialNumber>0434</SerialNumber>
#       <CalibrationDate>13-Apr-19</CalibrationDate>
#       <Use2007Equation>1</Use2007Equation>
#       <CalibrationCoefficients equation="0" >
#         <!-- Coefficients for Owens-Millard equation. -->
#         <Boc>0.0000</Boc>
#         <Soc>0.0000e+000</Soc>
#         <offset>0.0000</offset>
#         <Pcor>0.00e+000</Pcor>
#         <Tcor>0.0000</Tcor>
#         <Tau>0.0</Tau>
#       </CalibrationCoefficients>
#       <CalibrationCoefficients equation="1" >
#         <!-- Coefficients for Sea-Bird equation - SBE calibration in 2007 and later. -->
#         <Soc>4.2007e-001</Soc>
#         <offset>-0.6109</offset>
#         <A>-4.3656e-003</A>
#         <B> 1.7017e-004</B>
#         <C>-2.5341e-006</C>
#         <D0> 2.5826e+000</D0>
#         <D1> 1.92634e-004</D1>
#         <D2>-4.64803e-002</D2>
#         <E> 3.6000e-002</E>
#         <Tau20> 1.1800</Tau20>
#         <H1>-3.3000e-002</H1>
#         <H2> 5.0000e+003</H2>
#         <H3> 1.4500e+003</H3>
#       </CalibrationCoefficients>
#     </OxygenSensor>
#   </sensor>
#   <sensor Channel="5" >
#     <!-- A/D voltage 1, PAR/Logarithmic, Satlantic -->
#     <PARLog_SatlanticSensor SensorID="76" >
#       <SerialNumber>1122</SerialNumber>
#       <CalibrationDate>08-May-2019</CalibrationDate>
#       <a0>9.7456e-001</a0>
#       <a1>8.1640e-001</a1>
#       <Im>1.3589e+000</Im>
#       <Multiplier>1.0000e+000</Multiplier>
#     </PARLog_SatlanticSensor>
#   </sensor>
#   <sensor Channel="6" >
#     <!-- A/D voltage 2, pH -->
#     <pH_Sensor SensorID="43" >
#       <SerialNumber>0363</SerialNumber>
#       <CalibrationDate>15-Apr-19</CalibrationDate>
#       <Slope>4.5952</Slope>
#       <Offset>2.5370</Offset>
#     </pH_Sensor>
#   </sensor>
#   <sensor Channel="7" >
#     <!-- A/D voltage 3, Oxidation Reduction Potential -->
#     <OxidationReductionPotentialSensor SensorID="41" >
#       <SerialNumber>0363</SerialNumber>
#       <CalibrationDate>15-Apr-19</CalibrationDate>
#       <B>2.499480</B>
#       <M>-0.496195</M>
#       <Offset>0.0</Offset>
#     </OxidationReductionPotentialSensor>
#   </sensor>
#   <sensor Channel="8" >
#     <!-- A/D voltage 4, Fluorometer, WET Labs ECO-AFL/FL -->
#     <FluoroWetlabECO_AFL_FL_Sensor SensorID="20" >
#       <SerialNumber>FLNTURT-2496</SerialNumber>
#       <CalibrationDate>08-May-2019</CalibrationDate>
#       <ScaleFactor>5.00000000e+001</ScaleFactor>
#       <!-- Dark output -->
#       <Vblank>0.0550</Vblank>
#     </FluoroWetlabECO_AFL_FL_Sensor>
#   </sensor>
#   <sensor Channel="9" >
#     <!-- A/D voltage 5, Turbidity Meter, WET Labs, ECO-NTU -->
#     <TurbidityMeter SensorID="67" >
#       <SerialNumber>FLNTURT-2496</SerialNumber>
#       <CalibrationDate>08-May-2019</CalibrationDate>
#       <ScaleFactor>189.000000</ScaleFactor>
#       <!-- Dark output -->
#       <DarkVoltage>0.071000</DarkVoltage>
#     </TurbidityMeter>
#   </sensor>
# </Sensors>
# datcnv_date = Aug 05 2019 18:02:45, 7.26.7.129 [datcnv_vars = 15]
# datcnv_in = C:\DATA\080519_fcr10.hex C:\DATA\SBE19plusV2_7809.xmlcon
# datcnv_skipover = 0
# datcnv_ox_hysteresis_correction = yes
# datcnv_ox_tau_correction = yes
# filter_date = Aug 05 2019 18:03:10, 7.26.7.129
# filter_in = C:\DATA\080519_fcr10.cnv
# filter_low_pass_tc_A = 0.030
# filter_low_pass_tc_B = 0.150
# filter_low_pass_A_vars = prdM prdE tv290C density00
# filter_low_pass_B_vars = depFM dz/dtM sbeox0Mg/L sbeox0PS specc c0uS/cm flECO-AFL ph orp par/sat/log turbWETntu0
# alignctd_date = Aug 05 2019 18:03:31, 7.26.7.129
# alignctd_in = C:\DATA\080519_fcr10.cnv
# alignctd_adv = dz/dtM 1.000, sbeox0Mg/L 1.000, sbeox0PS 1.000, specc 1.000, c0uS/cm 1.000, flECO-AFL 1.000, ph 1.000, orp 1.000, turbWETntu0 1.000                                                                                 
# file_type = ascii
*END*
     -0.587     -0.001     7.4562     93.961      2.608   2.724026    -0.1342      6.687 -1240.7455 5.0816e+02    -0.3313     -0.575     -0.835    27.2273   996.4591 0.0000e+00
     -0.587     -0.000     7.4559     93.958      2.635   2.752164    -0.1328      6.685 -1240.7455 5.2270e+02    -0.3076     -0.576     -0.835    27.2273   996.4591 0.0000e+00
     -0.587 -1.847e-08     7.4551     93.948      2.689   2.808094    -0.1284      6.686 -1240.7455 5.2605e+02    -0.3475     -0.576     -0.836    27.2272   996.4592 0.0000e+00
     -0.587 -2.032e-07     7.4549     93.945      2.891   3.020080    -0.1160      6.691 -1240.7455 5.1839e+02    -0.4531     -0.577     -0.837    27.2273   996.4591 0.0000e+00
     -0.587 -2.032e-07     7.4555     93.952      3.329   3.477664    -0.1213      6.700 -1240.7455 5.1309e+02    -0.5682     -0.576     -0.836    27.2272   996.4592 0.0000e+00
     -0.587 -1.847e-08     7.4557     93.953      3.920   4.095117    -0.1314      6.709 -1240.7455 5.0687e+02    -0.5921     -0.575     -0.835    27.2275   996.4591 0.0000e+00
     -0.587 -1.680e-09     7.4549     93.943      4.396   4.592391    -0.1264      6.718 -1240.7455 4.8490e+02    -0.5457     -0.576     -0.836    27.2278   996.4590 0.0000e+00
     -0.587 -1.537e-10     7.4546     93.939      4.535   4.737445    -0.1209      6.728 -1240.7455 4.5748e+02    -0.5318     -0.576     -0.835    27.2276   996.4591 0.0000e+00
     -0.588 -2.525e-11     7.4546     93.939      4.446   4.644913    -0.1171      6.740 -1240.7455 4.4607e+02    -0.5548     -0.577     -0.836    27.2270   996.4593 0.0000e+00
     -0.588 -1.390e-10     7.4546     93.939      4.417   4.614279    -0.1065      6.753 -1240.7455 4.4325e+02    -0.5619     -0.577     -0.837    27.2262   996.4597 0.0000e+00
     -0.588 -1.529e-09     7.4540     93.931      4.544   4.747283    -0.0975      6.773 -1240.7455 4.3582e+02    -0.5517     -0.576     -0.836    27.2258   996.4599 0.0000e+00
     -0.588 -1.682e-08     7.4536     93.926      4.773   4.985632    -0.1029      6.778 -1240.7454 4.2270e+02    -0.5299     -0.576     -0.836    27.2257   996.4599 0.0000e+00
     -0.588 -1.850e-07     7.4540     93.931      4.992   5.214746    -0.1197      6.731 -1240.7442 4.1283e+02    -0.4949     -0.576     -0.836    27.2258   996.4599 0.0000e+00
     -0.588 -1.717e-07     7.4541     93.931      5.012   5.236083    -0.1276      6.671 -1240.7312 4.1547e+02    -0.4894     -0.577     -0.837    27.2260   996.4598 0.0000e+00
     -0.588 1.4372e-07     7.4543     93.934      4.776   4.990124    -0.1208      6.663 -1240.5879 4.2574e+02    -0.5286     -0.576     -0.836    27.2258   996.4599 0.0000e+00
     -0.588      0.000     7.4549     93.941      4.511   4.712388    -0.1148      6.687 -1239.0122 4.2989e+02    -0.5763     -0.576     -0.837    27.2254   996.4600 0.0000e+00
     -0.588      0.000     7.4552     93.945      4.407   4.602993    -0.1250      6.706 -1221.6787 4.1819e+02    -0.5736     -0.577     -0.836    27.2255   996.4601 0.0000e+00
     -0.587      0.000     7.4563     93.959      4.542   4.744752    -0.1315      6.786 -1031.0112 3.9500e+02    -0.5294     -0.576     -0.835    27.2251   996.4602 0.0000e+00
     -0.587      0.002     7.4582     93.977      6.154   6.426377    -0.1148      6.998  -391.4305 3.8578e+02    -0.5332     -0.576     -0.836    27.2259   996.4599 0.0000e+00
     -0.587      0.011     7.4637     93.984     12.181  12.703229    -0.1050      7.304   309.8991 4.0514e+02    -0.5546     -0.576     -0.835    27.2249   996.4601 0.0000e+00
     -0.587      0.030     7.4802     94.014     23.454  24.404800    -0.1170      7.662   467.4806 4.3773e+02    -0.5253     -0.576     -0.836    27.2261   996.4598 0.0000e+00
     -0.586      0.056     7.5030     94.051     34.526  35.843154    -0.1220      8.002   370.6697 4.7909e+02    -0.4747     -0.576     -0.837    27.2240   996.4603 0.0000e+00
     -0.579      0.084     7.5226     94.080     39.504  40.926513    -0.1126      8.270   342.7126 5.2381e+02    -0.4668     -0.576     -0.835    27.2275   996.4594 0.0000e+00
     -0.552      0.110     7.5394     94.131     39.642  40.999022    -0.1080      8.485   329.0646 5.5746e+02    -0.4295     -0.552     -0.801    27.2180   996.4633 0.0000e+00
     -0.505      0.131     7.5545     94.199     38.688  39.957661    -0.0838      8.644   324.3864 5.8258e+02     0.5991     -0.495     -0.717    27.0960   996.5009 0.0000e+00
     -0.456      0.142     7.5690     94.288     37.863  39.064306    -0.0280      8.745   322.0271 6.0288e+02     2.5645     -0.441     -0.639    26.9123   996.5561 0.0000e+00
     -0.417      0.140     7.5830     94.389     37.299  38.450041     0.0205      8.808   318.6929 6.1870e+02     3.6710     -0.410     -0.595    26.7862   996.5918 0.0000e+00
     -0.381      0.123     7.5947     94.476     36.939  38.053275     0.0875      8.855   314.4449 6.3169e+02     3.9157     -0.374     -0.542    26.6987   996.6153 0.0000e+00
     -0.348      0.098     7.6028     94.532     36.733  37.821719     0.6772      8.895   310.4144 6.4086e+02     5.2284     -0.336     -0.487    26.6281   996.6344 0.0000e+00
     -0.324      0.074     7.6068     94.552     36.671  37.744999     1.7658      8.924   307.2165 6.4684e+02     7.5810     -0.316     -0.458    26.5768   996.6481 0.0000e+00
     -0.312      0.054     7.6088     94.555     36.632  37.696924     2.3695      8.949   305.5491 6.4858e+02     8.8635     -0.302     -0.439    26.5348   996.6593 0.0000e+00
     -0.308      0.038     7.6079     94.532     36.564  37.621287     2.4451      8.969   304.9656 6.4568e+02     8.9044     -0.300     -0.436    26.4996   996.6687 0.0000e+00
     -0.306      0.025     7.6011     94.443     36.538  37.592173     2.6193      8.980   303.9476 6.4442e+02     7.5831     -0.303     -0.439    26.4735   996.6757 0.0000e+00
     -0.300      0.018     7.5962     94.378     36.546  37.598807     2.9238      8.988   301.8441 6.4577e+02     5.0796     -0.294     -0.427    26.4565   996.6804 0.0000e+00
     -0.294      0.016     7.6123     94.575     36.523  37.574543     3.0835      8.995   300.1822 6.4491e+02     3.7049     -0.286     -0.414    26.4450   996.6836 0.0000e+00
     -0.291      0.017     7.6543     95.094     36.503  37.552700     3.0940      8.998   299.8567 6.4348e+02     3.5802     -0.284     -0.412    26.4385   996.6853 0.0000e+00
     -0.289      0.017     7.6987     95.641     36.539  37.588604     3.1287      8.997   298.9411 6.4458e+02     3.6368     -0.284     -0.412    26.4362   996.6858 0.0000e+00
     -0.285      0.016     7.7157     95.850     36.579  37.627803     3.1908      8.995   296.5107 6.4528e+02     3.7334     -0.280     -0.406    26.4348   996.6863 0.0000e+00
     -0.279      0.014     7.6904     95.533     36.597  37.645801     3.2207      8.994   294.0464 6.4471e+02     3.7657     -0.274     -0.398    26.4331   996.6868 0.0000e+00
     -0.274      0.012     7.6219     94.679     36.631  37.679257     3.2209      8.994   293.1500 6.4581e+02     3.7649     -0.267     -0.388    26.4305   996.6875 0.0000e+00
     -0.269      0.010     7.5186     93.394     36.605  37.651473     3.2366      8.995   293.3297 6.4600e+02     3.7239     -0.263     -0.381    26.4283   996.6881 0.0000e+00
     -0.268      0.007     7.3894     91.788     36.521  37.563763     3.2724      8.995   292.6920 6.4133e+02     3.6297     -0.262     -0.379    26.4270   996.6885 0.0000e+00
     -0.270      0.005     7.2422     89.957     36.467  37.507405     3.2890      8.993   291.4634 6.3475e+02     3.5762     -0.265     -0.384    26.4256   996.6888 0.0000e+00
     -0.271      0.003     7.0891     88.055     36.438  37.477858     3.2824      8.990   291.1222 6.3176e+02     3.5682     -0.267     -0.387    26.4236   996.6894 0.0000e+00
     -0.269      0.002     6.9429     86.237     36.422  37.460406     3.2792      8.987   290.8896 6.3318e+02     3.5665     -0.264     -0.384    26.4223   996.6897 0.0000e+00
     -0.265      0.002     6.8126     84.615     36.388  37.423341     3.2927      8.983   289.8552 6.3453e+02     3.5885     -0.259     -0.377    26.4219   996.6898 0.0000e+00
     -0.264      0.001     6.7025     83.242     36.316  37.347074     3.3072      8.978   289.1977 6.3332e+02     3.6045     -0.257     -0.373    26.4204   996.6902 0.0000e+00
     -0.265     -0.001     6.6121     82.117     36.271  37.299954     3.2989      8.974   289.0494 6.3245e+02     3.5634     -0.259     -0.376    26.4205   996.6901 0.0000e+00
     -0.266     -0.002     6.5402     81.222     36.270  37.297939     3.2884      8.970   286.3406 6.3332e+02     3.4844     -0.261     -0.378    26.4193   996.6904 0.0000e+00
     -0.267      0.001     6.4830     80.510     36.295  37.322706     3.3185      8.962   279.4189 6.3299e+02     3.4692     -0.262     -0.379    26.4159   996.6914 0.0000e+00
     -0.269      0.011     6.4426     80.010     36.379  37.408993     3.3761      8.961   272.4696 6.2936e+02     3.5114     -0.262     -0.380    26.4132   996.6921 0.0000e+00
     -0.272      0.030     6.4264     79.810     36.544  37.579538     3.4043      8.978   269.9446 6.2244e+02     3.5357     -0.268     -0.389    26.4113   996.6926 0.0000e+00
     -0.270      0.054     6.4313     79.867     36.696  37.734396     3.4158      9.005   270.5709 6.1586e+02     3.5653     -0.271     -0.393    26.4107   996.6928 0.0000e+00
     -0.254      0.078     6.4465     80.051     36.659  37.694487     3.5588      9.028   271.1798 6.1141e+02     3.6403     -0.255     -0.370    26.4093   996.6932 0.0000e+00
     -0.224      0.100     6.4680     80.318     36.511  37.541326     3.8252      9.044   271.5425 5.8708e+02     3.7542     -0.222     -0.322    26.4088   996.6934 0.0000e+00
     -0.185      0.115     6.5007     80.727     36.439  37.469412     3.9658      9.052   272.0310 5.3595e+02     3.8284     -0.181     -0.261    26.4121   996.6928 0.0000e+00
     -0.147      0.119     6.5490     81.330     36.429  37.459743     3.9841      9.050   265.2995 4.9340e+02     3.8169     -0.142     -0.207    26.4094   996.6938 0.0000e+00
     -0.114      0.110     6.6089     82.072     36.395  37.424424     4.1502      9.043   245.3894 4.6707e+02     3.8442     -0.111     -0.163    26.4031   996.6956 0.0000e+00
     -0.084      0.094     6.6658     82.771     36.336  37.359742     4.4652      9.034   225.1453 4.3886e+02     3.9621     -0.080     -0.117    26.4035   996.6955 0.0000e+00
     -0.060      0.077     6.7116     83.327     36.295  37.312410     4.6460      9.028   216.5275 4.1383e+02     4.0295     -0.055     -0.079    26.4073   996.6947 0.0000e+00
     -0.048      0.060     6.7508     83.803     36.285  37.296442     4.6632      9.022   214.4119 4.0111e+02     4.0369     -0.045     -0.065    26.4105   996.6938 0.0000e+00
     -0.043      0.043     6.7840     84.205     36.287  37.293622     4.6559      9.014   213.3327 3.9625e+02     3.9858     -0.044     -0.063    26.4089   996.6942 0.0000e+00
     -0.033      0.027     6.8082     84.490     36.279  37.278302     4.6530      9.006   212.7712 3.9752e+02     3.8708     -0.034     -0.049    26.4029   996.6959 0.0000e+00
     -0.023      0.015     6.8267     84.702     36.248  37.238157     4.6546      8.996   212.3542 4.0215e+02     3.8258     -0.019     -0.028    26.3946   996.6982 0.0000e+00
     -0.018      0.008     6.8494     84.968     36.207  37.189061     4.6573      8.984   211.9053 4.1121e+02     3.8348     -0.014     -0.021    26.3877   996.7001 0.0000e+00
     -0.021      0.003     6.8849     85.396     36.217  37.192458     4.6599      8.973   211.3013 4.3293e+02     3.8154     -0.020     -0.028    26.3820   996.7016 0.0000e+00
     -0.028     -0.002     6.9322     85.973     36.305  37.279225     4.6349      8.964   210.7291 4.5333e+02     3.7887     -0.029     -0.042    26.3715   996.7043 0.0000e+00
     -0.032     -0.004     6.9822     86.589     36.437  37.412985     4.5883      8.957   210.4075 4.6093e+02     3.7737     -0.034     -0.049    26.3588   996.7078 0.0000e+00
     -0.030     -0.002     7.0318     87.204     36.562  37.540247     4.5649      8.950   210.2521 4.6485e+02     3.7972     -0.029     -0.041    26.3480   996.7107 0.0000e+00
     -0.028      0.001     7.0966     88.007     36.632  37.611920     4.5602      8.942   210.2266 4.6985e+02     3.8437     -0.027     -0.039    26.3404   996.7127 0.0000e+00
     -0.028      0.004     7.1916     89.183     36.664  37.644836     4.5662      8.934   210.2714 4.7148e+02     3.8448     -0.029     -0.042    26.3347   996.7142 0.0000e+00
     -0.026      0.004     7.3126     90.681     36.704  37.684331     4.5843      8.928   210.1916 4.6716e+02     3.8099     -0.027     -0.037    26.3316   996.7151 0.0000e+00
     -0.024      0.004     7.4425     92.289     36.729  37.708601     4.5975      8.922   210.1224 4.6065e+02     3.7825     -0.021     -0.031    26.3321   996.7151 0.0000e+00
     -0.024      0.004     7.5601     93.744     36.707  37.684370     4.6053      8.914   210.2092 4.5492e+02     3.7761     -0.022     -0.032    26.3326   996.7150 0.0000e+00
     -0.024      0.004     7.6536     94.899     36.670  37.645256     4.6344      8.906   210.1225 4.5145e+02     3.7979     -0.026     -0.037    26.3317   996.7152 0.0000e+00
     -0.023      0.003     7.7253     95.786     36.644  37.616527     4.6806      8.896   209.9345 4.5135e+02     3.8163     -0.025     -0.035    26.3296   996.7158 0.0000e+00
     -0.020      0.001     7.7797     96.457     36.620  37.590910     4.7046      8.886   210.0005 4.5336e+02     3.8022     -0.019     -0.027    26.3266   996.7166 0.0000e+00
     -0.018      0.000     7.8129     96.867     36.619  37.589413     4.7078      8.878   210.0604 4.5493e+02     3.7915     -0.016     -0.022    26.3246   996.7172 0.0000e+00
     -0.020     -0.002     7.8214     96.970     36.629  37.598425     4.6931      8.871   209.8839 4.5547e+02     3.8185     -0.019     -0.028    26.3233   996.7175 0.0000e+00
     -0.022     -0.007     7.8125     96.859     36.604  37.572930     4.6653      8.866   209.9314 4.5548e+02     3.8332     -0.022     -0.032    26.3213   996.7180 0.0000e+00
     -0.023     -0.012     7.7989     96.688     36.568  37.535054     4.6496      8.861   210.2054 4.5482e+02     3.8054     -0.023     -0.033    26.3190   996.7186 0.0000e+00
     -0.025     -0.014     7.7888     96.559     36.556  37.521318     4.6424      8.854   210.1856 4.5417e+02     3.7771     -0.022     -0.032    26.3180   996.7189 0.0000e+00
     -0.030     -0.013     7.7861     96.524     36.569  37.533795     4.5949      8.846   210.0356 4.5431e+02     3.7536     -0.029     -0.041    26.3181   996.7188 0.0000e+00
     -0.039     -0.012     7.7907     96.582     36.593  37.558957     4.5087      8.838   210.1128 4.5511e+02     3.7514     -0.040     -0.058    26.3175   996.7189 0.0000e+00
     -0.043     -0.010     7.7987     96.681     36.606  37.571660     4.4582      8.830   210.2586 4.5640e+02     3.7503     -0.045     -0.065    26.3153   996.7195 0.0000e+00
     -0.043     -0.006     7.8042     96.747     36.596  37.560431     4.4437      8.823   210.4220 4.5758e+02     3.7399     -0.043     -0.062    26.3129   996.7201 0.0000e+00
     -0.041     -0.001     7.8024     96.722     36.586  37.550141     4.4387      8.815   210.7125 4.5723e+02     3.7572     -0.040     -0.058    26.3125   996.7202 0.0000e+00
     -0.040      0.002     7.7900     96.571     36.609  37.574187     4.4749      8.807   211.0173 4.5402e+02     3.7632     -0.039     -0.056    26.3132   996.7201 0.0000e+00
     -0.040      0.003     7.7622     96.231     36.630  37.597277     4.5516      8.798   211.1815 4.4917e+02     3.7785     -0.041     -0.058    26.3127   996.7202 0.0000e+00
     -0.040      0.002     7.7130     95.624     36.608  37.575427     4.6032      8.791   211.1497 4.4559e+02     3.8111     -0.041     -0.059    26.3113   996.7206 0.0000e+00
     -0.039      0.001     7.6409     94.732     36.596  37.563895     4.6054      8.785   211.1491 4.4435e+02     3.8293     -0.037     -0.054    26.3098   996.7210 0.0000e+00
     -0.038      0.001     7.5523     93.633     36.616  37.584792     4.5692      8.778   211.2598 4.4548e+02     3.8344     -0.036     -0.053    26.3105   996.7208 0.0000e+00
     -0.039      0.002     7.4589     92.475     36.606  37.574197     4.5210      8.773   211.1972 4.4881e+02     3.8075     -0.038     -0.056    26.3144   996.7198 0.0000e+00
     -0.039      0.002     7.3668     91.335     36.594  37.562741     4.5083      8.769   211.0808 4.5244e+02     3.7987     -0.039     -0.057    26.3168   996.7191 0.0000e+00
     -0.038      0.001     7.2793     90.251     36.603  37.573222     4.5107      8.764   211.1423 4.5478e+02     3.7944     -0.038     -0.055    26.3166   996.7191 0.0000e+00
     -0.037      0.001     7.2033     89.312     36.603  37.573978     4.5245      8.759   211.3396 4.5557e+02     3.6901     -0.037     -0.054    26.3159   996.7194 0.0000e+00
     -0.037      0.001     7.1396     88.524     36.600  37.571880     4.5710      8.753   211.6591 4.5448e+02     3.5535     -0.036     -0.052    26.3160   996.7193 0.0000e+00
     -0.037      0.001     7.0840     87.836     36.576  37.547861     4.6047      8.748   211.9076 4.5142e+02     3.5184     -0.035     -0.051    26.3172   996.7190 0.0000e+00
     -0.037      0.001     7.0328     87.203     36.565  37.537466     4.6114      8.742   212.0206 4.4752e+02     3.5281     -0.037     -0.053    26.3184   996.7187 0.0000e+00
     -0.037      0.001     6.9808     86.560     36.598  37.573147     4.6257      8.736   212.1666 4.4399e+02     3.5728     -0.037     -0.054    26.3197   996.7184 0.0000e+00
     -0.036      0.002     6.9256     85.879     36.621  37.598432     4.6469      8.730   212.3821 4.4229e+02     3.6987     -0.036     -0.052    26.3210   996.7180 0.0000e+00
     -0.036      0.003     6.8684     85.174     36.611  37.589285     4.6510      8.723   212.5611 4.4409e+02     3.8056     -0.036     -0.052    26.3221   996.7177 0.0000e+00
     -0.035      0.005     6.8087     84.436     36.610  37.589502     4.6497      8.716   212.5238 4.4734e+02     3.8489     -0.036     -0.052    26.3234   996.7173 0.0000e+00
     -0.034      0.005     6.7475     83.680     36.620  37.601053     4.6581      8.711   212.3603 4.4956e+02     3.8284     -0.033     -0.048    26.3255   996.7168 0.0000e+00
     -0.032      0.004     6.6864     82.924     36.620  37.601998     4.6655      8.707   212.3913 4.5060e+02     3.7871     -0.030     -0.043    26.3276   996.7163 0.0000e+00
     -0.030      0.003     6.6259     82.177     36.618  37.600940     4.6689      8.703   212.5549 4.4976e+02     3.7764     -0.029     -0.042    26.3293   996.7158 0.0000e+00
     -0.030      0.002     6.5689     81.472     36.605  37.588264     4.6651      8.699   212.6178 4.4754e+02     3.7648     -0.029     -0.042    26.3310   996.7153 0.0000e+00
     -0.030     -0.001     6.5154     80.811     36.591  37.575683     4.6629      8.695   212.6350 4.4550e+02     3.7448     -0.029     -0.041    26.3328   996.7149 0.0000e+00
     -0.030     -0.003     6.4639     80.175     36.590  37.575778     4.6681      8.692   212.6774 4.4438e+02     3.7305     -0.029     -0.042    26.3346   996.7144 0.0000e+00
     -0.031     -0.003     6.4127     79.543     36.602  37.589407     4.6671      8.690   212.8724 4.4415e+02     3.7557     -0.030     -0.043    26.3361   996.7140 0.0000e+00
     -0.033     -0.003     6.3625     78.921     36.624  37.613527     4.6684      8.686   213.2712 4.4468e+02     3.7875     -0.032     -0.046    26.3377   996.7135 0.0000e+00
     -0.034     -0.002     6.3160     78.346     36.623  37.613517     4.6756      8.681   213.6273 4.4581e+02     3.7542     -0.033     -0.048    26.3395   996.7130 0.0000e+00
     -0.035     -0.001     6.2738     77.825     36.598  37.589282     4.6937      8.678   213.7369 4.4636e+02     3.7142     -0.035     -0.051    26.3412   996.7126 0.0000e+00
     -0.034     -0.001     6.2348     77.344     36.583  37.574403     4.7226      8.676   213.6496 4.4579e+02     3.7625     -0.034     -0.049    26.3432   996.7120 0.0000e+00
     -0.032      0.000     6.1983     76.894     36.569  37.560565     4.7296      8.673   213.6045 4.4505e+02     3.8463     -0.031     -0.045    26.3450   996.7116 0.0000e+00
     -0.032      0.000     6.1621     76.448     36.556  37.548919     4.7181      8.671   213.7085 4.4430e+02     3.8426     -0.031     -0.045    26.3463   996.7112 0.0000e+00
     -0.033      0.001     6.1249     75.989     36.566  37.560553     4.7127      8.669   213.9609 4.4396e+02     3.7834     -0.033     -0.047    26.3475   996.7109 0.0000e+00
     -0.034      0.001     6.0891     75.546     36.578  37.574287     4.7167      8.666   214.2471 4.4460e+02     3.7866     -0.034     -0.050    26.3490   996.7105 0.0000e+00
     -0.034      0.000     6.0554     75.129     36.590  37.588021     4.7228      8.664   214.3290 4.4550e+02     3.8155     -0.034     -0.050    26.3505   996.7101 0.0000e+00
     -0.033     -0.000     6.0214     74.710     36.600  37.599666     4.7261      8.662   214.2620 4.4594e+02     3.7722     -0.032     -0.046    26.3524   996.7096 0.0000e+00
     -0.032     -0.001     5.9856     74.267     36.588  37.588135     4.7655      8.659   214.2117 4.4539e+02     3.7222     -0.031     -0.044    26.3545   996.7090 0.0000e+00
     -0.032     -0.001     5.9492     73.817     36.575  37.575545     4.8440      8.656   214.2379 4.4427e+02     3.7356     -0.030     -0.044    26.3558   996.7087 0.0000e+00
     -0.033      0.000     5.9153     73.398     36.572  37.574401     4.8946      8.653   214.4067 4.4390e+02     3.7698     -0.032     -0.048    26.3570   996.7084 0.0000e+00
     -0.035      0.000     5.8848     73.022     36.571  37.574297     4.9088      8.650   214.7042 4.4391e+02     3.8079     -0.035     -0.051    26.3586   996.7079 0.0000e+00
     -0.036      0.001     5.8567     72.677     36.571  37.574297     4.8941      8.647   214.9956 4.4356e+02     3.8691     -0.035     -0.051    26.3602   996.7075 0.0000e+00
     -0.034      0.001     5.8292     72.337     36.570  37.574400     4.8558      8.645   215.1757 4.4362e+02     3.9523     -0.033     -0.048    26.3619   996.7070 0.0000e+00
     -0.032      0.002     5.8011     71.990     36.570  37.575545     4.8360      8.643   215.1615 4.4396e+02     3.9943     -0.031     -0.045    26.3634   996.7066 0.0000e+00
     -0.031      0.003     5.7740     71.655     36.581  37.588135     4.8370      8.641   214.9970 4.4378e+02     3.9839     -0.030     -0.043    26.3646   996.7062 0.0000e+00
     -0.031      0.003     5.7488     71.344     36.591  37.599675     4.8156      8.638   215.0787 4.4337e+02     3.8592     -0.030     -0.044    26.3658   996.7060 0.0000e+00
     -0.031      0.003     5.7244     71.043     36.579  37.588135     4.7681      8.635   215.4604 4.4339e+02     3.6330     -0.031     -0.045    26.3671   996.7056 0.0000e+00
     -0.030      0.002     5.6994     70.734     36.566  37.575554     4.7391      8.632   215.7413 4.4422e+02     3.5433     -0.030     -0.044    26.3686   996.7052 0.0000e+00
     -0.029      0.002     5.6731     70.409     36.565  37.574514     4.7337      8.631   215.8070 4.4512e+02     3.5616     -0.029     -0.042    26.3705   996.7047 0.0000e+00
     -0.027      0.002     5.6471     70.089     36.565  37.575554     4.7372      8.629   215.7390 4.4541e+02     3.5590     -0.027     -0.040    26.3720   996.7043 0.0000e+00
     -0.027      0.002     5.6229     69.790     36.575  37.588135     4.7559      8.628   215.6939 4.4474e+02     3.6101     -0.026     -0.038    26.3733   996.7040 0.0000e+00
     -0.027      0.002     5.5996     69.503     36.585  37.599684     4.7783      8.627   215.7778 4.4306e+02     3.7204     -0.027     -0.038    26.3744   996.7037 0.0000e+00
     -0.028      0.001     5.5773     69.228     36.573  37.588247     4.7821      8.624   215.9787 4.4184e+02     3.7789     -0.028     -0.040    26.3756   996.7034 0.0000e+00
     -0.028      0.001     5.5569     68.976     36.561  37.576802     4.7754      8.621   216.3162 4.4165e+02     3.7926     -0.027     -0.040    26.3772   996.7029 0.0000e+00
     -0.027      0.001     5.5365     68.725     36.571  37.588248     4.7754      8.617   216.5895 4.4185e+02     3.8209     -0.027     -0.039    26.3787   996.7026 0.0000e+00
     -0.026      0.001     5.5140     68.447     36.581  37.599694     4.7743      8.615   216.6160 4.4191e+02     3.7937     -0.026     -0.037    26.3802   996.7021 0.0000e+00
     -0.026      0.001     5.4911     68.165     36.569  37.588247     4.7708      8.613   216.6367 4.4176e+02     3.7261     -0.025     -0.037    26.3814   996.7018 0.0000e+00
     -0.026      0.001     5.4701     67.905     36.558  37.576800     4.7677      8.610   216.7536 4.4141e+02     3.7245     -0.025     -0.037    26.3826   996.7015 0.0000e+00
     -0.026      0.001     5.4505     67.663     36.568  37.588236     4.7617      8.608   216.8237 4.4053e+02     3.7738     -0.026     -0.037    26.3839   996.7011 0.0000e+00
     -0.026      0.001     5.4312     67.424     36.578  37.599568     4.7682      8.607   216.7962 4.3978e+02     3.7970     -0.026     -0.038    26.3854   996.7007 0.0000e+00
     -0.025      0.001     5.4117     67.184     36.565  37.586863     4.7863      8.604   216.6805 4.3961e+02     3.7762     -0.025     -0.036    26.3870   996.7003 0.0000e+00
     -0.024      0.001     5.3934     66.958     36.540  37.561578     4.7888      8.602   216.6290 4.3934e+02     3.7512     -0.024     -0.034    26.3881   996.7000 0.0000e+00
     -0.024      0.001     5.3769     66.755     36.525  37.547747     4.7648      8.600   216.6893 4.3887e+02     3.7580     -0.023     -0.033    26.3892   996.6997 0.0000e+00
     -0.024      0.001     5.3610     66.559     36.524  37.546584     4.7301      8.598   216.8933 4.3865e+02     3.7925     -0.023     -0.034    26.3902   996.6995 0.0000e+00
     -0.024      0.000     5.3445     66.356     36.524  37.547519     4.7158      8.596   217.2886 4.3863e+02     3.8076     -0.024     -0.035    26.3911   996.6991 0.0000e+00
     -0.024      0.000     5.3270     66.140     36.534  37.559049     4.7298      8.595   217.5981 4.3800e+02     3.7774     -0.024     -0.034    26.3925   996.6988 0.0000e+00
     -0.024      0.000     5.3090     65.918     36.533  37.559049     4.7700      8.594   217.7097 4.3701e+02     3.7544     -0.024     -0.034    26.3936   996.6985 0.0000e+00
     -0.024      0.001     5.2920     65.708     36.521  37.547519     4.8203      8.592   217.8633 4.3671e+02     3.7585     -0.023     -0.033    26.3947   996.6982 0.0000e+00
     -0.024      0.001     5.2760     65.512     36.520  37.546584     4.8435      8.590   218.0780 4.3661e+02     3.7624     -0.023     -0.034    26.3960   996.6979 0.0000e+00
     -0.024      0.001     5.2599     65.312     36.520  37.547746     4.8434      8.588   218.1550 4.3635e+02     3.7687     -0.023     -0.033    26.3970   996.6976 0.0000e+00
     -0.023      0.001     5.2428     65.100     36.532  37.561567     4.8442      8.586   218.1918 4.3617e+02     3.7684     -0.023     -0.034    26.3981   996.6972 0.0000e+00
     -0.022      0.001     5.2263     64.897     36.556  37.586746     4.8272      8.585   218.3512 4.3593e+02     3.8242     -0.022     -0.032    26.3991   996.6970 0.0000e+00
     -0.022      0.001     5.2114     64.713     36.567  37.598296     4.7941      8.583   218.5332 4.3583e+02     3.9517     -0.022     -0.031    26.4000   996.6968 0.0000e+00
     -0.023      0.001     5.1974     64.541     36.543  37.574269     4.7907      8.581   218.7577 4.3599e+02     4.0330     -0.022     -0.032    26.4010   996.6965 0.0000e+00
     -0.023      0.001     5.1837     64.372     36.518  37.550138     4.7951      8.579   219.0871 4.3621e+02     4.0535     -0.022     -0.032    26.4020   996.6963 0.0000e+00
     -0.022      0.000     5.1695     64.196     36.527  37.560422     4.7864      8.577   219.3328 4.3632e+02     4.0354     -0.022     -0.032    26.4031   996.6960 0.0000e+00
     -0.021      0.000     5.1560     64.030     36.537  37.571659     4.7890      8.575   219.4058 4.3625e+02     3.9780     -0.021     -0.030    26.4042   996.6957 0.0000e+00
     -0.021      0.001     5.1422     63.860     36.524  37.559059     4.7927      8.574   219.4529 4.3622e+02     3.9499     -0.021     -0.030    26.4055   996.6953 0.0000e+00
     -0.022      0.001     5.1260     63.660     36.500  37.535030     4.7875      8.572   219.5583 4.3621e+02     3.9894     -0.022     -0.032    26.4064   996.6951 0.0000e+00
     -0.022      0.001     5.1109     63.473     36.500  37.535030     4.7691      8.570   219.6477 4.3590e+02     3.9976     -0.022     -0.032    26.4074   996.6948 0.0000e+00
     -0.022      0.000     5.0992     63.329     36.522  37.559056     4.7439      8.569   219.6728 4.3560e+02     3.9507     -0.022     -0.031    26.4086   996.6945 0.0000e+00
     -0.021      0.000     5.0881     63.191     36.534  37.571636     4.7345      8.568   219.6040 4.3494e+02     3.9468     -0.020     -0.029    26.4098   996.6942 0.0000e+00
     -0.021      0.001     5.0751     63.031     36.522  37.560180     4.7339      8.567   219.3320 4.3429e+02     3.9833     -0.020     -0.029    26.4108   996.6939 0.0000e+00
     -0.021      0.001     5.0611     62.859     36.509  37.547494     4.7010      8.566   219.0511 4.3431e+02     4.0315     -0.020     -0.029    26.4115   996.6937 0.0000e+00
     -0.022      0.002     5.0487     62.707     36.507  37.545195     4.6404      8.566   218.9610 4.3411e+02     4.0710     -0.022     -0.031    26.4124   996.6934 0.0000e+00
     -0.022      0.003     5.0392     62.589     36.494  37.532387     4.6088      8.565   218.9307 4.3450e+02     4.0673     -0.021     -0.031    26.4133   996.6932 0.0000e+00
     -0.021      0.006     5.0315     62.494     36.481  37.519578     4.6135      8.564   218.8567 4.3434e+02     4.0516     -0.020     -0.029    26.4145   996.6929 0.0000e+00
     -0.018      0.009     5.0260     62.424     36.479  37.517278     4.6625      8.562   218.7547 4.3064e+02     4.1111     -0.017     -0.025    26.4155   996.6926 0.0000e+00
     -0.016      0.011     5.0228     62.384     36.467  37.504581     4.7413      8.561   218.7306 4.2370e+02     4.1966     -0.015     -0.022    26.4160   996.6925 0.0000e+00
     -0.013      0.013     5.0213     62.365     36.456  37.493011     4.7768      8.558   218.6501 4.2020e+02     4.2004     -0.014     -0.019    26.4167   996.6923 0.0000e+00
     -0.008      0.013     5.0216     62.370     36.467  37.504329     4.7719      8.554   218.2986 4.2554e+02     4.1906     -0.008     -0.012    26.4169   996.6923 0.0000e+00
     -0.004      0.014     5.0209     62.360     36.477  37.514483     4.7685      8.551   217.7500 4.2928e+02     4.2087     -0.004     -0.006    26.4165   996.6924 0.0000e+00
     -0.000      0.017     5.0192     62.338     36.453  37.488826     4.7705      8.542   216.9210 4.2196e+02     4.1562     -0.000     -0.000    26.4157   996.6926 0.0000e+00
      0.002      0.023     5.0236     62.386     36.293  37.321056     4.7705      8.526   215.7612 3.9049e+02     4.0477      0.002      0.003    26.4152   996.6928 0.0000e+00
      0.006      0.033     5.0560     62.774     35.999  37.009362     4.7679      8.506   214.6538 3.4831e+02     4.0118      0.005      0.007    26.4160   996.6926 0.0000e+00
      0.013      0.049     5.1890     64.392     35.783  36.766869     4.7648      8.485   214.0286 3.2074e+02     4.0163      0.011      0.015    26.4165   996.6925 0.0000e+00
      0.023      0.068     5.5419     68.715     35.722  36.674089     4.7935      8.466   213.9663 2.9253e+02     4.0697      0.021      0.029    26.4160   996.6927 0.0000e+00
      0.041      0.086     6.1624     76.343     35.730  36.649197     4.8553      8.455   214.2442 2.6152e+02     4.1984      0.037      0.054    26.4121   996.6937 0.0000e+00
      0.070      0.102     6.9584     86.139     35.705  36.592795     4.8871      8.448   214.7222 2.3197e+02     4.2950      0.064      0.093    26.4024   996.6964 0.0000e+00
      0.107      0.114     7.7724     96.155     35.639  36.499868     4.8926      8.441   215.2709 2.0777e+02     4.3202      0.106      0.155    26.3755   996.7038 0.0000e+00
      0.142      0.121     8.4763    104.809     35.638  36.477660     4.9391      8.435   215.8029 1.8910e+02     4.2405      0.144      0.208    26.3279   996.7167 0.0000e+00
      0.169      0.122     9.0176    111.457     35.690  36.514657     5.0243      8.429   216.4218 1.6768e+02     4.1179      0.163      0.237    26.2773   996.7303 0.0000e+00
      0.199      0.120     9.3820    115.931     35.689  36.502864     5.0725      8.421   217.1609 1.5240e+02     4.0503      0.193      0.280    26.2337   996.7422 0.0000e+00
      0.232      0.115     9.5620    118.137     35.655  36.462003     5.0802      8.411   217.8567 1.4334e+02     4.0138      0.231      0.335    26.1990   996.7517 0.0000e+00
      0.262      0.109     9.5704    118.227     35.663  36.464904     5.0826      8.399   218.3827 1.3543e+02     3.9385      0.259      0.375    26.1682   996.7600 0.0000e+00
      0.289      0.101     9.4516    116.752     35.675  36.474457     5.0765      8.387   218.8741 1.3146e+02     3.8276      0.283      0.409    26.1446   996.7664 0.0000e+00
      0.316      0.091     9.2758    114.578     35.652  36.450562     5.0755      8.377   219.5825 1.3004e+02     3.7880      0.309      0.449    26.1320   996.7699 0.0000e+00
      0.341      0.084     9.1020    112.433     35.631  36.429872     5.0965      8.367   220.4943 1.2971e+02     3.8190      0.337      0.490    26.1237   996.7722 0.0000e+00
      0.358      0.085     8.9574    110.649     35.616  36.414711     5.2172      8.354   221.3808 1.3278e+02     3.8750      0.356      0.516    26.1178   996.7739 0.0000e+00
      0.368      0.092     8.8470    109.281     35.597  36.394196     5.4253      8.338   222.3856 1.3624e+02     3.9410      0.360      0.522    26.1135   996.7751 0.0000e+00
      0.383      0.104     8.7638    108.243     35.580  36.372245     5.5402      8.322   223.5235 1.3480e+02     3.9950      0.368      0.535    26.1125   996.7754 0.0000e+00
      0.412      0.121     8.6946    107.374     35.553  36.339703     5.5571      8.304   224.4695 1.2992e+02     4.0354      0.402      0.582    26.1143   996.7750 0.0000e+00
      0.452      0.140     8.6299    106.562     35.536  36.318080     5.5695      8.286   225.0481 1.2445e+02     4.0364      0.443      0.642    26.1162   996.7747 0.0000e+00
      0.495      0.155     8.5637    105.730     35.525  36.301195     5.7155      8.271   225.2701 1.1752e+02     4.0075      0.482      0.700    26.1146   996.7753 0.0000e+00
      0.542      0.160     8.4907    104.815     35.492  36.262489     5.9963      8.259   225.4332 1.1027e+02     4.0130      0.532      0.770    26.1081   996.7772 0.0000e+00
      0.588      0.157     8.4135    103.847     35.467  36.230906     6.1386      8.248   225.7300 1.0435e+02     4.0377      0.578      0.839    26.1007   996.7794 0.0000e+00
      0.629      0.150     8.3408    102.935     35.477  36.236676     6.1355      8.237   226.1055 9.9149e+01     4.0122      0.618      0.897    26.0938   996.7814 0.0000e+00
      0.665      0.142     8.2789    102.158     35.514  36.268775     6.1496      8.224   226.5314 9.5028e+01     3.9327      0.656      0.951    26.0864   996.7836 0.0000e+00
      0.695      0.136     8.2286    101.521     35.553  36.301646     6.1878      8.211   227.0076 9.2257e+01     3.8308      0.683      0.991    26.0787   996.7857 0.0000e+00
      0.724      0.132     8.1922    101.053     35.575  36.316754     6.2069      8.197   227.3895 8.9600e+01     3.7638      0.707      1.026    26.0714   996.7877 0.0000e+00
      0.757      0.132     8.1721    100.783     35.590  36.324485     6.2069      8.185   227.7071 8.6790e+01     3.7450      0.742      1.076    26.0647   996.7898 0.0000e+00
      0.792      0.132     8.1664    100.693     35.605  36.331644     6.2570      8.173   228.1806 8.4398e+01     3.7345      0.777      1.127    26.0569   996.7920 0.0000e+00
      0.828      0.133     8.1738    100.766     35.620  36.339825     6.3445      8.161   228.8134 8.1898e+01     3.7340      0.811      1.175    26.0483   996.7944 0.0000e+00
      0.865      0.134     8.1918    100.974     35.645  36.359925     6.3808      8.148   229.5065 7.9590e+01     3.7396      0.850      1.233    26.0378   996.7974 0.0000e+00
      0.899      0.134     8.2148    101.239     35.676  36.384241     6.3762      8.134   230.0223 7.8010e+01     3.7693      0.883      1.281    26.0256   996.8008 0.0000e+00
      0.928      0.134     8.2416    101.549     35.679  36.379936     6.3313      8.121   230.2318 7.6337e+01     3.8633      0.909      1.318    26.0140   996.8040 0.0000e+00
      0.960      0.135     8.2815    102.024     35.614  36.307859     6.2455      8.111   230.3178 7.3937e+01     3.9595      0.939      1.362    26.0044   996.8067 0.0000e+00
      0.997      0.136     8.3419    102.754     35.524  36.210933     6.2057      8.104   230.4602 7.1041e+01     3.9815      0.976      1.416    25.9964   996.8090 0.0000e+00
      1.035      0.137     8.4209    103.707     35.482  36.160072     6.2232      8.096   230.6632 6.8161e+01     3.9660      1.015      1.473    25.9871   996.8117 0.0000e+00
      1.071      0.139     8.5101    104.782     35.468  36.137178     6.3705      8.085   230.8802 6.5499e+01     3.9680      1.050      1.524    25.9752   996.8150 0.0000e+00
      1.106      0.140     8.5930    105.778     35.465  36.124523     6.6427      8.071   231.0187 6.3003e+01     3.9733      1.084      1.573    25.9668   996.8173 0.0000e+00
      1.140      0.140     8.6420    106.346     35.736  36.387873     6.7915      8.057   231.0465 6.0612e+01     3.9643      1.118      1.621    25.9611   996.8190 0.0000e+00
      1.174      0.139     8.6237    106.054     36.274  36.909350     6.8004      8.045   231.1303 5.8158e+01     3.9580      1.150      1.668    25.9493   996.8222 0.0000e+00
      1.211      0.137     8.5276    104.757     36.503  37.097962     6.8028      8.034   231.4294 5.5670e+01     3.9629      1.187      1.721    25.9363   996.8259 0.0000e+00
      1.250      0.133     8.3855    102.869     36.416  36.954569     6.8369      8.024   231.9108 5.3415e+01     3.9901      1.227      1.779    25.9249   996.8290 0.0000e+00
      1.286      0.128     8.2355    100.895     36.467  36.952767     6.8922      8.013   232.4767 5.1605e+01     4.0245      1.263      1.832    25.9108   996.8329 0.0000e+00
      1.316      0.120     8.0910     99.005     36.762  37.203033     6.9162      8.003   233.2814 5.0134e+01     4.0190      1.291      1.873    25.8816   996.8411 0.0000e+00
      1.345      0.111     7.9511     97.185     37.104  37.504968     6.9372      7.992   234.7574 4.8824e+01     3.9895      1.319      1.912    25.8149   996.8588 0.0000e+00
      1.372      0.103     7.8243     95.538     37.259  37.620087     7.1456      7.982   236.6414 4.7762e+01     3.9946      1.348      1.955    25.7300   996.8812 0.0000e+00
      1.396      0.097     7.7225     94.210     37.192  37.515793     7.5200      7.972   237.8213 4.6945e+01     4.0158      1.370      1.988    25.6582   996.9003 0.0000e+00
      1.418      0.094     7.6389     93.116     36.906  37.196019     7.7280      7.962   238.2680 4.6094e+01     4.0161      1.390      2.016    25.5931   996.9175 0.0000e+00
      1.441      0.094     7.5605     92.094     36.479  36.736961     7.7608      7.950   238.6005 4.5135e+01     3.9980      1.414      2.051    25.5325   996.9336 0.0000e+00
      1.464      0.096     7.4820     91.066     36.184  36.408435     7.8824      7.938   239.0886 4.4202e+01     4.0921      1.436      2.083    25.4779   996.9481 0.0000e+00
      1.488      0.101     7.4083     90.080     36.148  36.333948     8.1056      7.925   240.0395 4.3192e+01     4.3351      1.457      2.114    25.4260   996.9616 0.0000e+00
      1.513      0.107     7.3515     89.290     36.329  36.471007     8.2313      7.912   241.1498 4.1954e+01     4.4778      1.483      2.151    25.3844   996.9725 0.0000e+00
      1.541      0.112     7.3178     88.775     36.573  36.669157     8.2398      7.900   241.9304 4.0529e+01     4.5063      1.511      2.191    25.3495   996.9815 0.0000e+00
      1.573      0.114     7.2939     88.388     36.710  36.762060     8.2349      7.890   242.4222 3.9066e+01     4.5818      1.543      2.237    25.3075   996.9924 0.0000e+00
      1.605      0.114     7.2576     87.873     36.815  36.832558     8.2246      7.881   242.7938 3.7611e+01     4.6696      1.574      2.283    25.2536   997.0065 0.0000e+00
      1.637      0.109     7.1936     87.048     36.956  36.950232     8.2192      7.874   243.0688 3.6230e+01     4.7160      1.605      2.329    25.1912   997.0228 0.0000e+00
      1.667      0.102     7.1005     85.879     37.068  37.042301     8.2384      7.866   243.3381 3.5148e+01     4.7490      1.637      2.375    25.1246   997.0402 0.0000e+00
      1.691      0.096     6.9863     84.445     37.171  37.120581     8.3180      7.858   243.7270 3.4327e+01     4.8721      1.659      2.407    25.0600   997.0570 0.0000e+00
      1.710      0.092     6.8502     82.733     37.345  37.261928     8.4360      7.850   244.1561 3.3551e+01     5.0574      1.678      2.433    25.0122   997.0694 0.0000e+00
      1.730      0.091     6.6893     80.692     37.552  37.418318     8.4949      7.841   244.4836 3.2771e+01     5.1204      1.697      2.461    24.9850   997.0765 0.0000e+00
      1.750      0.092     6.5151     78.448     37.697  37.488018     8.5185      7.832   244.6742 3.1869e+01     5.1109      1.714      2.486    24.9636   997.0820 0.0000e+00
      1.775      0.095     6.3458     76.248     37.830  37.533280     8.6355      7.824   244.9987 3.0784e+01     5.1386      1.738      2.521    24.9290   997.0910 0.0000e+00
      1.803      0.097     6.1942     74.282     37.961  37.584596     8.8257      7.816   245.6533 2.9737e+01     5.1607      1.769      2.566    24.8896   997.1013 0.0000e+00
      1.831      0.094     6.0631     72.600     38.039  37.600560     8.9281      7.808   246.3083 2.8816e+01     5.1483      1.797      2.606    24.8318   997.1162 0.0000e+00
      1.857      0.089     5.9477     71.145     38.080  37.599253     8.9373      7.801   246.7236 2.7930e+01     5.1202      1.821      2.641    24.7229   997.1440 0.0000e+00
      1.880      0.083     5.8438     69.859     38.075  37.568728     8.9370      7.794   247.0608 2.7187e+01     5.1155      1.846      2.677    24.5973   997.1761 0.0000e+00
      1.898      0.079     5.7489     68.699     38.005  37.485355     8.9419      7.786   247.4601 2.6652e+01     5.0919      1.863      2.703    24.4896   997.2033 0.0000e+00
      1.913      0.081     5.6664     67.682     37.826  37.289396     8.9444      7.775   247.9382 2.6189e+01     4.9987      1.876      2.720    24.4076   997.2239 0.0000e+00
      1.928      0.090     5.6014     66.832     37.424  36.849721     8.9400      7.763   248.4540 2.5664e+01     4.9067      1.889      2.741    24.3577   997.2365 0.0000e+00
      1.947      0.102     5.5456     66.056     36.799  36.168030     8.9320      7.752   249.0495 2.4864e+01     4.8640      1.905      2.764    24.3233   997.2451 0.0000e+00
      1.975      0.116     5.4770     65.117     36.086  35.394202     8.8395      7.744   249.7181 2.3694e+01     4.9410      1.933      2.803    24.3105   997.2484 0.0000e+00
      2.013      0.126     5.3619     63.627     35.286  34.538476     8.6635      7.737   250.1714 2.2381e+01     5.0842      1.974      2.862    24.3009   997.2509 0.0000e+00
      2.054      0.131     5.1514     61.012     34.429  33.627840     8.5719      7.730   250.2286 2.1203e+01     5.1205      2.017      2.926    24.2382   997.2666 0.0000e+00
      2.092      0.129     4.7990     56.730     33.874  33.014835     8.5556      7.725   250.2375 2.0194e+01     5.1178      2.053      2.978    24.1388   997.2913 0.0000e+00
      2.125      0.123     4.2877     50.594     35.071  34.107415     8.3540      7.720   250.7080 1.9278e+01     5.1497      2.085      3.024    24.0345   997.3170 0.0000e+00
      2.154      0.115     3.6318     42.781     39.760  38.586943     7.9897      7.714   251.3584 1.8542e+01     5.1779      2.115      3.068    23.9329   997.3420 0.0000e+00
      2.178      0.107     2.8757     33.816     45.570  44.138334     7.7919      7.707   251.6484 1.7968e+01     5.1640      2.137      3.100    23.8313   997.3666 0.0000e+00
      2.201      0.098     2.0690     24.288     48.435  46.821919     7.7570      7.701   251.6337 1.7330e+01     5.1452      2.156      3.127    23.7232   997.3930 0.0000e+00
      2.228      0.087     1.2748     14.942     49.197  47.478456     7.6460      7.696   251.5243 1.6572e+01     5.1807      2.183      3.166    23.6225   997.4175 0.0000e+00
      2.257      0.076     0.5841      6.840     50.456  48.646996     7.4468      7.691   251.4442 1.5978e+01     5.1991      2.217      3.216    23.5314   997.4415 0.0000e+00
      2.280      0.063     0.0526      0.617     53.486  51.551118     7.3421      7.686   251.4394 1.5764e+01     5.1714      2.241      3.250    23.4332   997.4680 0.0000e+00
      2.290      0.050    -0.3121     -3.650     58.418  56.295026     7.3343      7.680   251.4662 1.5724e+01     5.1408      2.247      3.259    23.3249   997.4947 0.0000e+00
      2.295      0.036    -0.5173     -6.050     62.423  60.137113     7.2308      7.675   251.5100 1.5687e+01     5.0587      2.251      3.264    23.2330   997.5166 0.0000e+00
      2.299      0.024    -0.5810     -6.793     63.955  61.599243     7.0368      7.670   251.6245 1.5656e+01     4.9325      2.254      3.270    23.1890   997.5275 0.0000e+00
      2.304      0.017    -0.5387     -6.299     64.134  61.772878     6.9300      7.664   251.8187 1.5578e+01     4.8595      2.259      3.276    23.1850   997.5293 0.0000e+00
      2.309      0.014    -0.4343     -5.080     62.560  60.266276     6.9189      7.658   252.1376 1.5472e+01     4.8327      2.265      3.284    23.1823   997.5321 0.0000e+00
      2.313      0.012    -0.3025     -3.538     60.005  57.808155     6.9284      7.651   252.4693 1.5372e+01     4.8382      2.268      3.290    23.1639   997.5381 0.0000e+00
      2.315      0.010    -0.1651     -1.931     58.721  56.579905     7.0369      7.645   252.4735 1.5287e+01     4.8924      2.270      3.294    23.1455   997.5424 0.0000e+00
      2.317      0.007    -0.0333     -0.391     58.197  56.090456     7.2329      7.640   252.2738 1.5242e+01     4.9310      2.272      3.296    23.1503   997.5417 0.0000e+00
      2.318      0.005     0.0903      1.055     56.405  54.368019     7.3391      7.635   252.3773 1.5194e+01     4.9111      2.273      3.296    23.1668   997.5372 0.0000e+00
      2.318      0.004     0.2064      2.415     53.440  51.509140     7.3506      7.630   252.6931 1.5114e+01     4.9137      2.273      3.297    23.1614   997.5372 0.0000e+00
      2.319      0.003     0.3126      3.659     51.047  49.220274     7.3627      7.625   252.9082 1.5036e+01     4.9633      2.274      3.299    23.1653   997.5359 0.0000e+00
      2.320      0.002     0.4075      4.774     50.432  48.670639     7.3814      7.620   253.1712 1.4971e+01     4.9864      2.275      3.300    23.1923   997.5298 0.0000e+00
      2.321      0.002     0.4941      5.794     50.846  49.119121     7.3951      7.616   253.5507 1.4894e+01     4.9635      2.276      3.301    23.1926   997.5291 0.0000e+00
      2.321      0.002     0.5793      6.797     50.212  48.545834     7.4063      7.612   253.9690 1.4817e+01     4.9159      2.276      3.301    23.1802   997.5308 0.0000e+00
      2.322      0.001     0.6694      7.861     48.715  47.137246     7.4390      7.607   254.2715 1.4792e+01     4.8703      2.277      3.302    23.1930   997.5268 0.0000e+00
      2.322      0.001     0.7655      8.998     48.341  46.821938     7.4957      7.602   254.3689 1.4797e+01     4.8705      2.277      3.302    23.2446   997.5142 0.0000e+00
      2.322      0.001     0.8665     10.193     49.030  47.528053     7.5287      7.598   254.4583 1.4782e+01     4.9175      2.277      3.303    23.3036   997.5007 0.0000e+00
      2.322      0.001     0.9744     11.463     49.885  48.371735     7.5344      7.594   254.6636 1.4760e+01     4.9475      2.277      3.303    23.3359   997.4927 0.0000e+00
      2.322      0.001     1.0904     12.828     50.886  49.338347     7.6254      7.589   254.9583 1.4756e+01     4.9389      2.277      3.303    23.3699   997.4836 0.0000e+00
      2.322      0.000     1.2049     14.173     51.318  49.752071     7.8057      7.584   255.2683 1.4755e+01     4.9117      2.277      3.302    23.4261   997.4701 0.0000e+00
      2.323 1.8936e-08     1.3033     15.333     50.461  48.928190     7.9193      7.580   255.5722 1.4724e+01     4.8803      2.278      3.303    23.4732   997.4592 0.0000e+00
      2.323 2.0829e-07     1.3850     16.298     48.914  47.442791     7.9497      7.577   255.8801 1.4677e+01     4.8873      2.278      3.304    23.4859   997.4563 0.0000e+00
      2.323 2.4216e-07     1.4576     17.158     47.891  46.462781     7.9393      7.573   256.1517 1.4642e+01     4.9312      2.278      3.304    23.4739   997.4596 0.0000e+00
      2.323 4.2844e-07     1.5268     17.975     47.966  46.541441     7.8978      7.569   256.3607 1.4626e+01     4.9525      2.277      3.303    23.4614   997.4629 0.0000e+00
      2.323      0.000     1.5960     18.787     48.504  47.060311     7.8721      7.565   256.5144 1.4624e+01     4.9476      2.278      3.304    23.4727   997.4598 0.0000e+00
      2.323      0.000     1.6674     19.625     48.667  47.211523     7.8631      7.560   256.6335 1.4629e+01     4.9369      2.277      3.303    23.4921   997.4544 0.0000e+00
      2.323      0.001     1.7416     20.497     48.357  46.909120     7.8498      7.556   256.7683 1.4634e+01     4.9211      2.278      3.304    23.5061   997.4505 0.0000e+00
      2.323      0.001     1.8182     21.401     48.208  46.769739     7.7551      7.553   257.0254 1.4650e+01     4.9207      2.278      3.304    23.5137   997.4489 0.0000e+00
      2.324      0.001     1.8889     22.236     48.360  46.923376     7.5756      7.549   257.2467 1.4680e+01     4.9328      2.279      3.305    23.5089   997.4504 0.0000e+00
      2.324      0.001     1.9206     22.611     48.424  46.988604     7.4826      7.547   257.2935 1.4716e+01     4.9365      2.279      3.305    23.4972   997.4533 0.0000e+00
      2.324 -9.990e-29 -9.990e-29 -9.990e-29 -9.990e-29 -9.990e-29 -9.990e-29 -9.990e-29 -9.990e-29 1.4773e+01 -9.990e-29      2.279      3.306    23.4954   997.4534 0.0000e+00
      2.324 -9.990e-29 -9.990e-29 -9.990e-29 -9.990e-29 -9.990e-29 -9.990e-29 -9.990e-29 -9.990e-29 1.4848e+01 -9.990e-29      2.279      3.306    23.5026   997.4516 0.0000e+00
      2.324 -9.990e-29 -9.990e-29 -9.990e-29 -9.990e-29 -9.990e-29 -9.990e-29 -9.990e-29 -9.990e-29 1.4946e+01 -9.990e-29      2.279      3.306    23.5100   997.4500 0.0000e+00
      2.324 -9.990e-29 -9.990e-29 -9.990e-29 -9.990e-29 -9.990e-29 -9.990e-29 -9.990e-29 -9.990e-29 1.5003e+01 -9.990e-29      2.279      3.306    23.5152   997.4487 0.0000e+00
