* Sea-Bird SBE19plus  Data File:
* FileName = C:\DATA\06272019_fcr50_0001.hex
* Software version 2.8.0.119 SB_Terminal.dll
* Temperature SN = 7809
* Conductivity SN = 7809
* System UpLoad Time = Jun 27 2019 09:47:37
* <ApplicationData>
* <Seaterm232>
* <SoftwareVersion>2.8.0.119</SoftwareVersion>
* <BuildDate>07-Nov-2018</BuildDate>
* </Seaterm232>
* </ApplicationData>
* cast   1 27 Jun 2019 09:36:25 samples 1 to 1249, avg = 1, stop = mag switch
# nquan = 16
# nvalues = 979                         
# units = specified
# name 0 = depFM: Depth [fresh water, m]
# name 1 = dz/dtM: Descent Rate [m/s]
# name 2 = sbeox0Mg/L: Oxygen, SBE 43 [mg/l]
# name 3 = sbeox0PS: Oxygen, SBE 43 [% saturation]
# name 4 = specc: Specific Conductance [uS/cm]
# name 5 = c0uS/cm: Conductivity [uS/cm]
# name 6 = flECO-AFL: Fluorescence, WET Labs ECO-AFL/FL [mg/m^3]
# name 7 = ph: pH
# name 8 = orp: Oxidation Reduction Potential [mV]
# name 9 = par/sat/log: PAR/Logarithmic, Satlantic
# name 10 = turbWETntu0: Turbidity, WET Labs ECO [NTU]
# name 11 = prdM: Pressure, Strain Gauge [db]
# name 12 = prdE: Pressure, Strain Gauge [psi]
# name 13 = tv290C: Temperature [ITS-90, deg C]
# name 14 = density00: Density [density, kg/m^3]
# name 15 = flag:  0.000e+00
# span 0 =     -0.494,      9.732       
# span 1 =     -0.194,      0.201       
# span 2 =    -0.3507,    12.2832       
# span 3 =     -3.106,    141.515       
# span 4 =      1.135,    134.742       
# span 5 =   1.091709,  94.294217       
# span 6 =    -0.3115,     4.4836       
# span 7 =      6.480,      8.715       
# span 8 = -1240.7455,   974.7347       
# span 9 = 1.2356e-01, 1.5481e+03       
# span 10 =    -1.8662,    52.8912      
# span 11 =     -0.485,      9.544      
# span 12 =     -0.703,     13.842      
# span 13 =     9.9138,    25.5019      
# span 14 =   996.9342,   999.7992      
# span 15 = 0.0000e+00, 0.0000e+00      
# interval = seconds: 0.25
# start_time = Jun 27 2019 09:36:25 [Instrument's time stamp, header]
# bad_flag = -9.990e-29
# <Sensors count="9" >
#   <sensor Channel="1" >
#     <!-- Count, Temperature -->
#     <TemperatureSensor SensorID="58" >
#       <SerialNumber>7809</SerialNumber>
#       <CalibrationDate>24-Mar-19</CalibrationDate>
#       <A0>1.21792325e-003</A0>
#       <A1>2.81669265e-004</A1>
#       <A2>-1.60333336e-006</A2>
#       <A3>1.98414625e-007</A3>
#       <Slope>1.00000000</Slope>
#       <Offset>0.0000</Offset>
#     </TemperatureSensor>
#   </sensor>
#   <sensor Channel="2" >
#     <!-- Frequency 0, Conductivity -->
#     <ConductivitySensor SensorID="3" >
#       <SerialNumber>7809</SerialNumber>
#       <CalibrationDate>24-Mar-19</CalibrationDate>
#       <UseG_J>1</UseG_J>
#       <!-- Cell const and series R are applicable only for wide range sensors. -->
#       <SeriesR>0.0000</SeriesR>
#       <CellConst>2000.0000</CellConst>
#       <ConductivityType>0</ConductivityType>
#       <Coefficients equation="0" >
#         <A>0.00000000e+000</A>
#         <B>0.00000000e+000</B>
#         <C>0.00000000e+000</C>
#         <D>0.00000000e+000</D>
#         <M>0.0</M>
#         <CPcor>-9.57000000e-008</CPcor>
#       </Coefficients>
#       <Coefficients equation="1" >
#         <G>-1.00589325e+000</G>
#         <H>1.26816302e-001</H>
#         <I>-1.51560448e-004</I>
#         <J>2.67137274e-005</J>
#         <CPcor>-9.57000000e-008</CPcor>
#         <CTcor>3.2500e-006</CTcor>
#         <!-- WBOTC not applicable unless ConductivityType = 1. -->
#         <WBOTC>0.00000000e+000</WBOTC>
#       </Coefficients>
#       <Slope>1.00000000</Slope>
#       <Offset>0.00000</Offset>
#     </ConductivitySensor>
#   </sensor>
#   <sensor Channel="3" >
#     <!-- Count, Pressure, Strain Gauge -->
#     <PressureSensor SensorID="46" >
#       <SerialNumber>7809</SerialNumber>
#       <CalibrationDate>11-Mar-19</CalibrationDate>
#       <PA0>4.56561833e-002</PA0>
#       <PA1>4.85095118e-004</PA1>
#       <PA2>-2.88327090e-012</PA2>
#       <PTEMPA0>-5.48784562e+001</PTEMPA0>
#       <PTEMPA1>5.53756816e+001</PTEMPA1>
#       <PTEMPA2>-5.86727098e-001</PTEMPA2>
#       <PTCA0>5.25246745e+005</PTCA0>
#       <PTCA1>1.22304214e+001</PTCA1>
#       <PTCA2>-3.56745036e-001</PTCA2>
#       <PTCB0>2.51668750e+001</PTCB0>
#       <PTCB1>3.75000000e-004</PTCB1>
#       <PTCB2>0.00000000e+000</PTCB2>
#       <Offset>0.000000</Offset>
#     </PressureSensor>
#   </sensor>
#   <sensor Channel="4" >
#     <!-- A/D voltage 0, Oxygen, SBE 43 -->
#     <OxygenSensor SensorID="38" >
#       <SerialNumber>0434</SerialNumber>
#       <CalibrationDate>13-Apr-19</CalibrationDate>
#       <Use2007Equation>1</Use2007Equation>
#       <CalibrationCoefficients equation="0" >
#         <!-- Coefficients for Owens-Millard equation. -->
#         <Boc>0.0000</Boc>
#         <Soc>0.0000e+000</Soc>
#         <offset>0.0000</offset>
#         <Pcor>0.00e+000</Pcor>
#         <Tcor>0.0000</Tcor>
#         <Tau>0.0</Tau>
#       </CalibrationCoefficients>
#       <CalibrationCoefficients equation="1" >
#         <!-- Coefficients for Sea-Bird equation - SBE calibration in 2007 and later. -->
#         <Soc>4.2007e-001</Soc>
#         <offset>-0.6109</offset>
#         <A>-4.3656e-003</A>
#         <B> 1.7017e-004</B>
#         <C>-2.5341e-006</C>
#         <D0> 2.5826e+000</D0>
#         <D1> 1.92634e-004</D1>
#         <D2>-4.64803e-002</D2>
#         <E> 3.6000e-002</E>
#         <Tau20> 1.1800</Tau20>
#         <H1>-3.3000e-002</H1>
#         <H2> 5.0000e+003</H2>
#         <H3> 1.4500e+003</H3>
#       </CalibrationCoefficients>
#     </OxygenSensor>
#   </sensor>
#   <sensor Channel="5" >
#     <!-- A/D voltage 1, PAR/Logarithmic, Satlantic -->
#     <PARLog_SatlanticSensor SensorID="76" >
#       <SerialNumber>1122</SerialNumber>
#       <CalibrationDate>08-May-2019</CalibrationDate>
#       <a0>9.7456e-001</a0>
#       <a1>8.1640e-001</a1>
#       <Im>1.3589e+000</Im>
#       <Multiplier>1.0000e+000</Multiplier>
#     </PARLog_SatlanticSensor>
#   </sensor>
#   <sensor Channel="6" >
#     <!-- A/D voltage 2, pH -->
#     <pH_Sensor SensorID="43" >
#       <SerialNumber>0363</SerialNumber>
#       <CalibrationDate>15-Apr-19</CalibrationDate>
#       <Slope>4.5952</Slope>
#       <Offset>2.5370</Offset>
#     </pH_Sensor>
#   </sensor>
#   <sensor Channel="7" >
#     <!-- A/D voltage 3, Oxidation Reduction Potential -->
#     <OxidationReductionPotentialSensor SensorID="41" >
#       <SerialNumber>0363</SerialNumber>
#       <CalibrationDate>15-Apr-19</CalibrationDate>
#       <B>2.499480</B>
#       <M>-0.496195</M>
#       <Offset>0.0</Offset>
#     </OxidationReductionPotentialSensor>
#   </sensor>
#   <sensor Channel="8" >
#     <!-- A/D voltage 4, Fluorometer, WET Labs ECO-AFL/FL -->
#     <FluoroWetlabECO_AFL_FL_Sensor SensorID="20" >
#       <SerialNumber>FLNTURT-2496</SerialNumber>
#       <CalibrationDate>08-May-2019</CalibrationDate>
#       <ScaleFactor>5.00000000e+001</ScaleFactor>
#       <!-- Dark output -->
#       <Vblank>0.0550</Vblank>
#     </FluoroWetlabECO_AFL_FL_Sensor>
#   </sensor>
#   <sensor Channel="9" >
#     <!-- A/D voltage 5, Turbidity Meter, WET Labs, ECO-NTU -->
#     <TurbidityMeter SensorID="67" >
#       <SerialNumber>FLNTURT-2496</SerialNumber>
#       <CalibrationDate>08-May-2019</CalibrationDate>
#       <ScaleFactor>189.000000</ScaleFactor>
#       <!-- Dark output -->
#       <DarkVoltage>0.071000</DarkVoltage>
#     </TurbidityMeter>
#   </sensor>
# </Sensors>
# datcnv_date = Jun 27 2019 13:52:01, 7.26.7.129 [datcnv_vars = 15]
# datcnv_in = C:\DATA\062719_fcr50.hex C:\DATA\SBE19plusV2_7809.xmlcon
# datcnv_skipover = 0
# datcnv_ox_hysteresis_correction = yes
# datcnv_ox_tau_correction = yes
# filter_date = Jun 27 2019 13:52:20, 7.26.7.129
# filter_in = C:\DATA\062719_fcr50.cnv
# filter_low_pass_tc_A = 0.030
# filter_low_pass_tc_B = 0.150
# filter_low_pass_A_vars = prdM prdE tv290C density00
# filter_low_pass_B_vars = depFM dz/dtM sbeox0Mg/L sbeox0PS specc c0uS/cm flECO-AFL ph orp par/sat/log turbWETntu0
# alignctd_date = Jun 27 2019 13:52:37, 7.26.7.129
# alignctd_in = C:\DATA\062719_fcr50.cnv
# alignctd_adv = dz/dtM 1.000, sbeox0Mg/L 1.000, sbeox0PS 1.000, specc 1.000, c0uS/cm 1.000, flECO-AFL 1.000, ph 1.000, orp 1.000, turbWETntu0 1.000                                                                                 
# file_type = ascii
*END*
     -0.494 1.3995e-10     7.8384     91.543      1.135   1.091709    -0.1185      6.630 -1240.7416 1.5456e+02    -0.3021     -0.484     -0.703    23.0872   997.5256 0.0000e+00
     -0.493 1.5395e-09     7.8384     91.545      1.266   1.217386    -0.1234      6.634 -1240.7451 1.5331e+02    -0.3119     -0.484     -0.702    23.0887   997.5251 0.0000e+00
     -0.493 1.6934e-08     7.8382     91.544      1.412   1.357891    -0.1279      6.626 -1240.7455 1.5412e+02    -0.3266     -0.484     -0.702    23.0897   997.5249 0.0000e+00
     -0.493 1.8627e-07     7.8373     91.535      1.452   1.396626    -0.1372      6.620 -1240.7455 1.5627e+02    -0.7091     -0.483     -0.701    23.0910   997.5246 0.0000e+00
     -0.493 1.8627e-07     7.8365     91.526      1.489   1.432277    -0.1578      6.618 -1240.7455 1.5559e+02    -1.4626     -0.483     -0.701    23.0921   997.5243 0.0000e+00
     -0.493 1.6934e-08     7.8365     91.526      1.465   1.408776    -0.1688      6.617 -1240.7455 1.5645e+02    -1.8662     -0.484     -0.702    23.0930   997.5240 0.0000e+00
     -0.493 1.5395e-09     7.8371     91.533      1.420   1.365922    -0.1663      6.617 -1240.7455 1.6002e+02    -1.8528     -0.484     -0.702    23.0941   997.5238 0.0000e+00
     -0.493 1.3995e-10     7.8376     91.540      1.346   1.294311    -0.1189      6.617 -1240.7455 1.6810e+02    -1.3991     -0.485     -0.703    23.0948   997.5237 0.0000e+00
     -0.493 1.2723e-11     7.8379     91.545      1.289   1.239897    -0.0375      6.617 -1240.7455 1.7990e+02    -0.5760     -0.484     -0.702    23.0950   997.5236 0.0000e+00
     -0.493 1.1566e-12     7.8377     91.543      1.329   1.278267    -0.0070      6.618 -1240.7455 1.7854e+02    -0.1264     -0.484     -0.702    23.0950   997.5236 0.0000e+00
     -0.493 1.0515e-13     7.8376     91.543      1.367   1.314711    -0.0190      6.620 -1240.7455 1.9169e+02    -0.0265     -0.483     -0.701    23.0951   997.5236 0.0000e+00
     -0.493 9.5590e-15     7.8385     91.556      1.352   1.300372    -0.0946      6.625 -1240.7455 4.9752e+02     0.1400     -0.483     -0.701    23.0954   997.5235 0.0000e+00
     -0.494 8.6900e-16     7.8390     91.563      1.346   1.294976    -0.2364      6.631 -1240.7455 8.0427e+02     0.3470     -0.484     -0.702    23.0956   997.5235 0.0000e+00
     -0.494 7.9000e-17     7.8384     91.558      1.365   1.312832    -0.3115      6.635 -1240.7455 6.9138e+02     0.4116     -0.484     -0.702    23.0962   997.5233 0.0000e+00
     -0.493 7.1823e-18     7.8378     91.553      1.378   1.326180    -0.3005      6.631 -1240.7455 6.3703e+02     0.3638     -0.484     -0.702    23.0972   997.5231 0.0000e+00
     -0.493 6.5623e-19     7.8372     91.548      1.382   1.329650    -0.2175      6.620 -1240.7455 7.4820e+02    -0.0014     -0.484     -0.702    23.0980   997.5229 0.0000e+00
     -0.493 9.5971e-20     7.8369     91.546      1.408   1.354790    -0.0787      6.606 -1240.7455 9.4346e+02    -0.7273     -0.484     -0.702    23.0992   997.5226 0.0000e+00
     -0.493 4.0817e-19     7.8366     91.545      1.431   1.376698     0.0002      6.602 -1240.7455 1.2498e+03    -1.1371     -0.484     -0.702    23.1007   997.5223 0.0000e+00
     -0.493 4.4310e-18     7.8354     91.532      1.394   1.341091     0.0072      6.606 -1240.7455 1.4408e+03    -1.1550     -0.483     -0.701    23.1020   997.5220 0.0000e+00
     -0.493 4.8736e-17     7.8347     91.526      1.355   1.304436    -0.0021      6.609 -1240.7455 1.4858e+03    -1.1735     -0.484     -0.702    23.1029   997.5218 0.0000e+00
     -0.493 5.3609e-16     7.8352     91.533      1.365   1.313673    -0.0345      6.612 -1240.7455 1.4215e+03    -1.3273     -0.483     -0.701    23.1037   997.5215 0.0000e+00
     -0.493 5.8970e-15     7.8352     91.536      1.378   1.326053    -0.0813      6.616 -1240.7455 1.0545e+03    -1.5407     -0.483     -0.701    23.1047   997.5213 0.0000e+00
     -0.493 6.4867e-14     7.8345     91.531      1.379   1.327394    -0.1082      6.620 -1240.7455 4.6868e+02    -1.6554     -0.484     -0.702    23.1056   997.5211 0.0000e+00
     -0.493 7.1354e-13     7.8342     91.530      1.382   1.329886    -0.1167      6.624 -1240.7455 1.4906e+02    -1.6330     -0.483     -0.701    23.1070   997.5208 0.0000e+00
     -0.493 7.8489e-12     7.8335     91.523      1.409   1.356183    -0.1321      6.629 -1240.7455 9.6678e+01    -0.8766     -0.483     -0.701    23.1082   997.5205 0.0000e+00
     -0.493 8.6338e-11     7.8326     91.514      1.446   1.391906    -0.1641      6.642 -1240.7455 8.1269e+01     0.5426     -0.483     -0.701    23.1095   997.5202 0.0000e+00
     -0.493 9.4972e-10     7.8331     91.523      1.436   1.381641    -0.1922      6.655 -1240.7453 7.9349e+01     1.3026     -0.484     -0.702    23.1109   997.5198 0.0000e+00
     -0.493 1.0447e-08     7.8337     91.533      1.412   1.358794    -0.2025      6.655 -1240.7438 8.1898e+01     1.3977     -0.483     -0.701    23.1120   997.5196 0.0000e+00
     -0.493 1.1492e-07     7.8332     91.528      1.422   1.369105    -0.2023      6.650 -1240.7269 8.7941e+01     1.9549     -0.483     -0.701    23.1136   997.5192 0.0000e+00
     -0.493      0.000     7.8331     91.529      1.433   1.379593    -0.1988      6.648 -1240.5408 9.5542e+01     2.9609     -0.483     -0.701    23.1145   997.5191 0.0000e+00
     -0.493      0.000     7.8343     91.545      1.412   1.358886    -0.1944      6.630 -1238.4941 1.0179e+02     3.4990     -0.483     -0.701    23.1159   997.5186 0.0000e+00
     -0.493      0.000     7.8347     91.552      1.425   1.372182    -0.1750      6.596 -1215.9802 1.0743e+02     3.5452     -0.483     -0.701    23.1164   997.5185 0.0000e+00
     -0.493      0.002     7.8334     91.545      1.862   1.793802     0.0098      6.664  -968.3268 1.4003e+02     3.2573     -0.483     -0.701    23.1187   997.5179 0.0000e+00
     -0.493      0.009     7.8269     91.537      6.557   6.329924     0.3493      6.900  -178.9903 4.7275e+02     2.6734     -0.483     -0.701    23.1179   997.5182 0.0000e+00
     -0.493      0.024     7.7984     91.523     15.688  15.204893     0.5390      7.155   754.3862 1.0890e+03     2.3839     -0.484     -0.702    23.1220   997.5171 0.0000e+00
     -0.492      0.044     7.7412     91.507     24.534  23.966338     0.6044      7.341   974.7347 1.4306e+03     2.7066     -0.483     -0.701    23.1181   997.5184 0.0000e+00
     -0.487      0.068     7.6777     91.490     32.989  32.488575     1.1315      7.551   635.7259 1.2673e+03     6.5752     -0.483     -0.701    23.1276   997.5155 0.0000e+00
     -0.467      0.096     7.6281     91.469     38.546  38.174740     2.0916      7.836   424.4948 1.0735e+03    13.6658     -0.467     -0.677    23.1154   997.5193 0.0000e+00
     -0.427      0.128     7.5935     91.450     39.051  38.842718     2.6165      8.137   396.2183 1.2507e+03    17.5532     -0.419     -0.607    23.2471   997.4916 0.0000e+00
     -0.386      0.158     7.5697     91.451     37.846  37.773061     2.6651      8.385   384.9536 1.1929e+03    18.0191     -0.375     -0.543    23.7274   997.3772 0.0000e+00
     -0.349      0.183     7.5540     91.495     36.890  36.921796     2.6281      8.555   375.0219 8.3771e+02    18.6435     -0.349     -0.506    24.2109   997.2618 0.0000e+00
     -0.300      0.197     7.5460     91.591     36.306  36.421224     2.1691      8.654   367.0788 9.6504e+02    24.8733     -0.301     -0.437    24.5282   997.1847 0.0000e+00
     -0.238      0.201     7.5488     91.763     36.054  36.227362     1.3372      8.701   359.7241 1.3563e+03    36.3192     -0.233     -0.336    24.7549   997.1271 0.0000e+00
     -0.176      0.196     7.5641     92.033     36.144  36.355114     0.8834      8.715   355.0996 1.5184e+03    42.4626     -0.171     -0.247    24.9065   997.0883 0.0000e+00
     -0.121      0.186     7.5880     92.378     36.461  36.696494     0.8351      8.710   352.8083 1.5410e+03    42.0634     -0.115     -0.167    25.0471   997.0523 0.0000e+00
     -0.075      0.169     7.6168     92.764     36.802  37.054439     0.8146      8.691   349.4855 1.5481e+03    31.7550     -0.068     -0.099    25.1661   997.0218 0.0000e+00
     -0.040      0.150     7.6477     93.161     36.930  37.192015     0.7920      8.666   345.2960 1.5431e+03    12.7667     -0.036     -0.054    25.2465   997.0011 0.0000e+00
     -0.011      0.135     7.6793     93.557     36.887  37.153942     0.7780      8.631   342.0755 1.5391e+03     2.4257     -0.012     -0.019    25.2906   996.9898 0.0000e+00
      0.019      0.124     7.7110     93.946     36.834  37.101898     0.7753      8.582   339.1975 1.5389e+03     1.5327      0.018      0.026    25.3202   996.9824 0.0000e+00
      0.051      0.111     7.7405     94.299     36.679  36.943597     0.7766      8.538   335.9667 1.5096e+03     1.4447      0.050      0.074    25.3397   996.9776 0.0000e+00
      0.082      0.092     7.7653     94.592     36.314  36.572871     0.7673      8.518   332.7811 1.2571e+03     1.3941      0.078      0.115    25.3508   996.9749 0.0000e+00
      0.112      0.064     7.7821     94.787     35.859  36.110451     0.7588      8.509   330.1919 7.6956e+02     1.3801      0.112      0.162    25.3596   996.9727 0.0000e+00
      0.136      0.029     7.7928     94.905     35.552  35.795492     0.7612      8.495   328.5808 4.4696e+02     1.3740      0.142      0.206    25.3597   996.9728 0.0000e+00
      0.141     -0.006     7.8119     95.123     35.448  35.684353     0.7615      8.479   326.8957 5.3236e+02     1.3523      0.148      0.214    25.3548   996.9741 0.0000e+00
      0.124     -0.036     7.8436     95.504     35.420  35.655254     0.7617      8.462   324.7875 6.9601e+02     1.3470      0.125      0.181    25.3492   996.9753 0.0000e+00
      0.095     -0.055     7.8647     95.772     35.395  35.634069     0.7632      8.446   322.7935 5.7331e+02     1.3761      0.091      0.132    25.3450   996.9761 0.0000e+00
      0.068     -0.061     7.8529     95.649     35.371  35.618615     0.7632      8.431   320.5107 5.6143e+02     1.4095      0.063      0.091    25.3370   996.9780 0.0000e+00
      0.049     -0.054     7.8023     95.052     35.341  35.595342     0.7439      8.421   318.5240 8.8400e+02     1.4220      0.044      0.065    25.3249   996.9810 0.0000e+00
      0.039     -0.039     7.7116     93.964     35.282  35.543092     0.7037      8.411   316.5835 1.1419e+03     1.3963      0.036      0.051    25.3222   996.9816 0.0000e+00
      0.036     -0.023     7.5850     92.436     35.228  35.494627     0.6847      8.397   313.9111 1.2089e+03     1.3614      0.035      0.051    25.3297   996.9797 0.0000e+00
      0.036     -0.011     7.4375     90.649     35.183  35.453655     0.6965      8.383   312.1104 1.2077e+03     1.3607      0.035      0.050    25.3435   996.9761 0.0000e+00
      0.036     -0.004     7.2842     88.789     35.154  35.428516     0.7078      8.372   311.8475 1.2020e+03     1.3542      0.033      0.048    25.3548   996.9731 0.0000e+00
      0.037     -0.001     7.1374     87.004     35.168  35.444561     0.7080      8.362   311.8510 1.2020e+03     1.3484      0.038      0.054    25.3647   996.9706 0.0000e+00
      0.037     -0.000     7.0155     85.519     35.243  35.520708     0.7070      8.357   311.1203 1.2060e+03     1.3887      0.038      0.055    25.3741   996.9681 0.0000e+00
      0.035      0.002     6.9346     84.532     35.373  35.651050     0.7136      8.352   309.5523 1.2108e+03     1.4153      0.033      0.048    25.3786   996.9669 0.0000e+00
      0.034      0.006     6.8959     84.053     35.475  35.751144     0.7271      8.345   307.4323 1.2158e+03     1.3762      0.034      0.048    25.3850   996.9652 0.0000e+00
      0.034      0.011     6.8877     83.944     35.633  35.905826     0.7314      8.340   305.7067 1.2149e+03     1.3089      0.033      0.049    25.3893   996.9641 0.0000e+00
      0.037      0.020     6.8947     84.021     35.917  36.188419     0.7222      8.337   304.9488 1.2104e+03     1.2904      0.034      0.048    25.3882   996.9644 0.0000e+00
      0.043      0.031     6.9022     84.110     36.105  36.375249     0.7107      8.329   304.8082 1.2137e+03     1.3155      0.043      0.062    25.3877   996.9646 0.0000e+00
      0.052      0.042     6.9046     84.136     36.181  36.451067     0.7052      8.312   304.6091 1.2049e+03     1.3179      0.050      0.074    25.3848   996.9654 0.0000e+00
      0.063      0.048     6.8998     84.080     36.324  36.597355     0.7086      8.284   303.8320 1.0875e+03     1.3859      0.057      0.084    25.3742   996.9682 0.0000e+00
      0.082      0.049     6.8805     83.854     36.532  36.811098     0.7171      8.252   303.1556 7.5885e+02     1.5474      0.079      0.114    25.3709   996.9693 0.0000e+00
      0.102      0.045     6.8451     83.434     36.782  37.067782     0.7215      8.229   302.6264 4.2677e+02     1.6316      0.104      0.150    25.3704   996.9696 0.0000e+00
      0.115      0.038     6.7996     82.888     37.061  37.352400     0.7094      8.218   301.8213 4.7763e+02     1.6168      0.116      0.168    25.3648   996.9711 0.0000e+00
      0.121      0.029     6.7496     82.283     37.291  37.586491     0.6917      8.214   301.1643 8.5573e+02     1.5325      0.120      0.173    25.3675   996.9705 0.0000e+00
      0.123      0.019     6.6984     81.655     37.444  37.740025     0.6808      8.211   300.2753 1.1141e+03     1.4318      0.122      0.175    25.3757   996.9685 0.0000e+00
      0.124      0.010     6.6495     81.053     37.582  37.875784     0.6731      8.209   298.6433 1.0609e+03     1.3825      0.121      0.176    25.3833   996.9665 0.0000e+00
      0.126      0.005     6.6067     80.532     37.727  38.021888     0.6678      8.211   297.0921 9.6012e+02     1.3297      0.123      0.178    25.3888   996.9652 0.0000e+00
      0.128      0.005     6.5710     80.102     37.812  38.110073     0.6775      8.212   296.4046 9.7202e+02     1.3176      0.127      0.185    25.3926   996.9644 0.0000e+00
      0.128      0.008     6.5468     79.809     37.817  38.116834     0.7043      8.209   296.1816 1.0062e+03     1.3669      0.128      0.184    25.3902   996.9650 0.0000e+00
      0.126      0.010     6.5395     79.719     37.805  38.103643     0.7225      8.205   295.9437 1.0328e+03     1.4017      0.121      0.176    25.3822   996.9671 0.0000e+00
      0.128      0.011     6.5488     79.832     37.842  38.141011     0.7243      8.204   295.5075 1.2107e+03     1.4106      0.121      0.176    25.3827   996.9671 0.0000e+00
      0.136      0.012     6.5735     80.138     37.949  38.251257     0.7177      8.203   294.6071 1.3287e+03     1.4099      0.134      0.194    25.3898   996.9653 0.0000e+00
      0.144      0.014     6.6138     80.633     37.989  38.294033     0.7295      8.197   293.5751 1.1687e+03     1.4258      0.145      0.210    25.3926   996.9646 0.0000e+00
      0.146      0.012     6.6628     81.227     37.848  38.150398     0.7622      8.192   292.6656 1.1482e+03     1.4387      0.144      0.209    25.3882   996.9657 0.0000e+00
      0.145      0.002     6.7073     81.764     37.677  37.974550     0.7753      8.194   291.7848 1.1571e+03     1.4344      0.140      0.204    25.3864   996.9662 0.0000e+00
      0.149     -0.017     6.7361     82.115     37.711  38.008685     0.7661      8.196   291.0994 1.0505e+03     1.4395      0.144      0.210    25.3919   996.9648 0.0000e+00
      0.153     -0.035     6.7427     82.199     37.881  38.182265     0.7645      8.194   290.5728 1.0246e+03     1.4351      0.154      0.224    25.3975   996.9634 0.0000e+00
      0.147     -0.042     6.7310     82.054     37.869  38.168991     0.7735      8.183   290.1501 1.0646e+03     1.4144      0.152      0.220    25.3938   996.9643 0.0000e+00
      0.122     -0.036     6.7129     81.826     37.554  37.848191     0.7793      8.161   289.7743 1.1661e+03     1.3854      0.126      0.183    25.3859   996.9661 0.0000e+00
      0.087     -0.023     6.7014     81.680     37.189  37.477292     0.7822      8.136   289.3845 1.0877e+03     1.3789      0.081      0.117    25.3882   996.9654 0.0000e+00
      0.067     -0.007     6.7061     81.718     37.089  37.366059     0.7650      8.121   288.9645 9.6249e+02     1.4346      0.049      0.070    25.3928   996.9641 0.0000e+00
      0.083      0.010     6.7259     81.909     37.202  37.455400     0.7279      8.112   288.4816 9.8734e+02     1.5349      0.073      0.106    25.3923   996.9644 0.0000e+00
      0.117      0.024     6.7525     82.179     37.314  37.541878     0.7144      8.102   288.1058 9.2913e+02     1.6077      0.122      0.177    25.3835   996.9668 0.0000e+00
      0.137      0.028     6.7770     82.449     37.373  37.586443     0.7232      8.096   287.6047 1.0750e+03     1.6262      0.142      0.205    25.3827   996.9669 0.0000e+00
      0.140      0.015     6.7939     82.654     37.400  37.613366     0.7401      8.095   286.8962 1.4138e+03     1.6286      0.138      0.200    25.3793   996.9677 0.0000e+00
      0.136     -0.011     6.8007     82.755     37.392  37.613504     0.7709      8.095   286.3367 1.3709e+03     1.6360      0.134      0.194    25.3361   996.9790 0.0000e+00
      0.129     -0.038     6.7921     82.674     37.354  37.588126     0.7915      8.090   285.8310 1.1611e+03     1.6505      0.129      0.187    25.2903   996.9909 0.0000e+00
      0.114     -0.055     6.7678     82.400     37.315  37.560438     0.7907      8.078   285.1693 1.1859e+03     1.6404      0.117      0.169    25.2740   996.9951 0.0000e+00
      0.092     -0.063     6.7318     81.982     37.278  37.532653     0.7958      8.064   284.3583 1.2503e+03     1.5789      0.090      0.131    25.2749   996.9947 0.0000e+00
      0.070     -0.063     6.6866     81.449     37.243  37.506089     0.8178      8.050   283.7689 1.2439e+03     1.5289      0.066      0.095    25.2891   996.9909 0.0000e+00
      0.050     -0.057     6.6340     80.820     37.224  37.493173     0.8317      8.035   283.5494 1.2416e+03     1.5601      0.049      0.071    25.3079   996.9860 0.0000e+00
      0.035     -0.047     6.5746     80.105     37.230  37.503441     0.8331      8.023   283.5982 1.2252e+03     1.5957      0.033      0.047    25.3222   996.9821 0.0000e+00
      0.025     -0.036     6.5109     79.329     37.230  37.503301     0.8346      8.016   283.7562 1.2145e+03     1.5992      0.022      0.030    25.3360   996.9785 0.0000e+00
      0.021     -0.026     6.4476     78.539     37.228  37.491474     0.8328      8.012   283.4806 1.2247e+03     1.6035      0.019      0.028    25.3487   996.9752 0.0000e+00
      0.021     -0.018     6.3866     77.764     37.241  37.487389     0.8287      8.007   282.7610 1.2183e+03     1.5814      0.022      0.032    25.3565   996.9732 0.0000e+00
      0.018     -0.013     6.3262     77.001     37.222  37.453879     0.8286      8.003   282.1963 1.1615e+03     1.5617      0.018      0.025    25.3624   996.9717 0.0000e+00
      0.013     -0.008     6.2655     76.251     37.178  37.403654     0.8320      7.999   282.2463 9.1324e+02     1.5618      0.012      0.017    25.3668   996.9705 0.0000e+00
      0.009     -0.004     6.2084     75.554     37.163  37.387916     0.8347      7.989   282.9352 7.1547e+02     1.5166      0.009      0.012    25.3534   996.9739 0.0000e+00
      0.006     -0.002     6.1606     74.970     37.167  37.390537     0.8349      7.977   283.5572 9.3590e+02     1.4408      0.004      0.006    25.3223   996.9820 0.0000e+00
      0.008     -0.001     6.1241     74.524     37.149  37.371872     0.8354      7.967   283.4859 1.1933e+03     1.3993      0.006      0.008    25.2998   996.9879 0.0000e+00
      0.014      0.000     6.0955     74.173     37.132  37.352657     0.8404      7.961   283.0186 1.2428e+03     1.3761      0.015      0.022    25.2961   996.9888 0.0000e+00
      0.017      0.002     6.0723     73.883     37.133  37.348631     0.8599      7.955   282.3817 1.2521e+03     1.3899      0.020      0.029    25.2974   996.9886 0.0000e+00
      0.013      0.005     6.0539     73.648     37.113  37.323191     0.8899      7.945   282.1520 1.2549e+03     1.4344      0.013      0.019    25.2948   996.9891 0.0000e+00
      0.008      0.009     6.0397     73.467     37.093  37.298941     0.8996      7.933   282.7368 1.2512e+03     1.4219      0.005      0.006    25.2949   996.9890 0.0000e+00
      0.009      0.014     6.0292     73.335     37.106  37.309318     0.8910      7.918   283.2564 1.2407e+03     1.3702      0.008      0.011    25.2914   996.9900 0.0000e+00
      0.014      0.023     6.0192     73.214     37.118  37.321707     0.8891      7.900   283.2732 1.1407e+03     1.4321      0.014      0.019    25.2852   996.9916 0.0000e+00
      0.022      0.031     6.0069     73.064     37.118  37.321791     0.8939      7.880   283.0258 8.8196e+02     1.5808      0.021      0.030    25.2783   996.9934 0.0000e+00
      0.035      0.036     5.9896     72.845     37.112  37.310334     0.8974      7.861   282.4161 5.6030e+02     1.6287      0.035      0.050    25.2692   996.9958 0.0000e+00
      0.049      0.036     5.9675     72.555     37.123  37.310126     0.8968      7.846   281.7526 3.5254e+02     1.5845      0.048      0.069    25.2671   996.9965 0.0000e+00
      0.060      0.033     5.9412     72.213     37.144  37.319259     0.8953      7.831   281.6279 3.7302e+02     1.5371      0.059      0.087    25.2689   996.9960 0.0000e+00
      0.067      0.027     5.9088     71.804     37.128  37.293784     0.8973      7.820   281.6829 5.8467e+02     1.5472      0.067      0.099    25.2709   996.9955 0.0000e+00
      0.072      0.021     5.8717     71.343     37.096  37.255995     0.9030      7.819   281.5578 8.7228e+02     1.6087      0.070      0.102    25.2665   996.9968 0.0000e+00
      0.076      0.017     5.8317     70.851     37.087  37.243195     0.9115      7.822   281.2331 1.0911e+03     1.6247      0.074      0.108    25.2467   997.0018 0.0000e+00
      0.078      0.018     5.7907     70.347     37.112  37.265962     0.9402      7.820   280.5105 1.1821e+03     1.5450      0.077      0.112    25.2265   997.0071 0.0000e+00
      0.078      0.023     5.7524     69.881     37.125  37.277369     0.9892      7.807   279.7895 1.2087e+03     1.4311      0.075      0.109    25.2169   997.0096 0.0000e+00
      0.081      0.029     5.7216     69.515     37.097  37.254171     1.0182      7.788   279.6572 1.1927e+03     1.3946      0.074      0.108    25.2093   997.0115 0.0000e+00
      0.091      0.033     5.6986     69.248     37.075  37.239374     1.0232      7.768   279.7712 1.0612e+03     1.3989      0.086      0.125    25.2043   997.0129 0.0000e+00
      0.107      0.035     5.6809     69.042     37.055  37.225416     1.0224      7.750   279.8776 8.0721e+02     1.3520      0.105      0.152    25.2013   997.0138 0.0000e+00
      0.122      0.034     5.6667     68.874     37.039  37.212368     1.0177      7.728   280.0841 5.7865e+02     1.3192      0.122      0.177    25.1967   997.0149 0.0000e+00
      0.131      0.029     5.6517     68.701     37.030  37.208560     1.0098      7.704   279.6001 5.3450e+02     1.3623      0.130      0.189    25.2037   997.0131 0.0000e+00
      0.135      0.020     5.6370     68.542     36.990  37.179380     1.0058      7.692   278.4998 6.2655e+02     1.3820      0.131      0.190    25.2191   997.0092 0.0000e+00
      0.137      0.011     5.6288     68.467     36.910  37.113469     1.0115      7.692   277.9649 6.1814e+02     1.3279      0.135      0.196    25.2257   997.0076 0.0000e+00
      0.138      0.006     5.6288     68.487     36.831  37.046398     1.0178      7.697   278.0364 6.0997e+02     1.3637      0.135      0.197    25.2260   997.0075 0.0000e+00
      0.137      0.003     5.6370     68.600     36.781  37.003188     1.0223      7.705   278.1604 7.5019e+02     1.5206      0.133      0.194    25.2309   997.0062 0.0000e+00
      0.136      0.003     5.6503     68.770     36.746  36.971873     1.0222      7.711   277.9159 8.1250e+02     1.6191      0.133      0.193    25.2486   997.0016 0.0000e+00
      0.137      0.003     5.6633     68.936     36.691  36.921673     1.0170      7.716   277.4889 6.7900e+02     1.6359      0.133      0.193    25.2725   996.9954 0.0000e+00
      0.139      0.004     5.6767     69.108     36.605  36.840543     1.0203      7.717   277.3849 4.7171e+02     1.6264      0.136      0.198    25.2879   996.9914 0.0000e+00
      0.141      0.004     5.6946     69.338     36.511  36.752608     1.0276      7.715   277.4329 6.3503e+02     1.6023      0.139      0.202    25.2972   996.9890 0.0000e+00
      0.142      0.004     5.7207     69.666     36.436  36.683616     1.0273      7.711   277.4672 9.2462e+02     1.6065      0.140      0.203    25.3031   996.9874 0.0000e+00
      0.142      0.003     5.7543     70.081     36.390  36.641096     1.0243      7.706   277.5421 6.4227e+02     1.6114      0.140      0.203    25.3070   996.9865 0.0000e+00
      0.143      0.001     5.7933     70.561     36.366  36.619342     1.0084      7.701   277.5634 2.6706e+02     1.5306      0.140      0.204    25.3151   996.9843 0.0000e+00
      0.143      0.000     5.8383     71.109     36.358  36.611012     0.9745      7.696   277.6391 1.9960e+02     1.4166      0.140      0.204    25.3253   996.9816 0.0000e+00
      0.143 2.2181e-08     5.8846     71.669     36.353  36.603847     0.9523      7.692   277.8548 1.9727e+02     1.3471      0.140      0.203    25.3343   996.9792 0.0000e+00
      0.143 2.4399e-07     5.9262     72.170     36.349  36.596191     0.9479      7.688   278.0208 1.9792e+02     1.3124      0.140      0.203    25.3397   996.9778 0.0000e+00
      0.143 2.4399e-07     5.9602     72.575     36.339  36.581906     0.9125      7.684   278.0972 1.9330e+02     1.3252      0.140      0.203    25.3423   996.9772 0.0000e+00
      0.143 2.2181e-08     5.9814     72.825     36.320  36.558063     0.8364      7.680   278.1765 2.0819e+02     1.3381      0.141      0.204    25.3433   996.9769 0.0000e+00
      0.143 2.0165e-09     5.9887     72.906     36.329  36.561784     0.7824      7.675   278.0334 2.3257e+02     1.3042      0.140      0.203    25.3403   996.9776 0.0000e+00
      0.143 1.8331e-10     5.9859     72.864     36.334  36.563424     0.7709      7.670   277.7434 2.1504e+02     1.3077      0.140      0.203    25.3348   996.9791 0.0000e+00
      0.143 1.6665e-11     5.9754     72.731     36.288  36.514412     0.7756      7.665   277.7678 1.9008e+02     1.3486      0.140      0.203    25.3281   996.9809 0.0000e+00
      0.143 1.5150e-12     5.9588     72.524     36.253  36.476949     0.7790      7.660   278.0702 1.9418e+02     1.3403      0.141      0.204    25.3212   996.9826 0.0000e+00
      0.143 1.3773e-13     5.9398     72.290     36.269  36.491293     0.7767      7.655   278.4737 2.0534e+02     1.3052      0.140      0.203    25.3149   996.9842 0.0000e+00
      0.143 1.2521e-14     5.9215     72.065     36.277  36.497432     0.7747      7.650   278.0872 2.4474e+02     1.2851      0.141      0.204    25.3099   996.9856 0.0000e+00
      0.143 1.1383e-15     5.9040     71.852     36.268  36.487696     0.7715      7.643   276.8377 3.1014e+02     1.2941      0.140      0.203    25.3057   996.9866 0.0000e+00
      0.143 1.0354e-16     5.8872     71.647     36.280  36.500521     0.7545      7.637   276.1865 3.1020e+02     1.3155      0.141      0.204    25.3022   996.9875 0.0000e+00
      0.143 1.0094e-17     5.8714     71.456     36.304  36.525558     0.7348      7.630   276.1497 2.5215e+02     1.3137      0.140      0.203    25.2998   996.9882 0.0000e+00
      0.143 8.4101e-18     5.8574     71.288     36.314  36.536525     0.7236      7.624   276.2214 2.1875e+02     1.3053      0.141      0.204    25.2979   996.9886 0.0000e+00
      0.143 8.3182e-17     5.8447     71.134     36.284  36.506189     0.7148      7.618   276.3650 2.2075e+02     1.3126      0.140      0.203    25.2971   996.9888 0.0000e+00
      0.143 9.1415e-16     5.8315     70.971     36.255  36.476127     0.7162      7.614   276.0795 2.1087e+02     1.3359      0.141      0.204    25.2977   996.9887 0.0000e+00
      0.143 1.0056e-14     5.8167     70.789     36.271  36.490407     0.7224      7.609   275.4369 1.9256e+02     1.3574      0.141      0.204    25.2991   996.9883 0.0000e+00
      0.143 1.1061e-13     5.7999     70.579     36.271  36.488420     0.7208      7.605   275.1343 2.5596e+02     1.3436      0.141      0.204    25.3009   996.9879 0.0000e+00
      0.143 1.2167e-12     5.7820     70.358     36.237  36.452095     0.7136      7.601   275.3459 3.5445e+02     1.3333      0.141      0.204    25.3012   996.9878 0.0000e+00
      0.143 1.3384e-11     5.7629     70.121     36.219  36.432041     0.7218      7.597   275.6720 4.0536e+02     1.3639      0.141      0.204    25.3000   996.9881 0.0000e+00
      0.143 1.4722e-10     5.7407     69.846     36.226  36.436357     0.7504      7.592   275.8936 5.5580e+02     1.3854      0.141      0.204    25.2977   996.9887 0.0000e+00
      0.143 1.6195e-09     5.7158     69.539     36.233  36.440804     0.7739      7.587   276.0469 7.8769e+02     1.3972      0.141      0.204    25.2945   996.9895 0.0000e+00
      0.143 1.7814e-08     5.6884     69.200     36.217  36.422324     0.7794      7.583   275.9760 8.6807e+02     1.4080      0.141      0.204    25.2913   996.9903 0.0000e+00
      0.143 1.9595e-07     5.6614     68.867     36.201  36.403338     0.7734      7.580   275.8115 9.0513e+02     1.3848      0.140      0.203    25.2878   996.9913 0.0000e+00
      0.143 3.5925e-07     5.6386     68.586     36.202  36.401655     0.7709      7.577   275.7784 9.9850e+02     1.3458      0.141      0.204    25.2842   996.9922 0.0000e+00
      0.143 1.9595e-07     5.6164     68.311     36.205  36.401965     0.7763      7.574   275.8339 9.6462e+02     1.3296      0.141      0.204    25.2806   996.9931 0.0000e+00
      0.143 1.7814e-08     5.5926     68.017     36.213  36.407092     0.7778      7.573   276.2242 9.0803e+02     1.3529      0.140      0.203    25.2767   996.9941 0.0000e+00
      0.143 1.6195e-09     5.5690     67.726     36.208  36.400167     0.7800      7.572   276.7114 9.4283e+02     1.3988      0.141      0.204    25.2732   996.9950 0.0000e+00
      0.144 1.4722e-10     5.5474     67.460     36.192  36.381704     0.8119      7.570   276.5625 9.9464e+02     1.4262      0.141      0.204    25.2697   996.9959 0.0000e+00
      0.144 1.3384e-11     5.5275     67.214     36.187  36.374272     0.8687      7.568   276.2314 1.0843e+03     1.4216      0.141      0.204    25.2661   996.9968 0.0000e+00
      0.143 1.2167e-12     5.5065     66.954     36.188  36.373770     0.9036      7.565   276.1487 1.0941e+03     1.4086      0.141      0.204    25.2627   996.9978 0.0000e+00
      0.143 1.1061e-13     5.4847     66.687     36.193  36.375631     0.9031      7.562   275.9076 1.0698e+03     1.3997      0.141      0.204    25.2595   996.9986 0.0000e+00
      0.144 1.0056e-14     5.4637     66.427     36.216  36.396762     0.8803      7.560   275.9827 1.1455e+03     1.4462      0.141      0.205    25.2560   996.9995 0.0000e+00
      0.144 9.1415e-16     5.4447     66.192     36.260  36.438849     0.8546      7.558   276.5402 1.1372e+03     1.5447      0.141      0.204    25.2528   997.0003 0.0000e+00
      0.144 8.3105e-17     5.4340     66.064     36.197  36.376731     0.8433      7.555   276.7981 1.0620e+03     1.6067      0.141      0.205    25.2495   997.0011 0.0000e+00
      0.144 7.5550e-18     5.4545     66.339     35.960  36.153458     0.8389      7.552   276.6920 9.7546e+02     1.6056      0.141      0.204    25.2464   997.0019 0.0000e+00
      0.144 6.8680e-19     5.5563     67.636     35.736  35.960779     0.8189      7.550   276.5481 7.9968e+02     1.5639      0.141      0.204    25.2431   997.0027 0.0000e+00
      0.144 6.2435e-20     5.7853     70.491     35.627  35.887761     0.7832      7.547   276.6067 6.9920e+02     1.5615      0.141      0.205    25.2407   997.0034 0.0000e+00
      0.144 5.6760e-21     6.1318     74.765     35.553  35.841895     0.7631      7.545   276.7982 7.3252e+02     1.6091      0.141      0.205    25.2356   997.0048 0.0000e+00
      0.144 5.1600e-22     6.5344     79.710     35.481  35.787082     0.7664      7.542   276.8849 7.0504e+02     1.6159      0.141      0.205    25.2508   997.0008 0.0000e+00
      0.144 4.6910e-23     6.9375     84.650     35.417  35.732803     0.7886      7.538   276.8803 5.3930e+02     1.5776      0.141      0.204    25.3075   996.9860 0.0000e+00
      0.144 4.2645e-24     7.3070     89.170     35.372  35.693374     0.8234      7.535   276.7423 5.1791e+02     1.5730      0.141      0.204    25.3669   996.9706 0.0000e+00
      0.144 3.8768e-25     7.6132     92.913     35.367  35.691178     0.8401      7.533   276.5074 7.5857e+02     1.5924      0.141      0.204    25.4057   996.9605 0.0000e+00
      0.144 3.5244e-26     7.8377     95.658     35.381  35.706254     0.8344      7.531   276.1910 9.0509e+02     1.5832      0.141      0.204    25.4292   996.9542 0.0000e+00
      0.144 3.2040e-27     7.9745     97.329     35.359  35.685251     0.8329      7.529   275.8424 8.9959e+02     1.5270      0.141      0.204    25.4415   996.9511 0.0000e+00
      0.144 2.9127e-28     8.0286     97.991     35.301  35.627646     0.8306      7.529   275.6479 9.3035e+02     1.4368      0.141      0.205    25.4488   996.9492 0.0000e+00
      0.144 2.6479e-29     8.0249     97.947     35.254  35.580984     0.8240      7.528   275.5607 9.7414e+02     1.3781      0.141      0.205    25.4523   996.9482 0.0000e+00
      0.144 2.4072e-30     7.9931     97.559     35.239  35.565341     0.8309      7.527   275.5618 1.0010e+03     1.3733      0.141      0.205    25.4544   996.9476 0.0000e+00
      0.144 2.1884e-31     7.9521     97.058     35.239  35.565439     0.8449      7.526   275.6613 9.9974e+02     1.3794      0.141      0.204    25.4555   996.9474 0.0000e+00
      0.144 1.9895e-32     7.9131     96.578     35.257  35.582178     0.8539      7.526   275.4726 9.6722e+02     1.3864      0.141      0.205    25.4565   996.9471 0.0000e+00
      0.144 1.8086e-33     7.8792     96.162     35.254  35.577323     0.8541      7.525   275.0020 1.0059e+03     1.3927      0.142      0.206    25.4573   996.9469 0.0000e+00
      0.144 1.6442e-34     7.8490     95.793     35.184  35.506730     0.8467      7.524   274.7886 1.1039e+03     1.3576      0.141      0.205    25.4573   996.9470 0.0000e+00
      0.144 1.4947e-35     7.8221     95.465     35.105  35.426799     0.8422      7.524   274.9580 1.0920e+03     1.3217      0.141      0.205    25.4567   996.9470 0.0000e+00
      0.144 1.3590e-36     7.7985     95.177     35.051  35.372505     0.8429      7.524   275.0706 1.0314e+03     1.3188      0.141      0.205    25.4547   996.9476 0.0000e+00
      0.144 1.2565e-37     7.7788     94.937     35.037  35.358006     0.8467      7.524   274.7742 1.0287e+03     1.3223      0.141      0.205    25.4526   996.9482 0.0000e+00
      0.144 3.4521e-38     7.7644     94.759     35.058  35.378433     0.8455      7.524   274.4717 1.0468e+03     1.3319      0.141      0.205    25.4520   996.9483 0.0000e+00
      0.144 2.5723e-37     7.7549     94.641     35.045  35.365610     0.8361      7.523   274.5104 1.0510e+03     1.3364      0.141      0.205    25.4524   996.9481 0.0000e+00
      0.144 2.8184e-36     7.7495     94.573     35.010  35.329909     0.8201      7.522   274.6403 1.0069e+03     1.3441      0.141      0.205    25.4531   996.9479 0.0000e+00
      0.144 3.1001e-35     7.7491     94.566     35.009  35.327577     0.7908      7.522   274.7513 9.9594e+02     1.3598      0.141      0.205    25.4529   996.9480 0.0000e+00
      0.144 3.4101e-34     7.7556     94.644     35.020  35.337419     0.7674      7.520   274.8189 1.0633e+03     1.3620      0.142      0.205    25.4517   996.9483 0.0000e+00
      0.144 3.7511e-33     7.7677     94.790     35.005  35.321971     0.7723      7.518   274.5975 1.0475e+03     1.3375      0.142      0.206    25.4504   996.9486 0.0000e+00
      0.144 4.1262e-32     7.7823     94.969     34.951  35.267726     0.7890      7.516   274.2255 9.3299e+02     1.3595      0.141      0.205    25.4496   996.9488 0.0000e+00
      0.144 4.5388e-31     7.8005     95.191     34.873  35.189284     0.7960      7.513   274.1080 8.7041e+02     1.4638      0.142      0.204    25.4485   996.9492 0.0000e+00
      0.144 4.9927e-30     7.8255     95.495     34.820  35.135153     0.7871      7.510   274.1230 8.5074e+02     1.5501      0.142      0.205    25.4471   996.9495 0.0000e+00
      0.144 5.4920e-29     7.8599     95.911     34.807  35.120983     0.7768      7.507   274.0625 8.5654e+02     1.5835      0.141      0.205    25.4463   996.9497 0.0000e+00
      0.144 6.0412e-28     7.9035     96.437     34.833  35.144883     0.8104      7.505   273.9780 8.9799e+02     1.5396      0.142      0.205    25.4463   996.9497 0.0000e+00
      0.144 6.6453e-27     7.9570     97.084     34.861  35.170250     0.8728      7.502   273.9630 9.9663e+02     1.4452      0.141      0.205    25.4471   996.9495 0.0000e+00
      0.144 7.3098e-26     8.0202     97.851     34.866  35.173823     0.8986      7.499   274.0523 1.0888e+03     1.3928      0.142      0.205    25.4471   996.9495 0.0000e+00
      0.144 8.0408e-25     8.0842     98.627     34.882  35.188078     0.8966      7.496   274.0250 1.1005e+03     1.3653      0.141      0.205    25.4448   996.9500 0.0000e+00
      0.144 8.8449e-24     8.1412     99.319     34.911  35.215668     0.8924      7.493   273.8052 1.1641e+03     1.3416      0.141      0.205    25.4408   996.9510 0.0000e+00
      0.144 9.7294e-23     8.1886     99.894     34.950  35.253541     0.8644      7.490   273.7183 1.2046e+03     1.3361      0.142      0.205    25.4378   996.9519 0.0000e+00
      0.144 1.0702e-21     8.2272    100.363     34.961  35.265185     0.8181      7.487   273.9207 1.2002e+03     1.3315      0.142      0.206    25.4352   996.9526 0.0000e+00
      0.144 1.1773e-20     8.2586    100.747     34.926  35.229515     0.7924      7.483   274.1862 1.2435e+03     1.3509      0.141      0.205    25.4325   996.9532 0.0000e+00
      0.144 1.2950e-19     8.2787    100.993     34.899  35.203080     0.7876      7.478   274.2612 1.1610e+03     1.3741      0.141      0.204    25.4303   996.9538 0.0000e+00
      0.144 1.4245e-18     8.2875    101.101     34.896  35.199429     0.7947      7.474   274.1393 9.9858e+02     1.4152      0.142      0.205    25.4282   996.9544 0.0000e+00
      0.144 1.5669e-17     8.2908    101.140     34.882  35.185363     0.8182      7.471   273.9177 8.0473e+02     1.5529      0.142      0.206    25.4278   996.9545 0.0000e+00
      0.144 1.7236e-16     8.2941    101.178     34.858  35.159946     0.8377      7.466   273.8189 5.4982e+02     1.6304      0.141      0.205    25.4287   996.9543 0.0000e+00
      0.144 1.8960e-15     8.3006    101.257     34.844  35.145982     0.8397      7.462   274.1485 3.8519e+02     1.5981      0.141      0.205    25.4295   996.9541 0.0000e+00
      0.144 2.0856e-14     8.3079    101.347     34.841  35.143463     0.8239      7.459   274.5475 3.0309e+02     1.5230      0.141      0.205    25.4296   996.9540 0.0000e+00
      0.145 2.2941e-13     8.3120    101.398     34.826  35.129486     0.7947      7.456   274.5992 2.7390e+02     1.4098      0.142      0.206    25.4283   996.9544 0.0000e+00
      0.145 2.5236e-12     8.3145    101.430     34.801  35.103923     0.7815      7.453   274.5162 3.5780e+02     1.3772      0.142      0.206    25.4268   996.9548 0.0000e+00
      0.144 2.7759e-11     8.3194    101.490     34.785  35.088253     0.7862      7.449   274.3178 4.7156e+02     1.4242      0.141      0.205    25.4267   996.9548 0.0000e+00
      0.144 3.0535e-10     8.3270    101.582     34.765  35.066951     0.7815      7.444   274.0929 5.5914e+02     1.4866      0.142      0.205    25.4278   996.9544 0.0000e+00
      0.144 3.3589e-09     8.3367    101.698     34.735  35.036767     0.7765      7.440   274.2074 7.3055e+02     1.5413      0.142      0.205    25.4292   996.9541 0.0000e+00
      0.144 3.6947e-08     8.3473    101.827     34.739  35.040638     0.7774      7.438   274.4970 9.2868e+02     1.5610      0.141      0.205    25.4299   996.9539 0.0000e+00
      0.144 4.0642e-07     8.3568    101.942     34.749  35.050289     0.7751      7.435   274.5840 1.0252e+03     1.5615      0.141      0.205    25.4297   996.9539 0.0000e+00
      0.144      0.000     8.3648    102.036     34.727  35.026519     0.7922      7.431   274.5700 1.1058e+03     1.5796      0.141      0.205    25.4290   996.9541 0.0000e+00
      0.144      0.000     8.3720    102.120     34.710  35.007099     0.8274      7.429   274.4996 1.1583e+03     1.5837      0.141      0.205    25.4282   996.9543 0.0000e+00
      0.145      0.001     8.3770    102.175     34.710  35.005891     0.8463      7.426   274.3357 1.0691e+03     1.5448      0.142      0.206    25.4276   996.9545 0.0000e+00
      0.145      0.001     8.3786    102.190     34.718  35.011910     0.8473      7.423   274.3097 9.9391e+02     1.5356      0.142      0.206    25.4269   996.9547 0.0000e+00
      0.145      0.000     8.3763    102.160     34.723  35.016397     0.8482      7.419   274.4429 1.0112e+03     1.5378      0.142      0.206    25.4262   996.9548 0.0000e+00
      0.145 7.1610e-08     8.3721    102.107     34.704  34.996678     0.8484      7.415   274.5689 9.9984e+02     1.4735      0.142      0.205    25.4234   996.9557 0.0000e+00
      0.145 7.8771e-07     8.3704    102.086     34.672  34.963894     0.8419      7.412   274.7144 9.6858e+02     1.3808      0.142      0.206    25.4195   996.9566 0.0000e+00
      0.145      0.000     8.3733    102.121     34.646  34.937344     0.8384      7.408   274.9116 1.0225e+03     1.3345      0.142      0.206    25.4173   996.9572 0.0000e+00
      0.145      0.000     8.3813    102.223     34.636  34.929529     0.8398      7.404   274.7161 1.1277e+03     1.3391      0.142      0.206    25.4159   996.9576 0.0000e+00
      0.144      0.001     8.3925    102.368     34.637  34.932871     0.8418      7.398   273.5559 1.1296e+03     1.4037      0.142      0.205    25.4147   996.9578 0.0000e+00
      0.144      0.004     8.4030    102.504     34.615  34.914293     0.8449      7.377   271.9827 1.0472e+03     1.4936      0.142      0.205    25.4139   996.9580 0.0000e+00
      0.145      0.009     8.4099    102.592     34.595  34.895304     0.8429      7.317   271.0091 1.0214e+03     1.5415      0.142      0.206    25.4139   996.9580 0.0000e+00
      0.145      0.015     8.4128    102.627     34.594  34.893681     0.8353      7.229   270.7324 1.0287e+03     1.5565      0.142      0.206    25.4163   996.9574 0.0000e+00
      0.147      0.020     8.4118    102.612     34.596  34.894669     0.8140      7.164   270.7887 9.3478e+02     1.5441      0.142      0.206    25.4215   996.9561 0.0000e+00
      0.156      0.023     8.4068    102.552     34.608  34.907244     0.7854      7.134   270.5717 8.0508e+02     1.5559      0.150      0.217    25.4265   996.9548 0.0000e+00
      0.169      0.023     8.4011    102.487     34.618  34.918792     0.7754      7.123   270.0003 9.6943e+02     1.5672      0.168      0.245    25.4290   996.9542 0.0000e+00
      0.179      0.020     8.3977    102.449     34.605  34.907368     0.7797      7.121   269.7314 1.1652e+03     1.5166      0.178      0.259    25.4284   996.9544 0.0000e+00
      0.181      0.015     8.3962    102.432     34.594  34.896043     0.7849      7.124   269.9874 9.8093e+02     1.4686      0.178      0.258    25.4256   996.9552 0.0000e+00
      0.182      0.009     8.3967    102.440     34.605  34.908808     0.7865      7.129   270.4289 9.2613e+02     1.4129      0.178      0.258    25.4260   996.9551 0.0000e+00
      0.182      0.003     8.4008    102.492     34.630  34.934770     0.7810      7.134   270.6810 1.0584e+03     1.3347      0.178      0.259    25.4296   996.9541 0.0000e+00
      0.181      0.000     8.4093    102.597     34.651  34.956086     0.7706      7.135   270.7128 9.8261e+02     1.3095      0.178      0.258    25.4312   996.9537 0.0000e+00
      0.180     -0.002     8.4242    102.777     34.671  34.976135     0.7822      7.135   270.5549 8.9641e+02     1.3377      0.177      0.256    25.4315   996.9536 0.0000e+00
      0.180     -0.005     8.4435    103.009     34.683  34.986779     0.8172      7.145   270.2344 9.3942e+02     1.3482      0.177      0.256    25.4326   996.9533 0.0000e+00
      0.181     -0.014     8.4583    103.185     34.719  35.021314     0.8307      7.175   270.1077 9.5577e+02     1.3049      0.177      0.257    25.4341   996.9529 0.0000e+00
      0.181     -0.029     8.4663    103.278     34.838  35.139833     0.8314      7.215   270.3996 9.3080e+02     1.2730      0.178      0.258    25.4350   996.9527 0.0000e+00
      0.177     -0.047     8.4725    103.350     34.976  35.277366     0.8430      7.247   270.6664 9.3280e+02     1.2910      0.177      0.256    25.4341   996.9529 0.0000e+00
      0.165     -0.064     8.4798    103.435     35.051  35.351395     0.8500      7.264   270.8384 9.7630e+02     1.2595      0.168      0.242    25.4317   996.9535 0.0000e+00
      0.141     -0.081     8.4891    103.543     35.101  35.400224     0.8469      7.271   271.0161 9.3867e+02     1.1870      0.142      0.205    25.4287   996.9542 0.0000e+00
      0.110     -0.098     8.4982    103.648     35.189  35.486946     0.8397      7.279   270.9224 7.5514e+02     1.1686      0.106      0.153    25.4267   996.9546 0.0000e+00
      0.080     -0.120     8.5012    103.680     35.278  35.574841     0.8318      7.293   270.6521 6.1489e+02     1.2346      0.077      0.111    25.4250   996.9550 0.0000e+00
      0.055     -0.148     8.4988    103.657     35.275  35.574404     0.7601      7.306   270.3287 5.2899e+02     1.9514      0.053      0.077    25.4234   996.9553 0.0000e+00
      0.029     -0.173     8.4958    103.637     35.178  35.481670     0.6240      7.304   270.2822 4.1650e+02     3.2813      0.033      0.047    25.4211   996.9558 0.0000e+00
     -0.012     -0.189     8.4932    103.624     35.033  35.342165     0.5559      7.274   270.2618 4.1198e+02     4.1073      0.000     -0.000    25.4155   996.9571 0.0000e+00
     -0.079     -0.194     8.4900    103.605     34.905  35.220514     0.5614      7.236   270.0822 6.6125e+02     5.2849     -0.071     -0.103    25.4126   996.9577 0.0000e+00
     -0.159     -0.180     8.4864    103.583     34.830  35.153225     0.5597      7.224   270.4331 9.9669e+02    17.7167     -0.164     -0.240    25.4163   996.9563 0.0000e+00
     -0.221     -0.143     8.4830    103.562     34.707  35.036334     0.5532      7.235   270.8906 1.1655e+03    40.5353     -0.231     -0.335    25.4256   996.9535 0.0000e+00
     -0.253     -0.083     8.4773    103.512     34.551  34.886146     0.5524      7.253   270.7955 1.2118e+03    52.8912     -0.251     -0.365    25.4366   996.9505 0.0000e+00
     -0.266     -0.010     8.4664    103.400     34.518  34.860526     0.5669      7.268   270.5747 1.2333e+03    52.8672     -0.266     -0.385    25.4463   996.9479 0.0000e+00
     -0.257      0.060     8.4467    103.175     34.568  34.916985     0.7624      7.274   270.6303 1.2480e+03    40.0162     -0.266     -0.386    25.4592   996.9445 0.0000e+00
     -0.219      0.111     8.4189    102.840     34.584  34.934115     1.1130      7.269   270.6928 1.2547e+03    16.2765     -0.219     -0.318    25.4686   996.9422 0.0000e+00
     -0.166      0.136     8.3897    102.483     34.590  34.940717     1.3035      7.263   270.4703 1.2411e+03     3.3665     -0.161     -0.233    25.4776   996.9400 0.0000e+00
     -0.113      0.137     8.3628    102.152     34.646  34.996812     1.3239      7.266   270.2631 1.2388e+03     2.2300     -0.109     -0.159    25.4933   996.9361 0.0000e+00
     -0.067      0.119     8.3395    101.865     34.691  35.041151     1.2382      7.274   270.3385 1.2524e+03     2.1090     -0.061     -0.088    25.5017   996.9342 0.0000e+00
     -0.036      0.089     8.3217    101.647     34.682  35.032543     1.0649      7.279   270.4350 1.2586e+03     2.0355     -0.026     -0.037    25.5019   996.9344 0.0000e+00
     -0.027      0.057     8.3124    101.534     34.669  35.019665     0.9711      7.281   270.3971 1.2554e+03     1.9956     -0.021     -0.031    25.5016   996.9344 0.0000e+00
     -0.031      0.031     8.3129    101.539     34.663  35.012380     0.9709      7.281   270.3108 1.2425e+03     2.0198     -0.033     -0.048    25.5002   996.9348 0.0000e+00
     -0.032      0.016     8.3220    101.648     34.659  35.007935     0.9756      7.282   270.2525 1.2252e+03     2.0660     -0.033     -0.049    25.4989   996.9351 0.0000e+00
     -0.031      0.013     8.3361    101.818     34.681  35.029380     0.9668      7.280   270.2090 1.2086e+03     2.0953     -0.030     -0.044    25.4985   996.9352 0.0000e+00
     -0.029      0.020     8.3467    101.945     34.733  35.081266     0.9604      7.272   270.1282 1.1959e+03     2.0792     -0.030     -0.042    25.4989   996.9351 0.0000e+00
     -0.024      0.032     8.3492    101.973     34.780  35.127546     0.9594      7.262   270.1354 1.1933e+03     2.0359     -0.025     -0.036    25.4987   996.9352 0.0000e+00
     -0.015      0.044     8.3453    101.921     34.799  35.144675     0.9541      7.247   270.2100 1.1994e+03     2.0305     -0.016     -0.024    25.4972   996.9356 0.0000e+00
     -0.001      0.055     8.3391    101.839     34.818  35.161437     0.9566      7.230   270.1699 1.2083e+03     2.0464     -0.001     -0.003    25.4956   996.9361 0.0000e+00
      0.016      0.065     8.3354    101.789     34.861  35.203274     0.9651      7.222   270.0812 1.1981e+03     2.0314      0.015      0.022    25.4943   996.9365 0.0000e+00
      0.036      0.072     8.3342    101.770     34.929  35.269712     0.9701      7.219   270.0836 9.8411e+02     2.0132      0.035      0.050    25.4929   996.9370 0.0000e+00
      0.058      0.076     8.3337    101.758     34.991  35.330053     0.9730      7.214   270.1135 6.8669e+02     2.0224      0.057      0.082    25.4906   996.9377 0.0000e+00
      0.078      0.076     8.3360    101.780     34.961  35.298170     0.9827      7.210   269.9268 8.7800e+02     2.0442      0.076      0.110    25.4877   996.9386 0.0000e+00
      0.099      0.072     8.3425    101.850     34.806  35.138087     1.0012      7.208   269.5463 1.2339e+03     2.0467      0.097      0.141    25.4849   996.9394 0.0000e+00
      0.119      0.066     8.3499    101.920     34.658  34.981181     1.0055      7.204   269.2979 1.1433e+03     2.0203      0.118      0.172    25.4818   996.9404 0.0000e+00
      0.135      0.059     8.3544    101.946     34.612  34.924241     1.0081      7.201   269.0746 9.4765e+02     2.0208      0.134      0.194    25.4792   996.9411 0.0000e+00
      0.148      0.052     8.3561    101.941     34.591  34.893880     1.0330      7.203   268.7394 9.5894e+02     2.0193      0.144      0.209    25.4769   996.9417 0.0000e+00
      0.159      0.046     8.3567    101.932     34.571  34.867939     1.0635      7.208   268.7723 9.7612e+02     2.0031      0.156      0.227    25.4732   996.9427 0.0000e+00
      0.169      0.042     8.3610    101.976     34.571  34.864447     1.0738      7.213   269.2148 9.8599e+02     2.0209      0.168      0.243    25.4625   996.9455 0.0000e+00
      0.178      0.039     8.3688    102.068     34.559  34.851654     1.0711      7.217   269.4430 1.0901e+03     2.0378      0.174      0.252    25.4436   996.9504 0.0000e+00
      0.187      0.037     8.3709    102.094     34.548  34.840189     1.0911      7.220   269.4678 1.0310e+03     2.0437      0.182      0.265    25.4290   996.9543 0.0000e+00
      0.198      0.035     8.3663    102.037     34.561  34.852756     1.1252      7.225   269.4281 9.2596e+02     2.0264      0.193      0.281    25.4209   996.9564 0.0000e+00
      0.208      0.033     8.3613    101.975     34.585  34.876676     1.1448      7.231   269.1344 9.6606e+02     2.0256      0.205      0.297    25.4162   996.9578 0.0000e+00
      0.216      0.033     8.3571    101.921     34.585  34.875533     1.1552      7.236   269.0136 9.4069e+02     2.0663      0.214      0.310    25.4154   996.9580 0.0000e+00
      0.222      0.033     8.3484    101.810     34.550  34.838928     1.1721      7.240   269.3451 8.4811e+02     2.0930      0.217      0.314    25.4163   996.9578 0.0000e+00
      0.227      0.033     8.3351    101.643     34.528  34.814895     1.2022      7.238   269.5288 7.7780e+02     2.1191      0.222      0.323    25.4169   996.9576 0.0000e+00
      0.236      0.034     8.3237    101.500     34.554  34.838813     1.2163      7.236   269.3422 7.2964e+02     2.1198      0.231      0.334    25.4155   996.9580 0.0000e+00
      0.247      0.039     8.3186    101.435     34.590  34.874251     1.2037      7.236   269.2397 6.9624e+02     2.0687      0.241      0.349    25.4138   996.9585 0.0000e+00
      0.258      0.045     8.3213    101.470     34.578  34.862569     1.1970      7.238   269.3219 6.7400e+02     2.0253      0.254      0.368    25.4123   996.9589 0.0000e+00
      0.268      0.050     8.3317    101.599     34.539  34.824495     1.2220      7.236   269.1321 5.8681e+02     2.0205      0.263      0.380    25.4089   996.9598 0.0000e+00
      0.280      0.055     8.3475    101.790     34.511  34.794713     1.2633      7.222   268.7516 5.3691e+02     2.0445      0.272      0.393    25.4052   996.9609 0.0000e+00
      0.296      0.058     8.3671    102.019     34.476  34.756342     1.2804      7.201   268.9369 6.1721e+02     2.0526      0.290      0.421    25.4036   996.9614 0.0000e+00
      0.313      0.059     8.3870    102.247     34.466  34.741332     1.2731      7.182   269.4802 6.6081e+02     2.0208      0.306      0.446    25.4052   996.9610 0.0000e+00
      0.331      0.058     8.4012    102.408     34.469  34.740148     1.2958      7.169   269.7280 9.8695e+02     2.0206      0.323      0.468    25.4080   996.9603 0.0000e+00
      0.347      0.053     8.4057    102.455     34.474  34.742026     1.3555      7.161   269.3516 1.3426e+03     2.0506      0.342      0.497    25.4078   996.9605 0.0000e+00
      0.360      0.047     8.4018    102.405     34.497  34.764036     1.3878      7.158   268.5422 1.0551e+03     2.0550      0.355      0.515    25.4012   996.9622 0.0000e+00
      0.370      0.041     8.3951    102.321     34.486  34.752409     1.3911      7.158   268.2880 7.4965e+02     2.0732      0.365      0.528    25.3916   996.9648 0.0000e+00
      0.378      0.036     8.3868    102.218     34.464  34.728378     1.3871      7.158   268.5150 7.5617e+02     2.1074      0.371      0.538    25.3851   996.9665 0.0000e+00
      0.385      0.033     8.3765    102.088     34.464  34.727338     1.3826      7.158   268.7913 8.0672e+02     2.1078      0.376      0.546    25.3816   996.9674 0.0000e+00
      0.392      0.032     8.3668    101.961     34.479  34.739830     1.3894      7.164   269.2202 8.9217e+02     2.0781      0.385      0.557    25.3804   996.9678 0.0000e+00
      0.400      0.034     8.3620    101.895     34.494  34.752487     1.3904      7.175   268.9687 8.6391e+02     2.0763      0.392      0.567    25.3794   996.9682 0.0000e+00
      0.409      0.038     8.3632    101.902     34.498  34.753430     1.3781      7.185   268.0729 7.6327e+02     2.0866      0.402      0.582    25.3785   996.9684 0.0000e+00
      0.418      0.044     8.3640    101.902     34.499  34.751227     1.3696      7.189   267.7672 6.9087e+02     2.0715      0.411      0.595    25.3768   996.9688 0.0000e+00
      0.428      0.050     8.3604    101.852     34.477  34.725852     1.3748      7.190   267.8546 6.5331e+02     2.0573      0.418      0.606    25.3728   996.9699 0.0000e+00
      0.441      0.055     8.3542    101.771     34.453  34.700476     1.3809      7.192   268.0106 6.3053e+02     2.0132      0.431      0.625    25.3687   996.9710 0.0000e+00
      0.458      0.061     8.3488    101.701     34.453  34.698274     1.3997      7.193   268.5346 5.6792e+02     1.9647      0.447      0.648    25.3636   996.9724 0.0000e+00
      0.476      0.066     8.3480    101.686     34.456  34.699218     1.4374      7.186   268.7701 5.1890e+02     1.9947      0.468      0.678    25.3582   996.9740 0.0000e+00
      0.493      0.068     8.3516    101.723     34.471  34.711883     1.4559      7.174   268.3633 4.7058e+02     2.0482      0.484      0.704    25.3543   996.9750 0.0000e+00
      0.509      0.066     8.3571    101.783     34.486  34.724472     1.4574      7.168   268.0041 4.6463e+02     2.0546      0.498      0.722    25.3519   996.9757 0.0000e+00
      0.529      0.062     8.3625    101.839     34.489  34.724491     1.4567      7.168   268.0405 4.9230e+02     2.0388      0.519      0.752    25.3499   996.9763 0.0000e+00
      0.549      0.056     8.3690    101.909     34.480  34.712112     1.4649      7.165   268.2003 4.2564e+02     2.0203      0.541      0.785    25.3471   996.9771 0.0000e+00
      0.562      0.050     8.3777    102.009     34.473  34.701727     1.4958      7.159   268.3026 3.4879e+02     2.0282      0.552      0.802    25.3440   996.9780 0.0000e+00
      0.570      0.043     8.3841    102.082     34.499  34.725855     1.5173      7.154   268.6746 3.3486e+02     2.0697      0.558      0.810    25.3396   996.9792 0.0000e+00
      0.578      0.038     8.3863    102.104     34.524  34.749972     1.5178      7.154   269.2570 3.3960e+02     2.0954      0.567      0.823    25.3339   996.9807 0.0000e+00
      0.587      0.034     8.3864    102.103     34.515  34.739463     1.5105      7.159   269.4930 3.3884e+02     2.0768      0.577      0.837    25.3295   996.9819 0.0000e+00
      0.595      0.034     8.3864    102.101     34.502  34.725721     1.5066      7.166   269.3772 3.3099e+02     2.0416      0.584      0.847    25.3258   996.9829 0.0000e+00
      0.603      0.036     8.3884    102.122     34.488  34.710749     1.5146      7.174   269.2338 3.3684e+02     2.0297      0.590      0.857    25.3228   996.9837 0.0000e+00
      0.613      0.038     8.3863    102.094     34.463  34.685364     1.5206      7.180   269.4791 3.5549e+02     2.0316      0.601      0.872    25.3212   996.9843 0.0000e+00
      0.623      0.042     8.3775    101.987     34.451  34.672662     1.5178      7.187   270.1057 3.6084e+02     2.0320      0.610      0.884    25.3197   996.9846 0.0000e+00
      0.633      0.047     8.3684    101.877     34.462  34.684095     1.5159      7.193   270.5293 3.4854e+02     2.0335      0.620      0.898    25.3184   996.9849 0.0000e+00
      0.645      0.051     8.3612    101.790     34.474  34.696674     1.5140      7.194   270.5568 3.3781e+02     2.0510      0.634      0.920    25.3170   996.9854 0.0000e+00
      0.659      0.054     8.3570    101.738     34.476  34.697817     1.5130      7.188   270.4389 3.2953e+02     2.0789      0.645      0.936    25.3157   996.9857 0.0000e+00
      0.674      0.055     8.3583    101.752     34.476  34.697922     1.5290      7.181   270.3940 3.2238e+02     2.0755      0.659      0.955    25.3157   996.9858 0.0000e+00
      0.691      0.054     8.3648    101.828     34.477  34.697941     1.5606      7.173   270.5310 3.2315e+02     2.0434      0.678      0.984    25.3168   996.9856 0.0000e+00
      0.708      0.050     8.3752    101.949     34.479  34.698038     1.5738      7.168   270.8041 3.2309e+02     2.0178      0.696      1.010    25.3174   996.9856 0.0000e+00
      0.720      0.045     8.3885    102.105     34.483  34.699088     1.5682      7.165   270.9427 3.2186e+02     1.9959      0.707      1.025    25.3165   996.9858 0.0000e+00
      0.730      0.039     8.4018    102.261     34.497  34.710636     1.5872      7.167   270.9176 3.1900e+02     1.9757      0.716      1.037    25.3157   996.9861 0.0000e+00
      0.738      0.034     8.4123    102.386     34.498  34.710731     1.6221      7.175   270.9301 3.0797e+02     1.9046      0.725      1.051    25.3141   996.9866 0.0000e+00
      0.745      0.031     8.4177    102.450     34.488  34.700232     1.6348      7.186   270.9216 3.0467e+02     1.7915      0.730      1.059    25.3105   996.9875 0.0000e+00
      0.751      0.031     8.4148    102.412     34.499  34.710618     1.6273      7.194   270.8150 3.2256e+02     1.7557      0.736      1.068    25.3068   996.9885 0.0000e+00
      0.757      0.034     8.4050    102.290     34.499  34.709378     1.6180      7.194   270.6733 3.4908e+02     1.8322      0.743      1.076    25.3042   996.9892 0.0000e+00
      0.765      0.037     8.3920    102.129     34.475  34.685242     1.6101      7.188   270.5848 3.4990e+02     1.9626      0.749      1.086    25.3026   996.9897 0.0000e+00
      0.775      0.040     8.3788    101.967     34.464  34.672653     1.5922      7.188   270.5202 3.2992e+02     2.0210      0.758      1.100    25.3017   996.9899 0.0000e+00
      0.788      0.043     8.3685    101.840     34.476  34.684096     1.5748      7.193   270.4086 3.2642e+02     2.0138      0.773      1.122    25.3008   996.9902 0.0000e+00
      0.802      0.047     8.3588    101.720     34.489  34.696666     1.5730      7.200   270.3531 3.2052e+02     2.0396      0.788      1.143    25.2997   996.9906 0.0000e+00
      0.813      0.049     8.3488    101.596     34.490  34.697706     1.5962      7.206   270.4521 3.0960e+02     2.0713      0.796      1.154    25.2983   996.9909 0.0000e+00
      0.823      0.049     8.3421    101.513     34.490  34.696666     1.6393      7.210   270.6584 3.2082e+02     2.0691      0.807      1.170    25.2969   996.9914 0.0000e+00
      0.836      0.049     8.3409    101.497     34.478  34.684086     1.6611      7.214   270.7830 3.2697e+02     2.0452      0.820      1.189    25.2958   996.9917 0.0000e+00
      0.850      0.049     8.3451    101.545     34.468  34.672540     1.6511      7.217   270.6679 3.1293e+02     2.0114      0.833      1.208    25.2944   996.9921 0.0000e+00
      0.864      0.049     8.3517    101.624     34.480  34.683984     1.6565      7.218   270.4718 2.9955e+02     1.9891      0.848      1.230    25.2937   996.9924 0.0000e+00
      0.877      0.048     8.3571    101.687     34.493  34.695522     1.6830      7.220   270.4768 3.0374e+02     2.0046      0.860      1.247    25.2929   996.9927 0.0000e+00
      0.888      0.046     8.3592    101.712     34.483  34.685118     1.6948      7.220   270.9858 3.2363e+02     2.0343      0.871      1.262    25.2917   996.9930 0.0000e+00
      0.898      0.045     8.3610    101.731     34.483  34.685117     1.6946      7.220   271.8084 3.3018e+02     2.0214      0.881      1.278    25.2910   996.9933 0.0000e+00
      0.909      0.044     8.3663    101.791     34.495  34.695512     1.6894      7.216   272.2486 3.1507e+02     1.9470      0.890      1.292    25.2899   996.9936 0.0000e+00
      0.920      0.043     8.3723    101.859     34.485  34.683868     1.6848      7.211   272.1786 3.0267e+02     1.8550      0.903      1.309    25.2882   996.9941 0.0000e+00
      0.932      0.042     8.3763    101.903     34.475  34.671261     1.6899      7.208   271.9089 3.0153e+02     1.7949      0.913      1.325    25.2879   996.9942 0.0000e+00
      0.943      0.040     8.3798    101.943     34.475  34.670011     1.6997      7.210   272.1705 2.9921e+02     1.8102      0.925      1.342    25.2874   996.9944 0.0000e+00
      0.954      0.038     8.3839    101.991     34.474  34.668753     1.7162      7.213   273.1042 2.9688e+02     1.9091      0.937      1.360    25.2850   996.9951 0.0000e+00
      0.962      0.037     8.3918    102.085     34.462  34.656052     1.7420      7.214   273.5616 2.9839e+02     2.0067      0.944      1.370    25.2814   996.9960 0.0000e+00
      0.969      0.037     8.4026    102.214     34.450  34.643369     1.7680      7.215   273.3134 2.9886e+02     2.0400      0.951      1.378    25.2785   996.9968 0.0000e+00
      0.977      0.038     8.4085    102.282     34.450  34.642329     1.7800      7.218   273.1146 3.0031e+02     2.0500      0.958      1.389    25.2770   996.9972 0.0000e+00
      0.987      0.039     8.4091    102.286     34.453  34.643481     1.7741      7.220   272.8791 3.0076e+02     2.0620      0.968      1.403    25.2763   996.9974 0.0000e+00
      0.999      0.042     8.4093    102.284     34.468  34.657299     1.7488      7.221   272.7025 2.9740e+02     2.0537      0.980      1.422    25.2753   996.9977 0.0000e+00
      1.010      0.044     8.4091    102.277     34.495  34.682467     1.7167      7.223   273.1309 2.9528e+02     2.0479      0.990      1.436    25.2734   996.9983 0.0000e+00
      1.022      0.045     8.4065    102.242     34.508  34.693911     1.7062      7.225   273.6704 2.9508e+02     2.0578      1.002      1.453    25.2720   996.9987 0.0000e+00
      1.034      0.046     8.3980    102.136     34.483  34.668733     1.7098      7.226   273.8912 2.9368e+02     2.0415      1.015      1.472    25.2712   996.9989 0.0000e+00
      1.045      0.047     8.3826    101.948     34.447  34.631914     1.7173      7.226   273.9079 2.9409e+02     2.0152      1.025      1.486    25.2686   996.9996 0.0000e+00
      1.056      0.048     8.3652    101.734     34.446  34.629522     1.7353      7.224   273.7864 2.9663e+02     2.0349      1.035      1.501    25.2651   997.0006 0.0000e+00
      1.068      0.048     8.3508    101.559     34.456  34.639803     1.7538      7.220   273.6261 2.9725e+02     2.0828      1.046      1.518    25.2634   997.0012 0.0000e+00
      1.081      0.046     8.3421    101.453     34.446  34.629295     1.7595      7.212   273.6043 2.9724e+02     2.1018      1.060      1.538    25.2628   997.0013 0.0000e+00
      1.095      0.043     8.3386    101.410     34.446  34.629398     1.7609      7.204   273.7817 3.0592e+02     2.0362      1.073      1.557    25.2619   997.0015 0.0000e+00
      1.107      0.038     8.3383    101.406     34.458  34.641050     1.7624      7.198   273.8780 3.1425e+02     1.9122      1.087      1.575    25.2612   997.0018 0.0000e+00
      1.117      0.033     8.3394    101.421     34.459  34.643254     1.7595      7.197   273.9942 3.0392e+02     1.8484      1.098      1.592    25.2611   997.0019 0.0000e+00
      1.124      0.028     8.3427    101.461     34.472  34.656042     1.7612      7.200   274.2402 2.9595e+02     1.8549      1.103      1.600    25.2607   997.0020 0.0000e+00
      1.127      0.026     8.3494    101.541     34.485  34.668734     1.7649      7.204   273.9274 3.0445e+02     1.9244      1.105      1.604    25.2595   997.0024 0.0000e+00
      1.130      0.026     8.3564    101.621     34.488  34.669775     1.7694      7.208   273.2234 3.0715e+02     2.0334      1.108      1.606    25.2597   997.0023 0.0000e+00
      1.135      0.028     8.3604    101.665     34.489  34.668632     1.7727      7.211   273.1274 3.0468e+02     2.0594      1.111      1.611    25.2609   997.0020 0.0000e+00
      1.145      0.031     8.3631    101.691     34.478  34.654908     1.7704      7.215   273.6272 3.1319e+02     2.0415      1.122      1.627    25.2610   997.0021 0.0000e+00
      1.155      0.034     8.3685    101.748     34.457  34.630773     1.7847      7.216   274.1895 3.2333e+02     2.0458      1.135      1.646    25.2604   997.0023 0.0000e+00
      1.165      0.037     8.3787    101.865     34.459  34.630669     1.8149      7.216   274.3337 3.3289e+02     2.0460      1.143      1.658    25.2579   997.0029 0.0000e+00
      1.174      0.038     8.3905    102.000     34.485  34.653658     1.8327      7.214   273.6497 3.4987e+02     2.0441      1.151      1.670    25.2545   997.0039 0.0000e+00
      1.183      0.038     8.4012    102.117     34.491  34.654855     1.8345      7.210   272.6306 3.5971e+02     2.0230      1.160      1.683    25.2508   997.0049 0.0000e+00
      1.193      0.038     8.4105    102.209     34.489  34.645143     1.8110      7.208   272.2510 3.4517e+02     2.0525      1.169      1.696    25.2470   997.0059 0.0000e+00
      1.204      0.039     8.4166    102.251     34.519  34.663143     1.7737      7.208   272.5012 3.2420e+02     2.1724      1.181      1.713    25.2428   997.0070 0.0000e+00
      1.214      0.040     8.4210    102.265     34.615  34.745541     1.7567      7.205   272.9034 3.2460e+02     2.2594      1.191      1.727    25.2388   997.0082 0.0000e+00
      1.223      0.040     8.4288    102.290     34.775  34.879793     1.7529      7.198   272.8111 3.3171e+02     2.2861      1.199      1.739    25.2327   997.0098 0.0000e+00
      1.233      0.039     8.4438    102.330     34.901  34.953538     1.7548      7.191   272.1597 3.3286e+02     2.2983      1.209      1.753    25.2233   997.0122 0.0000e+00
      1.244      0.038     8.4643    102.386     34.957  34.938977     1.7620      7.189   271.8249 3.3845e+02     2.2420      1.218      1.767    25.2038   997.0173 0.0000e+00
      1.255      0.039     8.4921    102.543     34.979  34.894031     1.7617      7.189   271.8602 3.4350e+02     2.1302      1.232      1.787    25.1839   997.0225 0.0000e+00
      1.264      0.041     8.5341    102.908     34.991  34.854274     1.7596      7.189   271.8987 3.3350e+02     2.0605      1.241      1.800    25.1629   997.0280 0.0000e+00
      1.271      0.044     8.5971    103.561     35.015  34.839002     1.7627      7.188   272.0313 3.1307e+02     2.0546      1.244      1.805    25.0821   997.0489 0.0000e+00
      1.281      0.047     8.6892    104.580     35.045  34.836255     1.7646      7.188   272.0869 3.0330e+02     2.0920      1.254      1.818    24.9614   997.0798 0.0000e+00
      1.296      0.049     8.8163    105.995     35.070  34.821009     1.7651      7.188   271.8829 3.0862e+02     2.1195      1.271      1.843    24.8660   997.1044 0.0000e+00
      1.311      0.052     8.9779    107.786     35.084  34.781529     1.7595      7.190   271.7154 3.1417e+02     2.0915      1.285      1.866    24.7910   997.1236 0.0000e+00
      1.325      0.054     9.1729    109.954     35.102  34.739627     1.7498      7.194   271.7827 3.0738e+02     2.0488      1.299      1.884    24.7382   997.1370 0.0000e+00
      1.339      0.054     9.4095    112.608     35.119  34.695093     1.7692      7.197   271.9223 3.0079e+02     2.0292      1.314      1.906    24.7027   997.1460 0.0000e+00
      1.352      0.053     9.6990    115.860     35.116  34.623778     1.8113      7.199   271.9405 3.0193e+02     2.0183      1.326      1.924    24.6457   997.1606 0.0000e+00
      1.365      0.053    10.0404    119.679     35.150  34.575402     1.8249      7.200   271.8311 2.9809e+02     2.0159      1.338      1.940    24.5643   997.1812 0.0000e+00
      1.378      0.053    10.4080    123.779     35.215  34.554319     1.8216      7.199   271.6325 2.8556e+02     2.0333      1.350      1.958    24.4789   997.2027 0.0000e+00
      1.392      0.052    10.7565    127.663     35.234  34.495661     1.8673      7.197   271.3458 2.7561e+02     2.0635      1.365      1.979    24.3943   997.2240 0.0000e+00
      1.407      0.051    11.0587    131.039     35.237  34.437252     1.9518      7.197   271.0321 2.7283e+02     2.0537      1.379      2.000    24.3011   997.2474 0.0000e+00
      1.422      0.049    11.3135    133.897     35.266  34.419202     1.9947      7.202   270.8501 2.6738e+02     2.0138      1.394      2.022    24.1815   997.2772 0.0000e+00
      1.434      0.047    11.5252    136.268     35.289  34.404297     1.9955      7.209   270.7803 2.6066e+02     2.0072      1.408      2.042    24.0503   997.3098 0.0000e+00
      1.442      0.045    11.6970    138.164     35.306  34.383917     1.9699      7.216   270.6178 2.5770e+02     2.0067      1.415      2.053    23.9374   997.3377 0.0000e+00
      1.451      0.044    11.8247    139.533     35.322  34.363130     1.9184      7.224   270.4343 2.5405e+02     2.0081      1.421      2.062    23.8506   997.3590 0.0000e+00
      1.463      0.044    11.9043    140.351     35.335  34.343301     1.8849      7.233   270.3692 2.4840e+02     2.0567      1.434      2.081    23.7900   997.3739 0.0000e+00
      1.476      0.045    11.9491    140.774     35.355  34.334516     1.8765      7.239   270.3465 2.4575e+02     2.1019      1.448      2.101    23.7431   997.3855 0.0000e+00
      1.488      0.046    11.9801    141.033     35.370  34.320328     1.8781      7.246   269.9872 2.4418e+02     2.0634      1.459      2.116    23.6907   997.3983 0.0000e+00
      1.499      0.047    12.0042    141.213     35.376  34.298650     1.8951      7.252   269.2083 2.4371e+02     2.0174      1.469      2.131    23.6329   997.4124 0.0000e+00
      1.512      0.047    12.0208    141.316     35.364  34.262771     1.9186      7.257   268.5005 2.4197e+02     2.0378      1.483      2.150    23.5869   997.4236 0.0000e+00
      1.524      0.048    12.0322    141.356     35.329  34.203805     1.9365      7.263   267.8820 2.3547e+02     2.0799      1.495      2.167    23.5521   997.4321 0.0000e+00
      1.535      0.050    12.0385    141.320     35.311  34.156846     1.9638      7.270   267.6670 2.3152e+02     2.1010      1.504      2.182    23.5113   997.4421 0.0000e+00
      1.548      0.052    12.0435    141.258     35.326  34.139202     2.1011      7.275   268.1390 2.2800e+02     2.1294      1.518      2.202    23.4684   997.4524 0.0000e+00
      1.562      0.055    12.0520    141.245     35.334  34.117353     2.3399      7.277   268.5120 2.2415e+02     2.2254      1.532      2.221    23.4359   997.4604 0.0000e+00
      1.576      0.058    12.0618    141.260     35.326  34.083028     2.4759      7.280   268.0471 2.2417e+02     2.3110      1.546      2.242    23.4057   997.4677 0.0000e+00
      1.591      0.060    12.0667    141.236     35.305  34.041468     2.4968      7.285   266.3898 2.2458e+02     2.3129      1.559      2.262    23.3614   997.4784 0.0000e+00
      1.608      0.061    12.0620    141.113     35.276  33.995606     2.5141      7.291   264.3045 2.2141e+02     2.3466      1.576      2.285    23.3120   997.4904 0.0000e+00
      1.625      0.061    12.0471    140.844     35.279  33.972745     2.5376      7.295   262.7957 2.1832e+02     2.4561      1.594      2.312    23.2719   997.5000 0.0000e+00
      1.640      0.060    12.0254    140.455     35.298  33.955413     2.5561      7.300   261.7416 2.1768e+02     2.5227      1.607      2.332    23.2324   997.5095 0.0000e+00
      1.655      0.059    12.0071    140.094     35.294  33.912919     2.5646      7.306   261.1095 2.1565e+02     2.5288      1.622      2.353    23.2012   997.5171 0.0000e+00
      1.670      0.057    12.0016    139.893     35.256  33.839688     2.5962      7.313   260.8316 2.1235e+02     2.6612      1.639      2.378    23.1843   997.5212 0.0000e+00
      1.685      0.056    12.0076    139.839     35.216  33.768023     2.6518      7.318   260.5326 2.0855e+02     2.9447      1.653      2.398    23.1506   997.5293 0.0000e+00
      1.698      0.056    12.0154    139.846     35.215  33.744483     2.6735      7.321   260.1610 2.0410e+02     3.1053      1.666      2.415    23.0944   997.5428 0.0000e+00
      1.711      0.055    12.0198    139.872     35.223  33.745425     2.6768      7.323   259.7797 2.0050e+02     3.1278      1.677      2.432    23.0355   997.5568 0.0000e+00
      1.725      0.055    12.0301    139.983     35.194  33.715944     2.6916      7.326   259.5366 1.9887e+02     3.1514      1.691      2.452    22.9854   997.5687 0.0000e+00
      1.740      0.056    12.0575    140.242     35.133  33.641887     2.6874      7.331   259.4583 1.9856e+02     3.1281      1.708      2.477    22.9354   997.5805 0.0000e+00
      1.754      0.056    12.0971    140.579     35.069  33.548086     2.6702      7.336   259.6938 1.9778e+02     3.0756      1.721      2.496    22.8960   997.5899 0.0000e+00
      1.768      0.056    12.1365    140.880     35.030  33.470237     2.6741      7.340   260.1470 1.9480e+02     3.0412      1.733      2.514    22.8944   997.5903 0.0000e+00
      1.783      0.055    12.1718    141.115     35.003  33.398647     2.6825      7.343   260.1200 1.9075e+02     3.0392      1.749      2.537    22.9046   997.5879 0.0000e+00
      1.798      0.055    12.2039    141.306     34.967  33.317066     2.7191      7.348   259.7968 1.8783e+02     3.0851      1.763      2.557    22.8833   997.5931 0.0000e+00
      1.812      0.056    12.2310    141.448     34.938  33.245330     2.8047      7.352   259.5948 1.8542e+02     3.1375      1.777      2.577    22.8287   997.6060 0.0000e+00
      1.825      0.059    12.2513    141.515     34.900  33.165852     2.8593      7.354   259.4847 1.8187e+02     3.1475      1.790      2.598    22.7704   997.6198 0.0000e+00
      1.838      0.064    12.2633    141.482     34.829  33.054119     2.8678      7.353   260.0145 1.7778e+02     3.1079      1.801      2.613    22.7043   997.6352 0.0000e+00
      1.853      0.071    12.2668    141.330     34.728  32.909698     2.8815      7.352   260.9250 1.7481e+02     3.0845      1.816      2.633    22.6328   997.6520 0.0000e+00
      1.871      0.077    12.2621    141.060     34.621  32.752288     2.9037      7.356   261.1143 1.7281e+02     3.0943      1.834      2.660    22.5714   997.6664 0.0000e+00
      1.894      0.082    12.2480    140.669     34.532  32.610404     2.9102      7.364   260.7548 1.7060e+02     3.0957      1.854      2.689    22.5106   997.6805 0.0000e+00
      1.919      0.085    12.2247    140.181     34.437  32.463317     2.9085      7.370   260.4502 1.6798e+02     3.1015      1.882      2.729    22.4484   997.6950 0.0000e+00
      1.945      0.086    12.1957    139.631     34.330  32.306446     2.9263      7.374   260.3572 1.6528e+02     3.0990      1.910      2.769    22.3800   997.7110 0.0000e+00
      1.966      0.085    12.1672    139.076     34.250  32.173182     2.9608      7.379   261.0058 1.6276e+02     3.0979      1.929      2.798    22.2978   997.7299 0.0000e+00
      1.985      0.081    12.1436    138.563     34.193  32.057674     2.9882      7.384   262.1836 1.6021e+02     3.0880      1.946      2.822    22.2093   997.7502 0.0000e+00
      2.005      0.076    12.1224    138.082     34.117  31.925104     2.9881      7.391   262.8104 1.5686e+02     3.0449      1.966      2.852    22.1279   997.7690 0.0000e+00
      2.025      0.074    12.1031    137.640     34.018  31.775909     2.9761      7.396   262.8196 1.5397e+02     3.0032      1.987      2.882    22.0508   997.7865 0.0000e+00
      2.043      0.075    12.0906    137.275     33.944  31.649763     2.9826      7.398   262.7261 1.5204e+02     2.9441      2.004      2.907    21.9660   997.8058 0.0000e+00
      2.059      0.077    12.0883    137.001     33.897  31.542033     2.9884      7.400   262.9700 1.5005e+02     2.8867      2.018      2.927    21.8713   997.8273 0.0000e+00
      2.077      0.079    12.0928    136.769     33.848  31.425122     2.9860      7.404   263.7035 1.4709e+02     2.8676      2.035      2.951    21.7793   997.8481 0.0000e+00
      2.100      0.079    12.0974    136.519     33.812  31.314870     3.0322      7.409   264.5396 1.4294e+02     2.9099      2.059      2.986    21.6996   997.8660 0.0000e+00
      2.124      0.078    12.0963    136.213     33.795  31.224189     3.1221      7.415   265.0773 1.3927e+02     3.0041      2.085      3.023    21.6191   997.8841 0.0000e+00
      2.146      0.076    12.0858    135.830     33.791  31.153533     3.1703      7.421   265.3011 1.3606e+02     3.0567      2.105      3.053    21.5263   997.9048 0.0000e+00
      2.165      0.071    12.0644    135.351     33.794  31.095041     3.1646      7.426   265.4381 1.3251e+02     3.0872      2.123      3.080    21.4195   997.9284 0.0000e+00
      2.181      0.066    12.0392    134.841     33.781  31.024526     3.1659      7.431   265.4439 1.2962e+02     3.1094      2.140      3.103    21.3006   997.9548 0.0000e+00
      2.195      0.063    12.0237    134.443     33.747  30.935419     3.3071      7.435   265.3712 1.2747e+02     2.9983      2.153      3.122    21.1867   997.9798 0.0000e+00
      2.209      0.062    12.0182    134.153     33.709  30.842488     3.5628      7.436   265.6775 1.2533e+02     2.7920      2.165      3.141    21.0881   998.0013 0.0000e+00
      2.224      0.063    12.0155    133.903     33.712  30.789190     3.6999      7.434   266.1362 1.2294e+02     2.6795      2.180      3.162    20.9997   998.0205 0.0000e+00
      2.240      0.065    12.0135    133.675     33.780  30.798560     3.7084      7.434   266.3569 1.2046e+02     2.6546      2.197      3.186    20.9159   998.0388 0.0000e+00
      2.257      0.067    12.0075    133.460     33.855  30.828805     3.6305      7.435   266.5393 1.1780e+02     2.6543      2.212      3.209    20.8318   998.0570 0.0000e+00
      2.276      0.067    11.9978    133.306     33.878  30.837551     3.4865      7.436   266.6213 1.1454e+02     2.6766      2.232      3.237    20.7417   998.0763 0.0000e+00
      2.295      0.066    11.9972    133.294     33.813  30.777383     3.4150      7.436   266.6598 1.1134e+02     2.6611      2.253      3.267    20.6593   998.0940 0.0000e+00
      2.313      0.065    12.0184    133.448     33.720  30.672409     3.4160      7.436   267.1760 1.0866e+02     2.6312      2.268      3.290    20.5785   998.1113 0.0000e+00
      2.328      0.064    12.0605    133.703     33.682  30.583572     3.3861      7.435   268.9060 1.0658e+02     2.6432      2.284      3.312    20.5059   998.1268 0.0000e+00
      2.342      0.063    12.1098    133.944     33.707  30.528092     3.3220      7.434   271.5728 1.0510e+02     2.6752      2.297      3.331    20.5007   998.1280 0.0000e+00
      2.356      0.062    12.1526    134.117     33.770  30.509129     3.2915      7.434   273.7805 1.0341e+02     2.6897      2.308      3.349    20.5203   998.1239 0.0000e+00
      2.373      0.062    12.1873    134.261     33.807  30.481096     3.2942      7.434   275.1224 1.0138e+02     2.6877      2.328      3.376    20.4947   998.1294 0.0000e+00
      2.391      0.062    12.2213    134.448     33.817  30.442884     3.2594      7.435   275.9233 9.9528e+01     2.6842      2.347      3.404    20.4104   998.1472 0.0000e+00
      2.407      0.061    12.2552    134.674     33.841  30.427764     3.1920      7.435   275.8926 9.7768e+01     2.6800      2.361      3.424    20.2766   998.1753 0.0000e+00
      2.422      0.060    12.2787    134.833     33.866  30.425145     3.1630      7.435   275.4400 9.5943e+01     2.6685      2.376      3.446    20.1565   998.2005 0.0000e+00
      2.436      0.060    12.2832    134.818     33.868  30.411179     3.1605      7.435   275.6127 9.4044e+01     2.6443      2.390      3.466    20.0704   998.2184 0.0000e+00
      2.450      0.061    12.2728    134.625     33.862  30.385789     3.1709      7.431   276.2606 9.2064e+01     2.5852      2.403      3.486    20.0022   998.2325 0.0000e+00
      2.464      0.063    12.2526    134.281     33.882  30.371948     3.2017      7.424   276.9927 9.0200e+01     2.5102      2.416      3.504    19.9463   998.2441 0.0000e+00
      2.480      0.063    12.2159    133.743     33.919  30.370684     3.2208      7.418   277.6673 8.8201e+01     2.4916      2.430      3.524    19.9082   998.2521 0.0000e+00
      2.501      0.061    12.1621    133.036     33.953  30.370468     3.2283      7.416   278.2219 8.6064e+01     2.5244      2.451      3.556    19.8940   998.2551 0.0000e+00
      2.521      0.057    12.1057    132.321     33.979  30.369293     3.2229      7.418   278.7945 8.4572e+01     2.5456      2.476      3.591    19.8705   998.2599 0.0000e+00
      2.535      0.052    12.0619    131.770     33.986  30.356447     3.2079      7.420   279.1704 8.3766e+01     2.4535      2.488      3.609    19.8177   998.2708 0.0000e+00
      2.544      0.046    12.0390    131.486     33.980  30.342028     3.2117      7.422   279.3244 8.2956e+01     2.2945      2.494      3.618    19.7601   998.2826 0.0000e+00
      2.553      0.040    12.0378    131.474     33.956  30.321853     3.2267      7.424   279.1946 8.2094e+01     2.2628      2.504      3.632    19.7189   998.2911 0.0000e+00
      2.561      0.037    12.0578    131.688     33.936  30.302875     3.2330      7.425   278.4619 8.1347e+01     2.3324      2.512      3.643    19.6802   998.2989 0.0000e+00
      2.569      0.037    12.0958    132.056     33.950  30.302931     3.2441      7.424   277.6059 8.0556e+01     2.3827      2.519      3.653    19.6499   998.3051 0.0000e+00
      2.578      0.039    12.1369    132.456     33.915  30.259061     3.2657      7.422   277.1048 7.9726e+01     2.3785      2.528      3.667    19.6370   998.3078 0.0000e+00
      2.588      0.043    12.1719    132.796     33.808  30.153146     3.2774      7.419   277.1346 7.8885e+01     2.3141      2.537      3.681    19.6433   998.3065 0.0000e+00
      2.599      0.050    12.2015    133.006     33.711  30.037555     3.2980      7.415   277.7084 7.8024e+01     2.2602      2.550      3.697    19.6532   998.3045 0.0000e+00
      2.611      0.057    12.2236    133.032     33.662  29.940116     3.4977      7.409   278.2780 7.7067e+01     2.1192      2.560      3.713    19.6219   998.3110 0.0000e+00
      2.624      0.063    12.2332    132.887     33.647  29.863279     3.8541      7.402   279.1176 7.5841e+01     1.8555      2.572      3.731    19.5983   998.3158 0.0000e+00
      2.643      0.065    12.2236    132.565     33.645  29.806413     4.0522      7.398   280.5457 7.4211e+01     1.7260      2.591      3.757    19.6033   998.3148 0.0000e+00
      2.667      0.064    12.1917    132.062     33.637  29.760094     4.0815      7.398   281.9512 7.2489e+01     1.7658      2.615      3.793    19.5638   998.3229 0.0000e+00
      2.688      0.063    12.1456    131.441     33.586  29.683904     4.1739      7.399   283.1201 7.1358e+01     1.7793      2.639      3.828    19.4709   998.3416 0.0000e+00
      2.702      0.060    12.0961    130.761     33.514  29.583129     4.3449      7.399   284.0100 7.0703e+01     1.6931      2.650      3.844    19.3671   998.3625 0.0000e+00
      2.712      0.057    12.0492    130.046     33.472  29.493363     4.4326      7.400   284.6229 6.9918e+01     1.6083      2.659      3.855    19.2826   998.3794 0.0000e+00
      2.722      0.056    12.0092    129.371     33.463  29.423352     4.4285      7.400   285.2817 6.8964e+01     1.5729      2.670      3.872    19.2261   998.3906 0.0000e+00
      2.735      0.058    11.9744    128.761     33.473  29.371049     4.3735      7.400   286.0393 6.7968e+01     1.5614      2.681      3.889    19.1893   998.3978 0.0000e+00
      2.751      0.063    11.9392    128.164     33.462  29.305053     4.2703      7.399   286.8141 6.6839e+01     1.5668      2.696      3.910    19.1430   998.4071 0.0000e+00
      2.769      0.069    11.9056    127.589     33.400  29.196376     4.2126      7.398   287.4220 6.5651e+01     1.5728      2.717      3.940    19.0571   998.4241 0.0000e+00
      2.787      0.075    11.8780    127.071     33.325  29.072179     4.2046      7.394   287.6240 6.4534e+01     1.5680      2.734      3.965    18.9560   998.4439 0.0000e+00
      2.806      0.077    11.8554    126.599     33.320  29.008867     4.1995      7.389   287.7942 6.3301e+01     1.5415      2.750      3.988    18.8661   998.4615 0.0000e+00
      2.829      0.074    11.8369    126.198     33.372  29.001852     4.2021      7.385   288.1896 6.1930e+01     1.5471      2.773      4.022    18.7829   998.4777 0.0000e+00
      2.852      0.068    11.8239    125.923     33.396  28.987296     4.2019      7.385   288.4467 6.0695e+01     1.6039      2.798      4.059    18.7048   998.4929 0.0000e+00
      2.872      0.062    11.8199    125.804     33.387  28.959725     4.1883      7.386   288.6658 5.9839e+01     1.6052      2.820      4.089    18.6186   998.5095 0.0000e+00
      2.886      0.055    11.8282    125.817     33.367  28.922265     4.1847      7.387   289.1186 5.9417e+01     1.5631      2.833      4.108    18.5237   998.5277 0.0000e+00
      2.893      0.050    11.8472    125.910     33.318  28.851583     4.2622      7.389   289.5329 5.9014e+01     1.5856      2.836      4.113    18.4368   998.5443 0.0000e+00
      2.901      0.048    11.8690    126.030     33.222  28.739574     4.4066      7.390   289.7175 5.8384e+01     1.6151      2.843      4.124    18.3836   998.5543 0.0000e+00
      2.912      0.048    11.8876    126.119     33.146  28.646564     4.4836      7.388   289.8020 5.7698e+01     1.5930      2.856      4.142    18.3652   998.5579 0.0000e+00
      2.926      0.050    11.9008    126.125     33.150  28.615255     4.4816      7.387   289.8660 5.6992e+01     1.5479      2.868      4.160    18.3449   998.5618 0.0000e+00
      2.941      0.052    11.9055    126.034     33.192  28.614775     4.4688      7.387   289.9755 5.6186e+01     1.4629      2.883      4.182    18.2921   998.5717 0.0000e+00
      2.957      0.052    11.9018    125.890     33.253  28.640707     4.4589      7.387   290.0932 5.5386e+01     1.3846      2.900      4.207    18.2452   998.5806 0.0000e+00
      2.972      0.051    11.8947    125.758     33.310  28.674964     4.4493      7.385   290.2560 5.4800e+01     1.3549      2.914      4.228    18.2162   998.5860 0.0000e+00
      2.983      0.051    11.8915    125.703     33.285  28.648267     4.4300      7.383   290.5671 5.4325e+01     1.3334      2.925      4.243    18.1561   998.5973 0.0000e+00
      2.993      0.051    11.8952    125.741     33.196  28.571700     4.3474      7.382   290.8442 5.3799e+01     1.3206      2.935      4.258    18.0954   998.6087 0.0000e+00
      3.004      0.052    11.9071    125.847     33.131  28.510578     4.2132      7.381   291.0256 5.3167e+01     1.3314      2.945      4.272    18.0526   998.6166 0.0000e+00
      3.017      0.055    11.9272    125.982     33.045  28.416833     4.1418      7.380   291.2116 5.2379e+01     1.3652      2.957      4.289    18.0339   998.6202 0.0000e+00
      3.033      0.059    11.9515    126.075     32.915  28.263025     4.1262      7.375   291.3716 5.1591e+01     1.3696      2.975      4.315    18.0279   998.6214 0.0000e+00
      3.049      0.062    11.9782    126.081     32.892  28.173597     4.0511      7.370   291.4975 5.0890e+01     1.2863      2.990      4.338    18.0301   998.6211 0.0000e+00
      3.065      0.062    11.9989    125.976     32.972  28.160294     3.9183      7.367   291.7024 5.0069e+01     1.1773      3.004      4.356    18.0335   998.6205 0.0000e+00
      3.084      0.062    12.0034    125.763     32.982  28.102068     3.8465      7.366   291.9563 4.9172e+01     1.1324      3.024      4.386    18.0000   998.6267 0.0000e+00
      3.101      0.062    11.9982    125.512     32.893  27.977088     3.8425      7.366   292.1575 4.8571e+01     1.1367      3.045      4.417    17.9484   998.6363 0.0000e+00
      3.114      0.064    11.9909    125.244     32.806  27.854589     3.8349      7.365   292.5865 4.8164e+01     1.1309      3.054      4.429    17.8346   998.6572 0.0000e+00
      3.125      0.069    11.9806    124.936     32.758  27.762918     3.8242      7.362   293.2717 4.7550e+01     1.1281      3.062      4.440    17.6826   998.6849 0.0000e+00
      3.142      0.074    11.9690    124.592     32.742  27.693443     3.8259      7.354   293.8162 4.6836e+01     1.1351      3.081      4.469    17.5879   998.7022 0.0000e+00
      3.162      0.078    11.9568    124.192     32.771  27.648961     3.8301      7.344   294.2659 4.6120e+01     1.1182      3.102      4.498    17.5268   998.7132 0.0000e+00
      3.185      0.080    11.9398    123.741     32.803  27.605671     3.8311      7.339   294.6650 4.5177e+01     1.1200      3.121      4.526    17.4495   998.7271 0.0000e+00
      3.214      0.078    11.9201    123.331     32.800  27.550611     3.8026      7.339   294.8568 4.4243e+01     1.1568      3.153      4.573    17.3716   998.7412 0.0000e+00
      3.239      0.074    11.9055    123.041     32.771  27.490729     3.7466      7.340   294.9506 4.3756e+01     1.1704      3.182      4.615    17.2982   998.7543 0.0000e+00
      3.252      0.069    11.8960    122.847     32.754  27.452608     3.7176      7.341   295.1104 4.3580e+01     1.1536      3.191      4.629    17.1822   998.7747 0.0000e+00
      3.261      0.064    11.8876    122.724     32.711  27.406880     3.7111      7.343   295.3265 4.3249e+01     1.1175      3.195      4.634    17.0583   998.7965 0.0000e+00
      3.275      0.062    11.8831    122.665     32.609  27.318497     3.7032      7.343   295.8422 4.2732e+01     1.0277      3.211      4.657    16.9849   998.8093 0.0000e+00
      3.292      0.064    11.8878    122.635     32.579  27.272203     3.6998      7.342   296.6135 4.2328e+01     0.9201      3.230      4.685    16.9363   998.8178 0.0000e+00
      3.308      0.068    11.8963    122.580     32.569  27.227782     3.7049      7.342   296.9955 4.1901e+01     0.8986      3.242      4.703    16.8922   998.8255 0.0000e+00
      3.327      0.073    11.9016    122.485     32.459  27.098585     3.7218      7.344   297.1046 4.1256e+01     0.9312      3.261      4.730    16.8800   998.8277 0.0000e+00
      3.349      0.075    11.9045    122.330     32.371  26.978927     3.7481      7.344   297.2445 4.0700e+01     0.9214      3.287      4.767    16.8992   998.8244 0.0000e+00
      3.368      0.073    11.9017    122.068     32.375  26.922932     3.7717      7.344   297.3104 4.0310e+01     0.8776      3.303      4.791    16.8648   998.8304 0.0000e+00
      3.387      0.071    11.8892    121.709     32.376  26.865582     3.7807      7.345   297.4712 3.9790e+01     0.8613      3.318      4.814    16.7898   998.8434 0.0000e+00
      3.407      0.069    11.8718    121.288     32.363  26.792991     3.7800      7.345   298.0702 3.9263e+01     0.8880      3.344      4.850    16.7457   998.8510 0.0000e+00
      3.424      0.069    11.8527    120.787     32.397  26.743047     3.7627      7.345   299.0461 3.8941e+01     0.9717      3.361      4.874    16.6788   998.8625 0.0000e+00
      3.437      0.070    11.8257    120.175     32.455  26.705716     3.7272      7.344   299.7211 3.8588e+01     1.0863      3.367      4.884    16.5707   998.8808 0.0000e+00
      3.453      0.071    11.7869    119.473     32.494  26.658726     3.7066      7.342   299.7778 3.8052e+01     1.1268      3.383      4.907    16.4848   998.8953 0.0000e+00
      3.473      0.070    11.7379    118.720     32.527  26.618906     3.7037      7.341   299.6463 3.7474e+01     1.1333      3.405      4.938    16.4062   998.9086 0.0000e+00
      3.496      0.069    11.6773    117.910     32.572  26.604830     3.7007      7.341   299.6798 3.6943e+01     1.1651      3.428      4.971    16.2749   998.9306 0.0000e+00
      3.517      0.068    11.6046    117.047     32.626  26.615353     3.6714      7.342   299.8387 3.6513e+01     1.1505      3.451      5.005    16.1318   998.9542 0.0000e+00
      3.532      0.066    11.5189    116.123     32.649  26.619213     3.6183      7.342   300.1902 3.6225e+01     1.1202      3.466      5.027    16.0122   998.9738 0.0000e+00
      3.543      0.061    11.4205    115.117     32.615  26.588042     3.5963      7.341   300.7466 3.5956e+01     1.1264      3.474      5.039    15.9055   998.9911 0.0000e+00
      3.556      0.056    11.3184    114.076     32.580  26.555667     3.6044      7.340   301.2326 3.5598e+01     1.1284      3.485      5.056    15.8283   999.0035 0.0000e+00
      3.573      0.051    11.2199    113.042     32.580  26.544982     3.6377      7.338   301.6778 3.5231e+01     1.0785      3.505      5.083    15.7740   999.0124 0.0000e+00
      3.590      0.047    11.1274    112.031     32.578  26.522288     3.6870      7.336   302.2570 3.4963e+01     0.9818      3.522      5.108    15.7533   999.0158 0.0000e+00
      3.601      0.046    11.0431    111.058     32.558  26.471570     3.7062      7.336   302.7291 3.4808e+01     0.9421      3.532      5.123    15.7575   999.0151 0.0000e+00
      3.609      0.047    10.9653    110.103     32.578  26.439251     3.7058      7.336   302.6539 3.4746e+01     0.9590      3.540      5.135    15.7545   999.0157 0.0000e+00
      3.615      0.048    10.8903    109.172     32.651  26.448686     3.6910      7.336   302.2946 3.4604e+01     0.9893      3.544      5.140    15.7410   999.0179 0.0000e+00
      3.626      0.053    10.8177    108.340     32.699  26.458700     3.6658      7.337   302.5149 3.4234e+01     1.0799      3.552      5.151    15.7057   999.0235 0.0000e+00
      3.643      0.060    10.7486    107.632     32.674  26.433403     3.6520      7.339   303.2514 3.3871e+01     1.1360      3.573      5.182    15.6576   999.0312 0.0000e+00
      3.662      0.067    10.6863    106.964     32.644  26.396584     3.6462      7.340   303.8866 3.3615e+01     1.1103      3.592      5.209    15.5792   999.0437 0.0000e+00
      3.680      0.073    10.6328    106.224     32.714  26.394169     3.6646      7.339   304.5172 3.3275e+01     1.0968      3.607      5.231    15.4845   999.0587 0.0000e+00
      3.700      0.075    10.5767    105.347     32.840  26.404134     3.7008      7.337   305.1113 3.2883e+01     1.1034      3.628      5.261    15.4347   999.0665 0.0000e+00
      3.721      0.075    10.5067    104.360     32.928  26.390063     3.7123      7.335   304.8743 3.2536e+01     1.0929      3.649      5.292    15.4480   999.0645 0.0000e+00
      3.741      0.074    10.4253    103.323     32.963  26.350822     3.6998      7.335   304.1478 3.2174e+01     1.0679      3.668      5.320    15.4625   999.0623 0.0000e+00
      3.760      0.073    10.3241    102.125     32.985  26.310246     3.6704      7.335   304.1568 3.1817e+01     1.0952      3.688      5.349    15.3605   999.0783 0.0000e+00
      3.778      0.072    10.1832    100.556     33.014  26.280043     3.6253      7.334   304.6384 3.1534e+01     1.1609      3.706      5.375    15.1845   999.1055 0.0000e+00
      3.795      0.073    10.0000     98.561     33.035  26.239351     3.5966      7.334   304.9808 3.1267e+01     1.1423      3.721      5.397    15.0594   999.1247 0.0000e+00
      3.811      0.074     9.7850     96.230     33.070  26.198821     3.5921      7.333   305.5431 3.0968e+01     1.0669      3.737      5.420    14.9629   999.1393 0.0000e+00
      3.830      0.075     9.5459     93.653     33.127  26.170575     3.5967      7.332   306.3613 3.0621e+01     1.0687      3.754      5.444    14.8742   999.1526 0.0000e+00
      3.851      0.077     9.2804     90.830     33.195  26.151510     3.5919      7.332   306.3557 3.0216e+01     1.0647      3.775      5.475    14.8006   999.1637 0.0000e+00
      3.874      0.078     8.9999     87.861     33.303  26.158540     3.5684      7.333   305.5608 2.9829e+01     0.9539      3.800      5.511    14.7172   999.1762 0.0000e+00
      3.894      0.078     8.7319     84.996     33.459  26.192041     3.5465      7.333   305.2680 2.9492e+01     0.8762      3.819      5.540    14.6135   999.1915 0.0000e+00
      3.913      0.077     8.4865     82.364     33.635  26.239265     3.5353      7.333   305.5690 2.9163e+01     0.8787      3.836      5.564    14.4938   999.2090 0.0000e+00
      3.931      0.077     8.2604     79.956     33.800  26.285315     3.5553      7.333   306.1883 2.8847e+01     0.8856      3.855      5.592    14.3894   999.2241 0.0000e+00
      3.950      0.078     8.0468     77.712     33.996  26.368089     3.6148      7.331   306.9913 2.8550e+01     0.8939      3.875      5.620    14.2798   999.2399 0.0000e+00
      3.967      0.082     7.8319     75.499     34.292  26.542130     3.6559      7.328   307.5355 2.8240e+01     0.8807      3.890      5.642    14.1368   999.2602 0.0000e+00
      3.987      0.086     7.5968     73.099     34.622  26.740063     3.6621      7.325   307.6053 2.7866e+01     0.8570      3.908      5.668    13.9970   999.2799 0.0000e+00
      4.011      0.089     7.3382     70.445     34.871  26.857925     3.7595      7.324   307.4049 2.7386e+01     0.9352      3.932      5.702    13.8767   999.2966 0.0000e+00
      4.038      0.089     7.0627     67.624     35.018  26.888570     3.9580      7.321   307.3496 2.6879e+01     1.0729      3.960      5.743    13.7682   999.3116 0.0000e+00
      4.065      0.088     6.7672     64.644     35.155  26.920155     4.0672      7.319   307.5387 2.6464e+01     1.1123      3.988      5.783    13.6952   999.3218 0.0000e+00
      4.089      0.085     6.4540     61.534     35.320  26.985955     4.0747      7.319   307.8842 2.6148e+01     1.0846      4.012      5.817    13.6277   999.3311 0.0000e+00
      4.108      0.080     6.1280     58.326     35.475  27.049641     4.0824      7.318   308.3432 2.5899e+01     1.0325      4.030      5.845    13.5112   999.3469 0.0000e+00
      4.124      0.076     5.7885     55.001     35.638  27.119117     4.0924      7.317   308.8728 2.5668e+01     0.9406      4.043      5.864    13.3822   999.3640 0.0000e+00
      4.140      0.072     5.4326     51.528     35.809  27.191473     4.0907      7.316   309.6420 2.5377e+01     0.8916      4.058      5.886    13.2775   999.3777 0.0000e+00
      4.159      0.069     5.0713     48.016     35.930  27.226543     4.0878      7.314   310.5022 2.5028e+01     0.8983      4.079      5.916    13.1955   999.3886 0.0000e+00
      4.179      0.066     4.7290     44.703     35.996  27.225844     4.0838      7.312   311.0133 2.4680e+01     0.8904      4.098      5.944    13.1230   999.3981 0.0000e+00
      4.199      0.062     4.4169     41.699     36.077  27.246417     4.0510      7.311   311.1764 2.4382e+01     0.8621      4.119      5.973    13.0462   999.4080 0.0000e+00
      4.215      0.057     4.1372     39.017     36.173  27.284904     3.9949      7.310   311.1834 2.4176e+01     0.8512      4.135      5.998    12.9655   999.4183 0.0000e+00
      4.226      0.054     3.8929     36.678     36.248  27.310481     3.9595      7.309   311.2699 2.4016e+01     0.8562      4.144      6.011    12.8819   999.4289 0.0000e+00
      4.237      0.052     3.6813     34.651     36.278  27.301849     3.9526      7.309   311.7929 2.3862e+01     0.8578      4.155      6.026    12.8095   999.4380 0.0000e+00
      4.247      0.052     3.5038     32.941     36.252  27.243950     3.9548      7.309   312.6026 2.3685e+01     0.8704      4.165      6.040    12.7555   999.4447 0.0000e+00
      4.260      0.051     3.3704     31.647     36.223  27.181399     3.9602      7.307   312.9713 2.3413e+01     0.8776      4.176      6.055    12.7091   999.4506 0.0000e+00
      4.276      0.051     3.2714     30.686     36.179  27.116502     3.9660      7.303   312.8950 2.3110e+01     0.8789      4.194      6.082    12.6694   999.4555 0.0000e+00
      4.294      0.050     3.1896     29.903     36.086  27.030260     3.9644      7.301   312.9718 2.2885e+01     0.8862      4.213      6.111    12.6295   999.4605 0.0000e+00
      4.307      0.048     3.1276     29.313     36.009  26.963414     3.9408      7.301   313.2118 2.2738e+01     0.9003      4.226      6.129    12.5764   999.4670 0.0000e+00
      4.315      0.044     3.0869     28.924     35.992  26.942700     3.9066      7.300   313.3007 2.2605e+01     0.9189      4.231      6.137    12.5113   999.4749 0.0000e+00
      4.324      0.039     3.0617     28.689     36.026  26.970145     3.8967      7.299   313.6165 2.2436e+01     0.9141      4.240      6.149    12.4623   999.4808 0.0000e+00
      4.335      0.036     3.0535     28.629     36.097  27.041469     3.9079      7.298   314.3627 2.2266e+01     0.9082      4.253      6.167    12.4468   999.4827 0.0000e+00
      4.346      0.035     3.0668     28.771     36.159  27.107201     3.9381      7.296   314.8372 2.2142e+01     0.9125      4.263      6.183    12.4385   999.4837 0.0000e+00
      4.354      0.035     3.0986     29.078     36.177  27.130477     3.9849      7.294   314.9663 2.2051e+01     0.9001      4.270      6.193    12.4208   999.4858 0.0000e+00
      4.360      0.034     3.1476     29.542     36.174  27.132579     4.0144      7.292   315.0624 2.1926e+01     0.8900      4.275      6.200    12.4161   999.4864 0.0000e+00
      4.369      0.034     3.2126     30.155     36.169  27.132613     4.0257      7.291   315.1392 2.1741e+01     0.8889      4.283      6.212    12.4539   999.4820 0.0000e+00
      4.380      0.034     3.2832     30.829     36.151  27.130890     4.0178      7.290   315.2928 2.1561e+01     0.9196      4.297      6.232    12.4891   999.4779 0.0000e+00
      4.390      0.036     3.3502     31.471     36.109  27.111769     3.9873      7.289   315.5434 2.1461e+01     0.9986      4.307      6.247    12.4934   999.4774 0.0000e+00
      4.395      0.039     3.4127     32.052     36.091  27.091767     3.9609      7.288   315.8457 2.1376e+01     1.0902      4.309      6.250    12.5016   999.4764 0.0000e+00
      4.403      0.041     3.4696     32.567     36.100  27.079373     3.9497      7.288   316.1091 2.1191e+01     1.1758      4.316      6.258    12.5000   999.4767 0.0000e+00
      4.416      0.042     3.5176     32.997     36.055  27.025333     3.9562      7.288   316.3183 2.0975e+01     1.1818      4.330      6.280    12.5136   999.4751 0.0000e+00
      4.430      0.043     3.5579     33.335     35.998  26.945913     4.0218      7.287   316.5688 2.0801e+01     1.1296      4.345      6.302    12.5544   999.4702 0.0000e+00
      4.442      0.044     3.5939     33.617     35.981  26.880408     4.1360      7.285   316.9008 2.0633e+01     1.1339      4.356      6.318    12.5368   999.4723 0.0000e+00
      4.453      0.044     3.6226     33.839     35.937  26.804243     4.2011      7.284   317.4075 2.0490e+01     1.1684      4.367      6.335    12.4946   999.4775 0.0000e+00
      4.462      0.043     3.6421     33.987     35.786  26.659403     4.2024      7.281   317.8767 2.0370e+01     1.1865      4.377      6.348    12.4876   999.4784 0.0000e+00
      4.472      0.043     3.6621     34.117     35.589  26.461446     4.1521      7.280   318.0133 2.0231e+01     1.1892      4.385      6.360    12.4373   999.4844 0.0000e+00
      4.483      0.044     3.6852     34.246     35.498  26.314004     4.0701      7.279   318.1130 2.0057e+01     1.1676      4.396      6.376    12.3421   999.4958 0.0000e+00
      4.494      0.046     3.7064     34.357     35.462  26.208899     4.0255      7.278   318.3945 1.9860e+01     1.1550      4.407      6.392    12.2776   999.5034 0.0000e+00
      4.507      0.051     3.7289     34.492     35.375  26.078739     4.0199      7.277   318.6625 1.9679e+01     1.1679      4.420      6.411    12.2587   999.5057 0.0000e+00
      4.520      0.056     3.7596     34.703     35.282  25.945568     4.0118      7.274   318.8583 1.9534e+01     1.2245      4.435      6.431    12.1955   999.5131 0.0000e+00
      4.532      0.060     3.8059     35.055     35.265  25.867502     3.9787      7.271   319.2995 1.9362e+01     1.3157      4.444      6.444    12.0547   999.5294 0.0000e+00
      4.547      0.062     3.8750     35.623     35.299  25.832635     3.9487      7.268   319.8670 1.9087e+01     1.3535      4.455      6.461    11.9417   999.5422 0.0000e+00
      4.569      0.063     3.9703     36.446     35.285  25.777690     3.9352      7.267   320.0420 1.8785e+01     1.3538      4.480      6.499    11.8603   999.5515 0.0000e+00
      4.589      0.063     4.0948     37.550     35.237  25.710640     3.8079      7.266   320.0389 1.8578e+01     1.4163      4.504      6.533    11.7669   999.5621 0.0000e+00
      4.603      0.062     4.2507     38.945     35.198  25.656311     3.5623      7.265   320.0009 1.8422e+01     1.5206      4.515      6.548    11.6700   999.5728 0.0000e+00
      4.615      0.060     4.4357     40.609     35.192  25.628306     3.4190      7.265   319.8409 1.8247e+01     1.5661      4.525      6.561    11.5803   999.5826 0.0000e+00
      4.629      0.056     4.6459     42.502     35.219  25.625762     3.4015      7.264   319.9109 1.8059e+01     1.6054      4.540      6.584    11.5179   999.5895 0.0000e+00
      4.644      0.053     4.8758     44.574     35.249  25.625533     3.3945      7.262   320.6755 1.7879e+01     1.6679      4.556      6.607    11.4780   999.5938 0.0000e+00
      4.658      0.052     5.1125     46.707     35.277  25.625515     3.3780      7.260   321.8582 1.7699e+01     1.6662      4.568      6.625    11.4422   999.5977 0.0000e+00
      4.672      0.051     5.3425     48.779     35.303  25.625515     3.3670      7.260   322.3376 1.7510e+01     1.6177      4.582      6.646    11.4088   999.6013 0.0000e+00
      4.684      0.049     5.5585     50.726     35.325  25.625517     3.3559      7.259   322.1695 1.7345e+01     1.5734      4.593      6.662    11.3774   999.6047 0.0000e+00
      4.695      0.048     5.7521     52.471     35.343  25.625527     3.3394      7.258   322.1485 1.7194e+01     1.5565      4.603      6.676    11.3453   999.6082 0.0000e+00
      4.707      0.047     5.9149     53.935     35.359  25.625623     3.2799      7.256   322.0836 1.7030e+01     1.6105      4.615      6.694    11.3165   999.6113 0.0000e+00
      4.720      0.044     6.0426     55.082     35.374  25.626662     3.1662      7.255   321.9879 1.6863e+01     1.7017      4.628      6.713    11.2905   999.6141 0.0000e+00
      4.733      0.042     6.1393     55.960     35.392  25.638077     3.1003      7.254   322.6261 1.6705e+01     1.7414      4.642      6.732    11.2665   999.6167 0.0000e+00
      4.744      0.042     6.2060     56.577     35.383  25.636752     3.0985      7.253   323.6908 1.6582e+01     1.7625      4.654      6.749    11.2509   999.6184 0.0000e+00
      4.752      0.042     6.2409     56.899     35.344  25.610656     3.1189      7.253   324.1922 1.6472e+01     1.7610      4.661      6.760    11.2340   999.6202 0.0000e+00
      4.759      0.043     6.2511     56.979     35.307  25.576315     3.1558      7.252   324.3002 1.6327e+01     1.6903      4.666      6.767    11.2146   999.6223 0.0000e+00
      4.769      0.045     6.2437     56.884     35.276  25.538723     3.1714      7.250   324.3951 1.6119e+01     1.6280      4.675      6.779    11.2121   999.6225 0.0000e+00
      4.784      0.046     6.2236     56.664     35.301  25.536768     3.1609      7.246   324.3931 1.5874e+01     1.5978      4.692      6.805    11.2267   999.6211 0.0000e+00
      4.799      0.046     6.1971     56.379     35.355  25.552658     3.1154      7.245   324.3626 1.5666e+01     1.5873      4.708      6.828    11.2342   999.6204 0.0000e+00
      4.813      0.044     6.1684     56.082     35.365  25.540493     3.0370      7.244   324.6274 1.5488e+01     1.5996      4.719      6.844    11.2199   999.6219 0.0000e+00
      4.825      0.039     6.1399     55.802     35.349  25.516539     2.9853      7.243   325.1854 1.5333e+01     1.6158      4.732      6.864    11.1982   999.6242 0.0000e+00
      4.833      0.034     6.1214     55.618     35.361  25.516779     2.9668      7.242   325.6898 1.5248e+01     1.6186      4.742      6.879    11.1709   999.6270 0.0000e+00
      4.838      0.031     6.1189     55.575     35.413  25.543387     2.9515      7.242   325.9940 1.5188e+01     1.6004      4.744      6.881    11.1324   999.6310 0.0000e+00
      4.842      0.031     6.1253     55.609     35.488  25.584487     2.9303      7.240   326.1103 1.5074e+01     1.5927      4.747      6.885    11.1018   999.6342 0.0000e+00
      4.849      0.033     6.1393     55.711     35.928  25.886821     2.9187      7.238   326.1485 1.4913e+01     1.5915      4.754      6.896    11.0890   999.6356 0.0000e+00
      4.858      0.036     6.1600     55.875     36.933  26.597750     2.9240      7.238   326.2838 1.4710e+01     1.5863      4.763      6.908    11.0796   999.6366 0.0000e+00
      4.870      0.041     6.1785     56.024     37.698  27.138093     2.8995      7.237   326.3708 1.4487e+01     1.5620      4.776      6.927    11.0636   999.6383 0.0000e+00
      4.883      0.046     6.1936     56.150     38.082  27.408008     2.8385      7.237   326.3395 1.4302e+01     1.4954      4.789      6.947    11.0442   999.6403 0.0000e+00
      4.894      0.050     6.2052     56.252     39.025  28.084763     2.8025      7.236   326.5084 1.4113e+01     1.4361      4.798      6.960    11.0230   999.6426 0.0000e+00
      4.905      0.053     6.2075     56.272     40.176  28.912443     2.7939      7.234   326.7779 1.3885e+01     1.4017      4.811      6.976    11.0039   999.6451 0.0000e+00
      4.920      0.055     6.1914     56.117     40.626  29.230509     2.7866      7.232   327.1024 1.3615e+01     1.3745      4.823      6.996    10.9901   999.6468 0.0000e+00
      4.937      0.056     6.1456     55.687     40.599  29.202113     2.7581      7.231   327.5930 1.3313e+01     1.3694      4.841      7.022    10.9794   999.6478 0.0000e+00
      4.954      0.059     6.0622     54.923     40.697  29.267067     2.7085      7.229   327.9773 1.3073e+01     1.3729      4.860      7.048    10.9788   999.6485 0.0000e+00
      4.967      0.061     5.9335     53.757     41.033  29.508232     2.6814      7.225   327.7909 1.2873e+01     1.3514      4.871      7.065    10.9828   999.6487 0.0000e+00
      4.980      0.061     5.7558     52.142     41.227  29.643373     2.6724      7.220   327.3186 1.2635e+01     1.3058      4.882      7.082    10.9738   999.6497 0.0000e+00
      4.996      0.057     5.5352     50.129     41.224  29.631998     2.6439      7.215   327.2566 1.2357e+01     1.3453      4.898      7.104    10.9591   999.6512 0.0000e+00
      5.015      0.053     5.2867     47.870     41.488  29.814849     2.5969      7.210   327.5572 1.2072e+01     1.5013      4.918      7.132    10.9511   999.6521 0.0000e+00
      5.032      0.051     5.0322     45.559     41.861  30.077498     2.5711      7.206   328.0289 1.1886e+01     1.5867      4.939      7.164    10.9561   999.6519 0.0000e+00
      5.042      0.050     4.7885     43.339     41.966  30.142598     2.5586      7.203   328.3132 1.1812e+01     1.5590      4.946      7.175    10.9545   999.6522 0.0000e+00
      5.048      0.049     4.5646     41.300     42.003  30.157783     2.4886      7.200   327.9831 1.1685e+01     1.4944      4.948      7.175    10.9335   999.6542 0.0000e+00
      5.058      0.048     4.3697     39.528     42.070  30.197629     2.3837      7.197   327.3936 1.1457e+01     1.4271      4.959      7.192    10.9280   999.6549 0.0000e+00
      5.072      0.048     4.2136     38.107     42.057  30.180181     2.3310      7.193   327.2935 1.1215e+01     1.4016      4.974      7.214    10.9279   999.6552 0.0000e+00
      5.087      0.049     4.0970     37.042     42.012  30.137181     2.3022      7.190   327.4616 1.1013e+01     1.3824      4.990      7.237    10.9096   999.6571 0.0000e+00
      5.102      0.050     4.0089     36.232     42.009  30.121892     2.1566      7.189   327.7061 1.0859e+01     1.4243      5.004      7.259    10.8948   999.6586 0.0000e+00
      5.115      0.048     3.9402     35.599     42.026  30.122215     1.9150      7.186   328.2702 1.0726e+01     1.5476      5.016      7.276    10.8878   999.6594 0.0000e+00
      5.125      0.046     3.8856     35.099     42.062  30.141070     1.7905      7.183   328.5173 1.0598e+01     1.6284      5.027      7.290    10.8790   999.6603 0.0000e+00
      5.135      0.045     3.8420     34.700     42.097  30.159498     1.7783      7.180   328.3709 1.0471e+01     1.6465      5.036      7.303    10.8659   999.6617 0.0000e+00
      5.146      0.044     3.8118     34.415     42.108  30.154657     1.7247      7.177   328.4790 1.0337e+01     1.6682      5.047      7.318    10.8494   999.6633 0.0000e+00
      5.158      0.042     3.7952     34.249     42.119  30.145984     1.6366      7.174   328.8771 1.0182e+01     1.7276      5.058      7.336    10.8313   999.6652 0.0000e+00
      5.171      0.040     3.7897     34.186     42.098  30.118071     1.5972      7.172   329.4851 1.0029e+01     1.7749      5.071      7.355    10.8242   999.6660 0.0000e+00
      5.183      0.039     3.7939     34.215     42.045  30.070970     1.5947      7.169   330.1517 9.9299e+00     1.8135      5.083      7.374    10.8241   999.6661 0.0000e+00
      5.192      0.039     3.8071     34.325     42.077  30.084116     1.5897      7.167   330.4841 9.8685e+00     1.8669      5.092      7.386    10.8068   999.6677 0.0000e+00
      5.197      0.039     3.8236     34.464     42.184  30.150101     1.6402      7.164   330.6647 9.7955e+00     2.0932      5.096      7.391    10.7817   999.6703 0.0000e+00
      5.205      0.041     3.8403     34.604     42.229  30.170770     1.7542      7.161   330.9591 9.6902e+00     2.5498      5.103      7.402    10.7670   999.6718 0.0000e+00
      5.216      0.046     3.8606     34.777     42.207  30.143653     1.8238      7.158   331.0316 9.5756e+00     2.8649      5.115      7.420    10.7592   999.6726 0.0000e+00
      5.228      0.052     3.8790     34.932     42.038  30.012583     1.8141      7.155   331.0251 9.4608e+00     2.9864      5.126      7.436    10.7475   999.6738 0.0000e+00
      5.243      0.058     3.8893     35.015     41.653  29.728169     1.6807      7.152   331.3107 9.3250e+00     3.9873      5.142      7.456    10.7336   999.6753 0.0000e+00
      5.261      0.063     3.8966     35.070     41.344  29.496774     1.4593      7.149   331.7318 9.1819e+00     5.8879      5.161      7.484    10.7205   999.6767 0.0000e+00
      5.279      0.064     3.9021     35.108     41.275  29.435669     1.3483      7.147   332.1589 9.0348e+00     6.9256      5.177      7.508    10.7064   999.6781 0.0000e+00
      5.295      0.063     3.9041     35.113     41.290  29.433516     1.3348      7.145   332.4304 8.8812e+00     7.0301      5.192      7.530    10.6940   999.6794 0.0000e+00
      5.313      0.062     3.9071     35.129     41.269  29.407281     1.2362      7.143   332.5190 8.7653e+00     7.2498      5.211      7.558    10.6825   999.6804 0.0000e+00
      5.330      0.059     3.9135     35.177     41.233  29.372254     1.0580      7.141   332.6281 8.6990e+00     7.6478      5.228      7.583    10.6711   999.6815 0.0000e+00
      5.343      0.056     3.9279     35.298     41.270  29.390713     0.9655      7.140   332.8035 8.6359e+00     7.8776      5.239      7.599    10.6563   999.6830 0.0000e+00
      5.356      0.053     3.9578     35.559     41.172  29.313198     0.9589      7.138   333.0907 8.5475e+00     7.8977      5.251      7.616    10.6392   999.6846 0.0000e+00
      5.369      0.052     4.0040     35.967     40.840  29.069519     0.9618      7.135   333.5192 8.4528e+00     8.0880      5.266      7.638    10.6258   999.6859 0.0000e+00
      5.382      0.053     4.0608     36.470     40.638  28.919030     0.9663      7.132   333.8550 8.3689e+00     8.5073      5.279      7.655    10.6152   999.6870 0.0000e+00
      5.394      0.057     4.1214     37.008     40.604  28.889585     0.9600      7.130   333.8812 8.2873e+00     8.7719      5.289      7.671    10.6044   999.6882 0.0000e+00
      5.406      0.061     4.1804     37.532     40.543  28.840392     0.9555      7.128   333.7497 8.1898e+00     8.7964      5.302      7.689    10.5956   999.6890 0.0000e+00
      5.422      0.064     4.2349     38.014     40.452  28.768383     0.9027      7.126   333.7291 8.0474e+00     8.8693      5.315      7.708    10.5873   999.6897 0.0000e+00
      5.443      0.066     4.2857     38.462     40.390  28.716888     0.7897      7.125   333.8893 7.8817e+00     9.0640      5.335      7.740    10.5778   999.6907 0.0000e+00
      5.464      0.067     4.3311     38.862     40.411  28.725361     0.7340      7.123   333.9660 7.7575e+00     9.2161      5.361      7.775    10.5723   999.6914 0.0000e+00
      5.481      0.065     4.3737     39.238     40.444  28.743919     0.7322      7.120   333.7957 7.6753e+00     9.2993      5.376      7.798    10.5663   999.6920 0.0000e+00
      5.496      0.061     4.4185     39.636     40.370  28.687464     0.7157      7.118   333.6372 7.5974e+00     9.3172      5.389      7.817    10.5557   999.6930 0.0000e+00
      5.511      0.056     4.4641     40.042     40.181  28.550355     0.7079      7.117   333.5982 7.5210e+00     9.2679      5.406      7.840    10.5458   999.6940 0.0000e+00
      5.524      0.053     4.5097     40.448     40.000  28.418599     0.7158      7.116   333.5830 7.4617e+00     9.2605      5.419      7.860    10.5388   999.6948 0.0000e+00
      5.535      0.053     4.5531     40.832     39.928  28.363409     0.7245      7.116   333.6250 7.4047e+00     9.2930      5.428      7.873    10.5321   999.6955 0.0000e+00
      5.547      0.053     4.5891     41.151     39.882  28.327189     0.7350      7.115   333.6763 7.3334e+00     9.2679      5.440      7.888    10.5268   999.6960 0.0000e+00
      5.561      0.053     4.6198     41.423     39.754  28.234468     0.7395      7.113   333.7733 7.2482e+00     9.0221      5.454      7.910    10.5253   999.6961 0.0000e+00
      5.577      0.052     4.6474     41.667     39.612  28.130605     0.7346      7.111   333.9366 7.1503e+00     8.5821      5.469      7.932    10.5221   999.6964 0.0000e+00
      5.592      0.051     4.6702     41.866     39.556  28.086567     0.7276      7.110   334.0171 7.0577e+00     8.3398      5.485      7.955    10.5154   999.6971 0.0000e+00
      5.605      0.048     4.6918     42.058     39.554  28.082688     0.7246      7.109   333.9711 6.9871e+00     8.3542      5.499      7.976    10.5107   999.6976 0.0000e+00
      5.615      0.045     4.7174     42.288     39.555  28.083704     0.7249      7.108   333.8116 6.9329e+00     8.4929      5.507      7.987    10.5097   999.6977 0.0000e+00
      5.625      0.042     4.7467     42.552     39.575  28.098855     0.7228      7.107   333.5507 6.8758e+00     8.7064      5.515      7.999    10.5061   999.6980 0.0000e+00
      5.636      0.040     4.7762     42.820     39.626  28.138980     0.7244      7.105   333.3119 6.8095e+00     8.8059      5.528      8.017    10.4980   999.6989 0.0000e+00
      5.646      0.038     4.8072     43.109     39.682  28.188166     0.7274      7.103   333.7629 6.7236e+00     8.8107      5.536      8.030    10.4958   999.6990 0.0000e+00
      5.657      0.037     4.8432     43.447     39.663  28.185984     0.7245      7.102   334.7020 6.6263e+00     8.8299      5.546      8.044    10.4986   999.6989 0.0000e+00
      5.667      0.037     4.8814     43.795     39.554  28.112604     0.7236      7.101   334.9445 6.5568e+00     8.8415      5.559      8.062    10.4983   999.6990 0.0000e+00
      5.675      0.038     4.9160     44.096     39.493  28.062317     0.7245      7.099   334.7163 6.5143e+00     8.8198      5.566      8.072    10.4994   999.6989 0.0000e+00
      5.681      0.041     4.9420     44.311     39.546  28.085556     0.7275      7.098   334.4382 6.4549e+00     8.7976      5.570      8.078    10.5132   999.6976 0.0000e+00
      5.690      0.044     4.9575     44.432     39.642  28.139770     0.7417      7.097   333.9901 6.3444e+00     8.8026      5.579      8.090    10.5328   999.6958 0.0000e+00
      5.704      0.046     4.9638     44.475     39.755  28.210212     0.7662      7.097   333.9437 6.2213e+00     8.7808      5.594      8.113    10.5399   999.6952 0.0000e+00
      5.719      0.049     4.9640     44.468     39.894  28.302775     0.7812      7.097   334.8239 6.1338e+00     8.7318      5.610      8.136    10.5290   999.6963 0.0000e+00
      5.733      0.053     4.9588     44.417     39.995  28.370646     0.7845      7.097   336.0293 6.0541e+00     8.7015      5.622      8.154    10.5064   999.6985 0.0000e+00
      5.745      0.056     4.9495     44.331     40.035  28.396332     0.7894      7.095   336.5585 5.9616e+00     8.6758      5.634      8.171    10.4873   999.7004 0.0000e+00
      5.757      0.059     4.9400     44.243     40.075  28.422997     0.7713      7.093   336.4900 5.8685e+00     8.4865      5.645      8.187    10.4762   999.7016 0.0000e+00
      5.772      0.062     4.9313     44.162     40.101  28.439255     0.7213      7.091   336.3200 5.7680e+00     8.1174      5.659      8.208    10.4691   999.7023 0.0000e+00
      5.789      0.065     4.9208     44.065     40.053  28.402553     0.6877      7.091   336.3101 5.6431e+00     7.9166      5.676      8.233    10.4651   999.7029 0.0000e+00
      5.808      0.066     4.9048     43.918     39.908  28.296478     0.6857      7.090   336.4565 5.5016e+00     7.9271      5.695      8.260    10.4626   999.7031 0.0000e+00
      5.828      0.066     4.8830     43.720     39.736  28.171892     0.7234      7.088   336.6269 5.3678e+00     7.8183      5.715      8.290    10.4604   999.7035 0.0000e+00
      5.845      0.063     4.8548     43.468     39.637  28.101712     0.7973      7.088   336.8213 5.2521e+00     7.5517      5.734      8.317    10.4573   999.7039 0.0000e+00
      5.860      0.058     4.8222     43.178     39.607  28.082431     0.8416      7.087   337.0007 5.1429e+00     7.3899      5.747      8.336    10.4537   999.7043 0.0000e+00
      5.874      0.054     4.7911     42.902     39.580  28.065661     0.8514      7.086   337.1616 5.0369e+00     7.3692      5.760      8.354    10.4490   999.7047 0.0000e+00
      5.888      0.051     4.7641     42.661     39.523  28.025849     0.8285      7.084   337.2182 4.9616e+00     7.3022      5.775      8.376    10.4450   999.7051 0.0000e+00
      5.898      0.049     4.7448     42.485     39.465  27.981762     0.7647      7.083   337.1683 4.9018e+00     7.2025      5.784      8.391    10.4462   999.7050 0.0000e+00
      5.908      0.049     4.7408     42.440     39.377  27.913292     0.7217      7.082   336.7300 4.7978e+00     7.1791      5.791      8.400    10.4487   999.7048 0.0000e+00
      5.920      0.050     4.7515     42.528     39.182  27.769000     0.7242      7.080   336.2211 4.6564e+00     7.1841      5.805      8.419    10.4520   999.7046 0.0000e+00
      5.935      0.052     4.7670     42.664     38.994  27.632983     0.7257      7.079   336.4353 4.5324e+00     7.2295      5.822      8.443    10.4557   999.7043 0.0000e+00
      5.949      0.054     4.7883     42.857     38.947  27.601108     0.7052      7.078   336.8253 4.4321e+00     7.3345      5.835      8.462    10.4510   999.7047 0.0000e+00
      5.962      0.054     4.8171     43.119     38.994  27.637388     0.6935      7.078   337.0638 4.3371e+00     7.4055      5.846      8.479    10.4408   999.7057 0.0000e+00
      5.977      0.053     4.8499     43.415     39.067  27.690963     0.6876      7.078   337.2543 4.2545e+00     7.4652      5.861      8.501    10.4314   999.7066 0.0000e+00
      5.992      0.052     4.8869     43.747     39.137  27.741304     0.6773      7.076   336.8065 4.1813e+00     7.5326      5.877      8.523    10.4275   999.7070 0.0000e+00
      6.005      0.052     4.9249     44.084     39.136  27.738484     0.6818      7.076   335.9509 4.1034e+00     7.5314      5.889      8.541    10.4319   999.7066 0.0000e+00
      6.018      0.053     4.9622     44.414     38.846  27.529972     0.6899      7.076   335.5984 4.0325e+00     7.4825      5.902      8.560    10.4366   999.7062 0.0000e+00
      6.029      0.054     5.0019     44.761     38.371  27.187037     0.6896      7.075   335.7285 3.9784e+00     7.4662      5.913      8.576    10.4386   999.7061 0.0000e+00
      6.040      0.057     5.0401     45.091     38.234  27.081602     0.6864      7.074   335.8895 3.9062e+00     7.4660      5.922      8.590    10.4398   999.7061 0.0000e+00
      6.055      0.061     5.0702     45.348     38.513  27.270294     0.6852      7.072   336.1680 3.8013e+00     7.4470      5.937      8.611    10.4371   999.7064 0.0000e+00
      6.073      0.065     5.0937     45.550     38.758  27.438227     0.6841      7.068   336.6870 3.7148e+00     7.4331      5.956      8.639    10.4330   999.7068 0.0000e+00
      6.091      0.066     5.1134     45.721     38.798  27.462474     0.6818      7.067   336.7449 3.6377e+00     7.4295      5.974      8.663    10.4269   999.7073 0.0000e+00
      6.110      0.066     5.1346     45.907     38.764  27.436574     0.6836      7.067   336.1792 3.5338e+00     7.4040      5.990      8.689    10.4135   999.7085 0.0000e+00
      6.130      0.066     5.1593     46.126     38.685  27.378854     0.7056      7.067   335.8699 3.4587e+00     7.2876      6.013      8.722    10.4003   999.7100 0.0000e+00
      6.145      0.065     5.1847     46.352     38.626  27.335603     0.7572      7.066   335.9302 3.4265e+00     7.1040      6.029      8.745    10.3927   999.7109 0.0000e+00
      6.156      0.063     5.2092     46.567     38.660  27.357742     0.7868      7.064   336.0478 3.3655e+00     6.9862      6.034      8.752    10.3885   999.7113 0.0000e+00
      6.171      0.060     5.2285     46.737     38.713  27.392750     0.7773      7.062   336.1743 3.2572e+00     6.9456      6.049      8.774    10.3863   999.7116 0.0000e+00
      6.192      0.057     5.2395     46.833     38.694  27.378206     0.7554      7.062   336.2548 3.1664e+00     6.8425      6.075      8.812    10.3845   999.7118 0.0000e+00
      6.210      0.056     5.2420     46.854     38.597  27.308779     0.7300      7.061   336.3333 3.1236e+00     6.6565      6.093      8.838    10.3825   999.7121 0.0000e+00
      6.220      0.056     5.2389     46.824     38.518  27.251216     0.7224      7.060   336.4341 3.0827e+00     6.5650      6.101      8.848    10.3797   999.7124 0.0000e+00
      6.230      0.054     5.2304     46.746     38.524  27.253221     0.7237      7.058   336.5274 3.0153e+00     6.5559      6.108      8.859    10.3770   999.7127 0.0000e+00
      6.243      0.050     5.2184     46.635     38.551  27.269577     0.7192      7.057   336.6865 2.9361e+00     6.4805      6.122      8.879    10.3752   999.7129 0.0000e+00
      6.259      0.049     5.2084     46.542     38.538  27.258645     0.7203      7.056   336.8961 2.8687e+00     6.3741      6.139      8.903    10.3741   999.7131 0.0000e+00
      6.274      0.050     5.2005     46.469     38.525  27.247933     0.7283      7.056   336.9968 2.8283e+00     6.3184      6.155      8.926    10.3724   999.7133 0.0000e+00
      6.285      0.051     5.1989     46.452     38.554  27.266938     0.7295      7.056   337.0434 2.7969e+00     6.2994      6.163      8.940    10.3693   999.7137 0.0000e+00
      6.295      0.050     5.2060     46.515     38.600  27.298094     0.7081      7.055   337.2019 2.7434e+00     6.2421      6.170      8.950    10.3658   999.7140 0.0000e+00
      6.308      0.047     5.2155     46.598     38.615  27.307416     0.6862      7.055   337.3635 2.6790e+00     6.1491      6.185      8.971    10.3636   999.7142 0.0000e+00
      6.323      0.045     5.2250     46.684     38.627  27.316204     0.6905      7.054   337.4485 2.6285e+00     6.0935      6.203      8.995    10.3615   999.7145 0.0000e+00
      6.336      0.042     5.2364     46.790     38.658  27.340901     0.6915      7.053   337.5416 2.5918e+00     6.0610      6.214      9.012    10.3593   999.7148 0.0000e+00
      6.346      0.038     5.2474     46.896     38.666  27.352239     0.6804      7.052   337.6288 2.5611e+00     6.0186      6.223      9.026    10.3577   999.7150 0.0000e+00
      6.355      0.033     5.2557     46.978     38.621  27.326399     0.6858      7.051   337.6421 2.5326e+00     6.0067      6.232      9.038    10.3564   999.7152 0.0000e+00
      6.362      0.029     5.2606     47.025     38.554  27.282266     0.6959      7.050   337.5303 2.5114e+00     6.0484      6.239      9.049    10.3554   999.7153 0.0000e+00
      6.368      0.027     5.2601     47.020     38.528  27.262762     0.6907      7.050   337.3965 2.4991e+00     6.0963      6.246      9.058    10.3582   999.7150 0.0000e+00
      6.373      0.025     5.2554     46.973     38.559  27.280917     0.6834      7.049   337.4015 2.4777e+00     6.0946      6.250      9.065    10.3674   999.7142 0.0000e+00
      6.379      0.023     5.2503     46.922     38.607  27.311432     0.6854      7.048   337.5044 2.4545e+00     6.1262      6.255      9.072    10.3762   999.7134 0.0000e+00
      6.386      0.022     5.2450     46.872     38.614  27.314481     0.6893      7.046   337.6079 2.4342e+00     6.2486      6.263      9.083    10.3807   999.7131 0.0000e+00
      6.392      0.022     5.2378     46.807     38.620  27.317777     0.6868      7.045   337.8782 2.4072e+00     6.3287      6.268      9.092    10.3793   999.7132 0.0000e+00
      6.397      0.027     5.2303     46.742     38.665  27.351283     0.6817      7.044   338.3631 2.3954e+00     6.3092      6.274      9.100    10.3727   999.7138 0.0000e+00
      6.400      0.036     5.2244     46.697     38.640  27.338926     0.6789      7.041   338.6529 2.4013e+00     6.2092      6.278      9.105    10.3684   999.7142 0.0000e+00
      6.404      0.045     5.2204     46.671     38.479  27.231821     0.6792      7.040   338.6289 2.3817e+00     6.1032      6.278      9.105    10.3669   999.7144 0.0000e+00
      6.416      0.053     5.2182     46.656     38.337  27.134863     0.6860      7.040   338.5889 2.3030e+00     6.0428      6.286      9.117    10.3651   999.7146 0.0000e+00
      6.439      0.060     5.2172     46.645     38.315  27.118313     0.6910      7.040   338.6001 2.2186e+00     6.0033      6.314      9.158    10.3653   999.7147 0.0000e+00
      6.463      0.066     5.2155     46.624     38.289  27.095153     0.6883      7.039   338.5918 2.1817e+00     5.9212      6.342      9.199    10.3726   999.7143 0.0000e+00
      6.480      0.068     5.2120     46.584     38.138  26.981724     0.6878      7.039   338.5749 2.1609e+00     5.7712      6.356      9.218    10.3852   999.7131 0.0000e+00
      6.493      0.066     5.2110     46.564     37.927  26.825405     0.6853      7.038   338.5674 2.1201e+00     5.6966      6.367      9.233    10.3904   999.7125 0.0000e+00
      6.508      0.063     5.2153     46.592     37.800  26.727780     0.6838      7.037   338.8449 2.0642e+00     5.6743      6.383      9.258    10.3871   999.7129 0.0000e+00
      6.523      0.059     5.2234     46.652     37.757  26.689570     0.6961      7.036   339.3500 2.0237e+00     5.7311      6.398      9.280    10.3806   999.7136 0.0000e+00
      6.539      0.056     5.2359     46.755     37.753  26.680611     0.7111      7.035   339.5119 1.9960e+00     5.9255      6.411      9.299    10.3720   999.7144 0.0000e+00
      6.556      0.053     5.2552     46.923     37.760  26.682898     0.7191      7.034   339.4255 1.9562e+00     6.0585      6.429      9.325    10.3626   999.7153 0.0000e+00
      6.573      0.049     5.2816     47.158     37.719  26.653778     0.7231      7.034   339.3383 1.9131e+00     6.0927      6.447      9.351    10.3521   999.7163 0.0000e+00
      6.584      0.046     5.3162     47.467     37.618  26.582292     0.7251      7.034   339.1456 1.8844e+00     6.0767      6.456      9.366    10.3406   999.7174 0.0000e+00
      6.590      0.045     5.3565     47.824     37.528  26.516455     0.7169      7.033   339.5045 1.8679e+00     5.9646      6.462      9.373    10.3315   999.7183 0.0000e+00
      6.597      0.043     5.3977     48.187     37.499  26.492180     0.7111      7.032   340.4942 1.8395e+00     5.8178      6.468      9.381    10.3288   999.7186 0.0000e+00
      6.609      0.041     5.4391     48.552     37.485  26.479107     0.7248      7.032   340.8735 1.7999e+00     5.7765      6.479      9.398    10.3296   999.7185 0.0000e+00
      6.624      0.040     5.4794     48.907     37.496  26.485281     0.7344      7.032   340.7346 1.7691e+00     5.8263      6.497      9.422    10.3295   999.7186 0.0000e+00
      6.638      0.040     5.5159     49.230     37.524  26.503371     0.7056      7.032   340.6211 1.7435e+00     5.7964      6.512      9.445    10.3273   999.7188 0.0000e+00
      6.647      0.040     5.5463     49.499     37.532  26.507503     0.6543      7.032   340.3616 1.7324e+00     5.6774      6.519      9.456    10.3217   999.7194 0.0000e+00
      6.653      0.043     5.5718     49.727     37.572  26.535236     0.6347      7.032   340.2649 1.7408e+00     5.6327      6.524      9.462    10.3166   999.7198 0.0000e+00
      6.658      0.050     5.5948     49.936     37.549  26.521479     0.6422      7.032   340.8287 1.7355e+00     5.6495      6.529      9.469    10.3143   999.7201 0.0000e+00
      6.668      0.062     5.6141     50.115     37.468  26.468052     0.6580      7.032   341.8441 1.6983e+00     5.5857      6.535      9.479    10.3118   999.7204 0.0000e+00
      6.686      0.077     5.6290     50.249     37.456  26.460247     0.6865      7.031   342.3887 1.6514e+00     5.4518      6.555      9.506    10.3103   999.7206 0.0000e+00
      6.711      0.092     5.6396     50.336     37.415  26.427115     0.7089      7.030   342.4232 1.6092e+00     5.3742      6.581      9.544    10.3086   999.7210 0.0000e+00
      6.738      0.102     5.6462     50.386     37.364  26.384658     0.7212      7.029   342.3482 1.5588e+00     5.3676      6.605      9.580    10.3116   999.7207 0.0000e+00
      6.769      0.105     5.6486     50.400     37.379  26.390998     0.7139      7.029   342.1701 1.5009e+00     5.2737      6.638      9.627    10.3207   999.7199 0.0000e+00
      6.802      0.099     5.6481     50.390     37.364  26.376892     0.6895      7.028   342.0766 1.4528e+00     5.0914      6.673      9.677    10.3218   999.7201 0.0000e+00
      6.830      0.087     5.6458     50.368     37.315  26.340987     0.6789      7.026   342.0775 1.4143e+00     4.9981      6.700      9.718    10.3141   999.7209 0.0000e+00
      6.852      0.072     5.6418     50.332     37.310  26.337525     0.6799      7.024   342.0957 1.3829e+00     4.9980      6.722      9.750    10.3047   999.7219 0.0000e+00
      6.866      0.055     5.6383     50.303     37.305  26.335029     0.6841      7.023   342.2105 1.3678e+00     4.8932      6.735      9.768    10.2979   999.7225 0.0000e+00
      6.875      0.039     5.6381     50.303     37.269  26.310807     0.6876      7.022   342.3463 1.3640e+00     4.6491      6.742      9.779    10.2941   999.7229 0.0000e+00
      6.881      0.026     5.6414     50.340     37.244  26.298432     0.6868      7.023   342.4472 1.3628e+00     4.5046      6.749      9.789    10.2927   999.7231 0.0000e+00
      6.885      0.016     5.6459     50.391     37.254  26.312290     0.6914      7.023   342.5699 1.3636e+00     4.4895      6.753      9.795    10.2932   999.7230 0.0000e+00
      6.888      0.010     5.6504     50.437     37.303  26.351485     0.6916      7.022   342.5403 1.3634e+00     4.4670      6.755      9.797    10.2941   999.7230 0.0000e+00
      6.888      0.006     5.6570     50.501     37.356  26.391680     0.6454      7.021   342.0884 1.3626e+00     4.4290      6.755      9.797    10.2952   999.7228 0.0000e+00
      6.889      0.005     5.6686     50.613     37.386  26.417635     0.5759      7.021   341.5799 1.3671e+00     4.4227      6.756      9.798    10.3005   999.7223 0.0000e+00
      6.890      0.007     5.6804     50.733     37.364  26.411537     0.5539      7.021   341.5549 1.3756e+00     4.4571      6.757      9.800    10.3133   999.7211 0.0000e+00
      6.890      0.014     5.6870     50.807     37.219  26.317967     0.5606      7.020   341.7002 1.3709e+00     4.4834      6.757      9.800    10.3197   999.7206 0.0000e+00
      6.891      0.024     5.6941     50.871     37.015  26.174492     0.5616      7.020   341.9594 1.3554e+00     4.5124      6.758      9.801    10.3197   999.7207 0.0000e+00
      6.895      0.035     5.7014     50.918     36.887  26.072522     0.5581      7.020   342.5384 1.3465e+00     4.6112      6.759      9.803    10.3270   999.7200 0.0000e+00
      6.905      0.047     5.7041     50.919     36.857  26.036687     0.5607      7.020   342.9360 1.3299e+00     4.7277      6.767      9.815    10.3396   999.7189 0.0000e+00
      6.923      0.061     5.7053     50.913     36.902  26.058399     0.5845      7.019   342.4641 1.2957e+00     4.7732      6.789      9.846    10.3577   999.7173 0.0000e+00
      6.944      0.075     5.7043     50.891     36.946  26.081274     0.6385      7.016   341.4798 1.2652e+00     4.8335      6.812      9.879    10.3625   999.7168 0.0000e+00
      6.961      0.085     5.7005     50.844     36.927  26.059479     0.7016      7.013   341.1015 1.2522e+00     4.9330      6.825      9.900    10.3386   999.7191 0.0000e+00
      6.981      0.089     5.6995     50.823     36.922  26.048634     0.7234      7.013   341.1600 1.2257e+00     4.9598      6.842      9.924    10.3155   999.7212 0.0000e+00
      7.010      0.088     5.7025     50.842     36.969  26.077033     0.7202      7.013   341.3262 1.1658e+00     4.9609      6.872      9.969    10.3049   999.7224 0.0000e+00
      7.041      0.086     5.7080     50.889     36.983  26.085633     0.7233      7.014   341.7345 1.1133e+00     4.9137      6.909     10.021    10.2942   999.7237 0.0000e+00
      7.064      0.084     5.7113     50.920     36.986  26.089175     0.7270      7.015   341.9670 1.0934e+00     4.7502      6.932     10.053    10.2821   999.7248 0.0000e+00
      7.078      0.079     5.7101     50.911     37.028  26.119855     0.7290      7.015   341.8142 1.0779e+00     4.6548      6.940     10.066    10.2718   999.7257 0.0000e+00
      7.092      0.071     5.7086     50.897     37.057  26.139374     0.7301      7.015   341.4353 1.0524e+00     4.6773      6.953     10.085    10.2650   999.7265 0.0000e+00
      7.111      0.064     5.7060     50.874     37.050  26.134858     0.7237      7.015   341.1709 1.0351e+00     4.5965      6.975     10.116    10.2629   999.7268 0.0000e+00
      7.131      0.059     5.6985     50.811     37.038  26.128685     0.7035      7.013   341.1994 1.0293e+00     4.3985      6.995     10.146    10.2666   999.7265 0.0000e+00
      7.147      0.055     5.6873     50.715     37.033  26.128185     0.6854      7.012   341.3499 1.0138e+00     4.2824      7.010     10.167    10.2689   999.7264 0.0000e+00
      7.159      0.051     5.6749     50.606     37.033  26.128820     0.6782      7.012   341.4416 9.8826e-01     4.2746      7.021     10.183    10.2654   999.7267 0.0000e+00
      7.170      0.050     5.6618     50.485     37.047  26.136357     0.6765      7.013   341.6204 9.8586e-01     4.2715      7.033     10.200    10.2662   999.7268 0.0000e+00
      7.179      0.050     5.6498     50.370     37.083  26.155862     0.6997      7.013   342.0487 9.9733e-01     4.1799      7.040     10.211    10.2717   999.7263 0.0000e+00
      7.188      0.051     5.6403     50.275     37.118  26.174328     0.7511      7.012   342.3187 9.8095e-01     4.0516      7.046     10.220    10.2744   999.7261 0.0000e+00
      7.203      0.054     5.6318     50.195     37.114  26.169296     0.7866      7.011   342.1312 9.5218e-01     3.9990      7.063     10.243    10.2762   999.7260 0.0000e+00
      7.222      0.057     5.6248     50.134     37.097  26.158451     0.7911      7.011   341.8467 9.3752e-01     4.0021      7.084     10.274    10.2747   999.7262 0.0000e+00
      7.238      0.059     5.6219     50.113     37.110  26.170091     0.7617      7.011   341.8042 9.2755e-01     3.9582      7.099     10.297    10.2646   999.7272 0.0000e+00
      7.251      0.060     5.6225     50.121     37.126  26.183158     0.7079      7.010   341.9614 9.1910e-01     3.8284      7.109     10.312    10.2542   999.7283 0.0000e+00
      7.266      0.058     5.6227     50.122     37.135  26.189566     0.6779      7.010   342.2842 8.9864e-01     3.7437      7.124     10.332    10.2508   999.7286 0.0000e+00
      7.282      0.055     5.6241     50.130     37.131  26.184124     0.6770      7.009   342.6952 8.6696e-01     3.7532      7.142     10.358    10.2536   999.7285 0.0000e+00
      7.297      0.052     5.6286     50.164     37.133  26.180799     0.7050      7.008   342.9740 8.4790e-01     3.7142      7.155     10.379    10.2595   999.7280 0.0000e+00
      7.311      0.050     5.6325     50.192     37.185  26.212794     0.7568      7.008   343.0744 8.3499e-01     3.5996      7.170     10.399    10.2604   999.7279 0.0000e+00
      7.323      0.050     5.6329     50.191     37.247  26.253759     0.7830      7.007   343.0482 8.3074e-01     3.5481      7.183     10.418    10.2607   999.7280 0.0000e+00
      7.333      0.050     5.6307     50.167     37.310  26.295444     0.7794      7.007   343.0014 8.4333e-01     3.5494      7.192     10.431    10.2583   999.7283 0.0000e+00
      7.342      0.053     5.6267     50.129     37.370  26.336147     0.7384      7.006   343.0252 8.5353e-01     3.4515      7.199     10.441    10.2497   999.7291 0.0000e+00
      7.355      0.058     5.6222     50.086     37.413  26.365238     0.6696      7.004   342.9916 8.4168e-01     3.2818      7.210     10.457    10.2433   999.7298 0.0000e+00
      7.371      0.064     5.6161     50.029     37.455  26.393405     0.6329      7.003   342.8533 8.1790e-01     3.1689      7.228     10.484    10.2396   999.7302 0.0000e+00
      7.391      0.069     5.6076     49.952     37.499  26.422934     0.6238      7.003   342.7292 7.9210e-01     3.1363      7.248     10.513    10.2373   999.7305 0.0000e+00
      7.412      0.074     5.6003     49.886     37.564  26.468492     0.6461      7.002   342.6952 7.7534e-01     3.1822      7.268     10.542    10.2354   999.7308 0.0000e+00
      7.432      0.074     5.5926     49.817     37.609  26.500147     0.6951      7.000   342.7877 7.7586e-01     3.2643      7.288     10.570    10.2328   999.7311 0.0000e+00
      7.451      0.071     5.5785     49.690     37.593  26.488457     0.7135      7.000   342.9868 7.5707e-01     3.3106      7.307     10.597    10.2304   999.7314 0.0000e+00
      7.470      0.067     5.5565     49.494     37.635  26.517468     0.7118      7.000   343.1236 7.2368e-01     3.3152      7.325     10.624    10.2288   999.7317 0.0000e+00
      7.486      0.063     5.5288     49.246     37.749  26.597149     0.7181      6.999   343.1511 7.0649e-01     3.3201      7.343     10.650    10.2285   999.7319 0.0000e+00
      7.500      0.060     5.4980     48.971     37.793  26.627101     0.7379      6.998   343.1461 6.9896e-01     3.2712      7.356     10.669    10.2284   999.7320 0.0000e+00
      7.514      0.060     5.4667     48.692     37.791  26.625839     0.7694      6.997   342.9776 6.9959e-01     3.1508      7.368     10.686    10.2279   999.7320 0.0000e+00
      7.527      0.061     5.4360     48.420     37.818  26.645334     0.7857      6.997   342.7491 6.9338e-01     3.0773      7.380     10.705    10.2271   999.7322 0.0000e+00
      7.541      0.063     5.4080     48.171     37.856  26.672489     0.7875      6.997   342.6204 6.7053e-01     3.0698      7.394     10.724    10.2260   999.7324 0.0000e+00
      7.558      0.067     5.3811     47.931     37.896  26.700387     0.7741      6.996   342.5400 6.5529e-01     3.0599      7.411     10.749    10.2250   999.7326 0.0000e+00
      7.577      0.070     5.3523     47.673     37.938  26.728867     0.7454      6.994   342.6372 6.5422e-01     2.9908      7.431     10.778    10.2242   999.7327 0.0000e+00
      7.597      0.070     5.3252     47.429     37.989  26.763064     0.7263      6.993   343.1077 6.5046e-01     2.8898      7.450     10.805    10.2257   999.7327 0.0000e+00
      7.617      0.070     5.2977     47.182     38.038  26.796644     0.7167      6.991   343.7547 6.3425e-01     2.8543      7.471     10.836    10.2278   999.7326 0.0000e+00
      7.635      0.070     5.2682     46.917     38.069  26.817648     0.7337      6.991   344.0923 6.2030e-01     2.8898      7.489     10.861    10.2269   999.7328 0.0000e+00
      7.649      0.069     5.2402     46.667     38.084  26.826689     0.7749      6.990   344.0064 6.1980e-01     2.9260      7.500     10.878    10.2246   999.7331 0.0000e+00
      7.664      0.068     5.2128     46.425     38.105  26.842508     0.7902      6.989   343.6624 6.1504e-01     2.9311      7.513     10.897    10.2222   999.7334 0.0000e+00
      7.683      0.068     5.1852     46.181     38.159  26.882025     0.7807      6.988   343.3751 6.0292e-01     2.9191      7.535     10.929    10.2207   999.7336 0.0000e+00
      7.703      0.068     5.1610     45.966     38.218  26.923826     0.7550      6.987   343.4580 5.9241e-01     3.0101      7.556     10.960    10.2199   999.7338 0.0000e+00
      7.721      0.066     5.1398     45.775     38.282  26.967255     0.7141      6.985   344.2348 5.8720e-01     3.2117      7.571     10.980    10.2182   999.7341 0.0000e+00
      7.738      0.063     5.1174     45.572     38.369  27.026451     0.6933      6.984   345.3682 5.7875e-01     3.3250      7.588     11.006    10.2184   999.7341 0.0000e+00
      7.755      0.062     5.0967     45.383     38.432  27.068552     0.6946      6.983   345.8906 5.5657e-01     3.3307      7.607     11.033    10.2217   999.7339 0.0000e+00
      7.769      0.062     5.0800     45.232     38.473  27.095615     0.7032      6.982   345.8187 5.4962e-01     3.3472      7.620     11.052    10.2228   999.7339 0.0000e+00
      7.780      0.066     5.0650     45.098     38.571  27.163333     0.7195      6.982   345.6172 5.5709e-01     3.3595      7.628     11.064    10.2201   999.7342 0.0000e+00
      7.793      0.071     5.0502     44.965     38.698  27.252874     0.7267      6.981   345.5190 5.4705e-01     3.3156      7.640     11.081    10.2162   999.7347 0.0000e+00
      7.813      0.076     5.0348     44.827     38.753  27.290008     0.7291      6.979   345.6640 5.2924e-01     3.2760      7.660     11.110    10.2127   999.7351 0.0000e+00
      7.838      0.079     5.0187     44.680     38.764  27.295085     0.7311      6.977   346.0793 5.1601e-01     3.3062      7.686     11.147    10.2100   999.7355 0.0000e+00
      7.863      0.079     5.0020     44.529     38.885  27.377697     0.7000      6.976   346.5831 5.0505e-01     3.5169      7.713     11.185    10.2091   999.7357 0.0000e+00
      7.886      0.075     4.9843     44.369     39.100  27.527510     0.6564      6.974   346.8509 5.0235e-01     3.8579      7.737     11.221    10.2099   999.7358 0.0000e+00
      7.904      0.068     4.9641     44.188     39.271  27.647193     0.6373      6.973   346.9945 5.0537e-01     4.0203      7.753     11.245    10.2085   999.7360 0.0000e+00
      7.918      0.059     4.9411     43.983     39.412  27.746169     0.6246      6.972   347.1148 4.9918e-01     4.0049      7.765     11.262    10.2044   999.7365 0.0000e+00
      7.931      0.053     4.9160     43.760     39.539  27.835963     0.6594      6.971   347.1004 4.8583e-01     3.9995      7.779     11.281    10.2010   999.7368 0.0000e+00
      7.942      0.049     4.8898     43.526     39.732  27.971521     0.7457      6.970   346.7340 4.7741e-01     4.0219      7.789     11.297    10.1991   999.7372 0.0000e+00
      7.953      0.049     4.8600     43.261     40.027  28.179671     0.7918      6.968   346.2989 4.7447e-01     4.0468      7.798     11.311    10.1979   999.7374 0.0000e+00
      7.964      0.052     4.8213     42.916     40.230  28.322343     0.7928      6.967   346.3999 4.7223e-01     4.0378      7.810     11.327    10.1977   999.7375 0.0000e+00
      7.975      0.055     4.7741     42.496     40.290  28.364136     0.7925      6.966   346.6645 4.6604e-01     4.0116      7.821     11.344    10.1981   999.7376 0.0000e+00
      7.990      0.058     4.7223     42.036     40.565  28.558091     0.7968      6.964   346.9172 4.4533e-01     4.0245      7.833     11.361    10.1982   999.7376 0.0000e+00
      8.009      0.061     4.6652     41.529     41.396  29.144622     0.7930      6.962   347.2182 4.1540e-01     4.0295      7.854     11.391    10.1977   999.7379 0.0000e+00
      8.027      0.065     4.6009     40.960     42.425  29.872108     0.7810      6.960   346.6893 3.9638e-01     4.0067      7.876     11.423    10.1975   999.7381 0.0000e+00
      8.041      0.069     4.5304     40.338     43.042  30.310829     0.7649      6.959   345.5135 3.9595e-01     4.0111      7.884     11.436    10.1978   999.7382 0.0000e+00
      8.056      0.071     4.4554     39.676     43.145  30.388108     0.7450      6.957   345.0474 3.9723e-01     4.0498      7.897     11.453    10.1985   999.7381 0.0000e+00
      8.076      0.071     4.3759     38.971     43.013  30.298844     0.7320      6.955   345.1838 3.9044e-01     4.0813      7.920     11.487    10.1993   999.7385 0.0000e+00
      8.098      0.070     4.2916     38.222     42.936  30.246838     0.7196      6.954   345.5277 3.8549e-01     4.0645      7.942     11.519    10.2020   999.7389 0.0000e+00
      8.118      0.069     4.1979     37.389     43.053  30.330404     0.7081      6.951   346.1078 3.7913e-01     4.0430      7.961     11.546    10.2081   999.7386 0.0000e+00
      8.137      0.068     4.0876     36.406     43.452  30.611221     0.7051      6.947   346.3464 3.7224e-01     4.0512      7.979     11.573    10.2150   999.7380 0.0000e+00
      8.152      0.066     3.9599     35.269     44.061  31.040472     0.7002      6.944   345.9179 3.6957e-01     4.0647      7.996     11.596    10.2195   999.7376 0.0000e+00
      8.163      0.064     3.8201     34.027     44.561  31.395732     0.6924      6.941   345.3150 3.6896e-01     4.0766      8.005     11.609    10.2215   999.7374 0.0000e+00
      8.177      0.064     3.6816     32.797     44.674  31.479909     0.6895      6.938   345.2515 3.6385e-01     4.0629      8.016     11.626    10.2218   999.7375 0.0000e+00
      8.197      0.065     3.5570     31.689     44.409  31.296749     0.6743      6.936   345.5813 3.5535e-01     4.1283      8.039     11.659    10.2211   999.7378 0.0000e+00
      8.217      0.068     3.4480     30.719     44.107  31.084918     0.6471      6.933   345.8607 3.5208e-01     4.3432      8.061     11.691    10.2211   999.7382 0.0000e+00
      8.233      0.070     3.3494     29.839     43.918  30.949351     0.6376      6.931   346.0473 3.4703e-01     4.4987      8.073     11.710    10.2245   999.7381 0.0000e+00
      8.248      0.069     3.2566     29.011     43.710  30.799849     0.6378      6.928   346.3748 3.2891e-01     4.5000      8.087     11.729    10.2304   999.7377 0.0000e+00
      8.268      0.065     3.1729     28.262     43.535  30.673356     0.6148      6.926   346.8963 3.1074e-01     4.5235      8.108     11.759    10.2355   999.7372 0.0000e+00
      8.289      0.063     3.1014     27.624     43.109  30.371795     0.5761      6.924   347.1897 3.0355e-01     4.6185      8.131     11.792    10.2370   999.7370 0.0000e+00
      8.305      0.063     3.0408     27.084     42.145  29.691886     0.5596      6.922   347.1694 2.9617e-01     4.6651      8.147     11.816    10.2334   999.7375 0.0000e+00
      8.317      0.064     2.9916     26.644     41.239  29.051864     0.5627      6.919   347.2524 2.8892e-01     4.7264      8.156     11.830    10.2291   999.7378 0.0000e+00
      8.327      0.064     2.9604     26.362     40.962  28.851729     0.5624      6.917   347.7636 2.8391e-01     5.2288      8.163     11.839    10.2263   999.7381 0.0000e+00
      8.342      0.064     2.9531     26.291     41.162  28.985278     0.5558      6.915   348.6178 2.7828e-01     6.0866      8.177     11.860    10.2237   999.7383 0.0000e+00
      8.364      0.066     2.9719     26.455     41.305  29.080303     0.5521      6.913   349.2351 2.7708e-01     6.5451      8.203     11.897    10.2240   999.7379 0.0000e+00
      8.386      0.069     3.0244     26.920     41.265  29.048891     0.5530      6.912   349.2046 2.7619e-01     6.6429      8.227     11.933    10.2235   999.7378 0.0000e+00
      8.401      0.071     3.1143     27.717     41.362  29.113084     0.5491      6.910   348.9376 2.6809e-01     7.4979      8.241     11.952    10.2158   999.7384 0.0000e+00
      8.415      0.069     3.2353     28.790     41.524  29.221947     0.5483      6.908   348.8456 2.6531e-01     9.1160      8.249     11.965    10.2049   999.7396 0.0000e+00
      8.433      0.065     3.3779     30.056     41.619  29.286462     0.5514      6.907   348.7809 2.6546e-01    10.0180      8.268     11.993    10.1988   999.7403 0.0000e+00
      8.455      0.065     3.5289     31.399     41.761  29.385507     0.5605      6.907   348.6709 2.5896e-01    10.1455      8.295     12.030    10.1960   999.7406 0.0000e+00
      8.472      0.068     3.6743     32.692     42.060  29.594609     0.5632      6.907   348.7209 2.5347e-01    10.5919      8.311     12.054    10.1906   999.7413 0.0000e+00
      8.483      0.070     3.8025     33.829     42.425  29.847648     0.5314      6.906   348.7831 2.4948e-01    11.3507      8.318     12.064    10.1841   999.7419 0.0000e+00
      8.498      0.072     3.9021     34.712     42.604  29.970298     0.4970      6.905   348.6480 2.4571e-01    11.7173      8.330     12.083    10.1805   999.7423 0.0000e+00
      8.520      0.074     3.9631     35.253     42.647  29.998840     0.4944      6.904   348.3779 2.5121e-01    11.7478      8.355     12.118    10.1813   999.7424 0.0000e+00
      8.543      0.076     3.9841     35.438     42.744  30.065835     0.5089      6.904   348.0134 2.5829e-01    11.7850      8.379     12.152    10.1802   999.7427 0.0000e+00
      8.564      0.076     3.9693     35.306     42.678  30.018866     0.5761      6.903   347.7677 2.4348e-01    11.7405      8.398     12.180    10.1745   999.7435 0.0000e+00
      8.584      0.072     3.9215     34.881     42.295  29.748209     0.7005      6.902   347.6437 2.2225e-01    11.6032      8.419     12.210    10.1704   999.7440 0.0000e+00
      8.603      0.067     3.8491     34.235     41.975  29.521863     0.7737      6.902   347.3756 2.2336e-01    11.5008      8.438     12.239    10.1682   999.7442 0.0000e+00
      8.618      0.062     3.7615     33.455     41.861  29.439555     0.7760      6.901   347.1066 2.3642e-01    11.4531      8.452     12.260    10.1666   999.7446 0.0000e+00
      8.630      0.056     3.6647     32.591     41.791  29.387556     0.7195      6.899   347.0588 2.3225e-01    11.0265      8.462     12.274    10.1660   999.7447 0.0000e+00
      8.643      0.050     3.5706     31.751     41.814  29.400773     0.6190      6.897   347.0561 2.1494e-01    10.2104      8.475     12.292    10.1655   999.7445 0.0000e+00
      8.658      0.046     3.4898     31.031     42.009  29.535904     0.5666      6.896   346.9874 2.0955e-01     9.7463      8.493     12.318    10.1642   999.7446 0.0000e+00
      8.670      0.046     3.4277     30.476     42.412  29.815804     0.5631      6.895   347.1752 2.1584e-01     9.6424      8.505     12.336    10.1624   999.7449 0.0000e+00
      8.677      0.051     3.3882     30.122     43.300  30.437234     0.5510      6.893   347.6053 2.2085e-01     9.1504      8.509     12.342    10.1584   999.7452 0.0000e+00
      8.684      0.061     3.3717     29.974     44.675  31.401982     0.5241      6.892   347.7139 2.1999e-01     8.2543      8.515     12.351    10.1540   999.7455 0.0000e+00
      8.696      0.072     3.3739     29.990     45.930  32.279152     0.5068      6.890   347.5412 2.1776e-01     7.7225      8.524     12.364    10.1518   999.7459 0.0000e+00
      8.716      0.082     3.3896     30.121     47.220  33.174052     0.5066      6.889   347.3243 2.0285e-01     7.6356      8.542     12.390    10.1480   999.7465 0.0000e+00
      8.747      0.091     3.4109     30.300     49.190  34.543015     0.5215      6.888   347.0712 1.7690e-01     7.5315      8.578     12.441    10.1440   999.7472 0.0000e+00
      8.781      0.094     3.4179     30.350     51.758  36.328085     0.5481      6.886   347.4919 1.6650e-01     7.3155      8.615     12.494    10.1445   999.7480 0.0000e+00
      8.807      0.092     3.3883     30.076     54.075  37.937081     0.5600      6.883   348.3674 1.6927e-01     7.1879      8.638     12.529    10.1399   999.7489 0.0000e+00
      8.827      0.086     3.3108     29.379     55.271  38.762943     0.5528      6.880   348.5365 1.6652e-01     7.2013      8.657     12.556    10.1260   999.7506 0.0000e+00
      8.846      0.078     3.1747     28.165     55.553  38.949936     0.5476      6.878   348.3325 1.5464e-01     7.2807      8.676     12.583    10.1104   999.7528 0.0000e+00
      8.863      0.071     2.9662     26.310     55.538  38.928353     0.5489      6.876   347.8790 1.4728e-01     7.4261      8.692     12.607    10.0923   999.7555 0.0000e+00
      8.879      0.067     2.6787     23.754     55.488  38.882871     0.5512      6.873   347.0972 1.4739e-01     7.4851      8.707     12.628    10.0744   999.7582 0.0000e+00
      8.896      0.065     2.3128     20.505     55.538  38.907860     0.5580      6.869   347.2259 1.4271e-01     7.4365      8.723     12.653    10.0627   999.7596 0.0000e+00
      8.914      0.065     1.8844     16.705     55.556  38.913071     0.5619      6.864   348.3168 1.3145e-01     7.4294      8.742     12.680    10.0539   999.7604 0.0000e+00
      8.931      0.067     1.4309     12.683     55.427  38.818905     0.5464      6.859   349.1011 1.2461e-01     7.4978      8.759     12.704    10.0444   999.7613 0.0000e+00
      8.946      0.071     0.9901      8.776     55.467  38.848497     0.5255      6.852   349.2232 1.2463e-01     7.6068      8.772     12.723    10.0343   999.7623 0.0000e+00
      8.961      0.076     0.5886      5.217     55.978  39.207383     0.5180      6.847   349.1912 1.2703e-01     7.6667      8.786     12.743    10.0250   999.7632 0.0000e+00
      8.980      0.082     0.2428      2.152     56.734  39.730061     0.5168      6.842   349.2307 1.2886e-01     7.6649      8.806     12.772    10.0178   999.7640 0.0000e+00
      9.003      0.088    -0.0313     -0.278     57.351  40.152895     0.5274      6.837   349.1852 1.2643e-01     7.8148      8.828     12.803    10.0135   999.7643 0.0000e+00
      9.028      0.091    -0.2170     -1.924     57.782  40.447206     0.5509      6.833   349.2423 1.2416e-01     8.1353      8.852     12.839    10.0172   999.7640 0.0000e+00
      9.056      0.089    -0.3165     -2.804     58.132  40.685589     0.5678      6.829   349.6635 1.2549e-01     8.3283      8.881     12.881    10.0216   999.7641 0.0000e+00
      9.082      0.084    -0.3507     -3.106     58.687  41.067038     0.5659      6.825   350.0610 1.2687e-01     8.3780      8.908     12.920    10.0130   999.7653 0.0000e+00
      9.105      0.078    -0.3437     -3.044     59.593  41.694326     0.5546      6.821   349.1451 1.2542e-01     8.6059      8.930     12.953    10.0026   999.7665 0.0000e+00
      9.121      0.072    -0.3129     -2.772     60.379  42.238472     0.5521      6.818   347.1941 1.2390e-01     9.0193      8.946     12.976     9.9983   999.7671 0.0000e+00
      9.134      0.067    -0.2656     -2.353     60.853  42.566922     0.5618      6.814   345.7444 1.2384e-01     9.2467      8.957     12.991     9.9921   999.7677 0.0000e+00
      9.148      0.066    -0.2095     -1.856     61.831  43.252848     0.5851      6.808   344.3494 1.2385e-01     9.4212      8.969     13.008     9.9852   999.7685 0.0000e+00
      9.163      0.069    -0.1560     -1.382     63.521  44.436238     0.7306      6.803   342.0294 1.2380e-01    11.1294      8.986     13.033     9.9803   999.7695 0.0000e+00
      9.181      0.074    -0.1116     -0.988     64.876  45.382010     0.9846      6.799   337.4824 1.2378e-01    14.2034      9.004     13.060     9.9744   999.7705 0.0000e+00
      9.200      0.078    -0.0741     -0.656     65.752  45.988597     1.1170      6.795   330.3271 1.2375e-01    15.9132      9.020     13.084     9.9710   999.7708 0.0000e+00
      9.224      0.078    -0.0401     -0.354     67.219  47.007632     1.1347      6.790   323.4855 1.2369e-01    16.3009      9.045     13.118     9.9742   999.7709 0.0000e+00
      9.250      0.074    -0.0102     -0.090     69.259  48.430866     1.2503      6.785   318.9460 1.2369e-01    18.4002      9.074     13.160     9.9773   999.7716 0.0000e+00
      9.271      0.066     0.0162      0.143     70.303  49.161011     1.4578      6.781   315.7932 1.2377e-01    22.2212      9.095     13.189     9.9749   999.7725 0.0000e+00
      9.285      0.056     0.0385      0.341     69.946  48.913041     1.5625      6.778   313.0707 1.2381e-01    24.3207      9.106     13.207     9.9689   999.7732 0.0000e+00
      9.296      0.046     0.0559      0.496     69.780  48.798912     1.5615      6.775   310.3769 1.2377e-01    24.5155      9.117     13.222     9.9631   999.7740 0.0000e+00
      9.305      0.038     0.0706      0.626     70.047  48.987810     1.5588      6.772   307.4862 1.2375e-01    24.4453      9.127     13.236     9.9605   999.7754 0.0000e+00
      9.312      0.037     0.0831      0.736     69.571  48.656397     1.5222      6.768   304.5337 1.2377e-01    23.4719      9.133     13.246     9.9607   999.7759 0.0000e+00
      9.316      0.040     0.0936      0.829     69.856  48.856713     1.4482      6.764   301.7805 1.2375e-01    21.7256      9.135     13.250     9.9623   999.7753 0.0000e+00
      9.324      0.044     0.1030      0.912     72.144  50.456893     1.4094      6.760   299.0628 1.2367e-01    20.7994      9.140     13.258     9.9637   999.7750 0.0000e+00
      9.339      0.048     0.1128      0.999     75.803  53.014087     1.4005      6.756   296.2808 1.2366e-01    20.7939      9.157     13.281     9.9652   999.7756 0.0000e+00
      9.359      0.054     0.1243      1.101     81.378  56.906798     1.4094      6.750   293.5255 1.2372e-01    21.5924      9.178     13.313     9.9667   999.7750 0.0000e+00
      9.374      0.059     0.1342      1.188     87.417  61.117342     1.4469      6.744   291.3022 1.2372e-01    23.0487      9.196     13.337     9.9673   999.7748 0.0000e+00
      9.385      0.064     0.1406      1.244     91.589  64.017714     1.4726      6.737   289.8765 1.2371e-01    23.8182      9.203     13.347     9.9675   999.7761 0.0000e+00
      9.397      0.065     0.1463      1.294     94.601  66.108365     1.4776      6.729   288.0754 1.2373e-01    23.9479      9.212     13.362     9.9669   999.7770 0.0000e+00
      9.416      0.065     0.1523      1.347     98.177  68.597049     1.5162      6.722   285.6996 1.2369e-01    24.9120      9.233     13.392     9.9639   999.7797 0.0000e+00
      9.438      0.067     0.1583      1.400    103.040  71.984602     1.5926      6.714   283.9524 1.2368e-01    26.6922      9.258     13.427     9.9565   999.7831 0.0000e+00
      9.457      0.068     0.1610      1.425    107.951  75.402757     1.6389      6.706   282.7806 1.2368e-01    27.6768      9.277     13.455     9.9456   999.7853 0.0000e+00
      9.472      0.068     0.1594      1.410    112.236  78.384793     1.6514      6.696   281.2546 1.2365e-01    27.8043      9.289     13.472     9.9372   999.7870 0.0000e+00
      9.487      0.065     0.1574      1.392    116.816  81.581651     1.6306      6.685   279.5258 1.2367e-01    28.2003      9.302     13.491     9.9329   999.7885 0.0000e+00
      9.505      0.063     0.1564      1.383    120.576  84.221331     1.5695      6.674   278.1402 1.2377e-01    28.8931      9.321     13.521     9.9293   999.7909 0.0000e+00
      9.522      0.062     0.1541      1.364    122.172  85.362473     1.5284      6.664   276.8903 1.2377e-01    29.2657      9.339     13.545     9.9225   999.7936 0.0000e+00
      9.537      0.058     0.1508      1.335    122.263  85.453705     1.5146      6.655   275.4262 1.2368e-01    29.3306      9.351     13.562     9.9153   999.7953 0.0000e+00
      9.553      0.052     0.1475      1.305    121.686  85.069933     1.4731      6.645   273.6019 1.2367e-01    29.4152      9.368     13.587     9.9138   999.7976 0.0000e+00
      9.569      0.047     0.1451      1.284    121.552  84.985398     1.4166      6.635   271.0939 1.2368e-01    29.5351      9.387     13.614     9.9199   999.7988 0.0000e+00
      9.580      0.047     0.1461      1.293    122.852  85.895003     1.3936      6.623   267.6448 1.2372e-01    29.6004      9.397     13.630     9.9328   999.7979 0.0000e+00
      9.585      0.051     0.1478      1.308    124.842  87.286933     1.3948      6.608   264.2506 1.2377e-01    29.5818      9.400     13.634     9.9455   999.7969 0.0000e+00
      9.590      0.056     0.1477      1.308    125.860  88.006898     1.4133      6.594   262.0611 1.2373e-01    29.4418      9.402     13.636     9.9541   999.7958 0.0000e+00
      9.603      0.059     0.1471      1.302    125.805  87.982062     1.4446      6.581   260.6161 1.2369e-01    29.2185      9.411     13.650     9.9574   999.7953 0.0000e+00
      9.628      0.060     0.1458      1.291    125.911  88.068512     1.4615      6.571   259.2553 1.2369e-01    29.1102      9.441     13.693     9.9563   999.7961 0.0000e+00
      9.656      0.058     0.1435      1.271    126.217  88.288550     1.4614      6.560   258.0831 1.2371e-01    29.1160      9.474     13.741     9.9555   999.7973 0.0000e+00
      9.673      0.052     0.1410      1.249    126.211  88.287966     1.4510      6.550   257.0257 1.2375e-01    29.1245      9.490     13.764     9.9584   999.7976 0.0000e+00
      9.680      0.041     0.1405      1.245    125.884  88.061460     1.4318      6.541   255.6768 1.2370e-01    29.2448      9.493     13.769     9.9659   999.7966 0.0000e+00
      9.684      0.029     0.1408      1.247    125.655  87.904440     1.4111      6.533   253.9915 1.2370e-01    29.4888      9.497     13.774     9.9712   999.7963 0.0000e+00
      9.687      0.021     0.1406      1.245    126.302  88.362201     1.4010      6.526   252.2210 1.2376e-01    29.6173      9.500     13.779     9.9725   999.7964 0.0000e+00
      9.691      0.017     0.1408      1.247    127.772  89.396082     1.3960      6.518   250.4461 1.2374e-01    29.6186      9.503     13.784     9.9740   999.7963 0.0000e+00
      9.694      0.017     0.1388      1.230    129.676  90.731760     1.3676      6.512   248.6214 1.2371e-01    29.7019      9.506     13.789     9.9749   999.7961 0.0000e+00
      9.699      0.018     0.1364      1.208    132.447  92.674054     1.3186      6.508   246.8500 1.2374e-01    29.9035      9.512     13.796     9.9755   999.7957 0.0000e+00
      9.704      0.018     0.1356      1.201    134.742  94.294217     1.2884      6.504   245.2895 1.2375e-01    30.0241      9.517     13.804     9.9781   999.7958 0.0000e+00
      9.710      0.018     0.1347      1.194    134.489  94.153122     1.2795      6.501   243.7776 1.2375e-01    30.0128      9.522     13.811     9.9806   999.7964 0.0000e+00
      9.715      0.017     0.1351      1.198    132.979  93.132752     1.2634      6.498   242.2502 1.2375e-01    29.8976      9.528     13.819     9.9823   999.7967 0.0000e+00
      9.720      0.014     0.1363      1.209    131.452  92.078307     1.2319      6.495   240.7605 1.2374e-01    29.7133      9.532     13.826     9.9820   999.7979 0.0000e+00
      9.724      0.012     0.1361      1.207    129.932  91.015187     1.2111      6.493   239.6170 1.2373e-01    29.6196      9.536     13.831     9.9834   999.7992 0.0000e+00
      9.726      0.009     0.1352      1.199    128.964  90.335091     1.2119      6.490   239.0076 1.2375e-01    29.5839      9.538     13.833    10.0016   999.7970 0.0000e+00
      9.727      0.006     0.1352      1.199    128.352  89.901725     1.2072      6.487   238.4686 1.2370e-01    29.6093      9.538     13.834    10.0205   999.7947 0.0000e+00
      9.728      0.004     0.1352      1.199    127.645  89.403066     1.1971      6.485   238.0055 1.2359e-01    29.7294      9.540     13.836    10.0221   999.7942 0.0000e+00
      9.729      0.003     0.1346      1.194    126.636  88.697142     1.1940      6.484   237.4513 1.2356e-01    29.7916      9.541     13.838    10.0218   999.7934 0.0000e+00
      9.729      0.002     0.1342      1.190    125.072  87.603162     1.1959      6.484   236.3287 1.2359e-01    29.8046      9.541     13.838    10.0216   999.7932 0.0000e+00
      9.730      0.002     0.1334      1.183    123.567  86.548582     1.2198      6.482   234.8429 1.2369e-01    29.8862      9.542     13.839    10.0183   999.7933 0.0000e+00
      9.730      0.002     0.1318      1.169    123.243  86.318739     1.2570      6.480   233.5105 1.2382e-01    30.0243      9.542     13.839    10.0178   999.7930 0.0000e+00
      9.730      0.002     0.1308      1.159    123.473  86.478665     1.2730      6.480   232.9520 1.2378e-01    30.0981      9.542     13.839    10.0175   999.7928 0.0000e+00
      9.731 -9.990e-29 -9.990e-29 -9.990e-29 -9.990e-29 -9.990e-29 -9.990e-29 -9.990e-29 -9.990e-29 1.2370e-01 -9.990e-29      9.543     13.840    10.0194   999.7920 0.0000e+00
      9.732 -9.990e-29 -9.990e-29 -9.990e-29 -9.990e-29 -9.990e-29 -9.990e-29 -9.990e-29 -9.990e-29 1.2376e-01 -9.990e-29      9.544     13.842    10.0192   999.7912 0.0000e+00
      9.732 -9.990e-29 -9.990e-29 -9.990e-29 -9.990e-29 -9.990e-29 -9.990e-29 -9.990e-29 -9.990e-29 1.2378e-01 -9.990e-29      9.544     13.842    10.0165   999.7915 0.0000e+00
      9.732 -9.990e-29 -9.990e-29 -9.990e-29 -9.990e-29 -9.990e-29 -9.990e-29 -9.990e-29 -9.990e-29 1.2374e-01 -9.990e-29      9.544     13.842    10.0169   999.7919 0.0000e+00
