* Sea-Bird SBE19plus  Data File:
* FileName = C:\DATA\081919_fcr_0004.hex
* Software version 2.8.0.119 SB_Terminal.dll
* Temperature SN = 7809
* Conductivity SN = 7809
* System UpLoad Time = Aug 20 2019 10:49:01
* <ApplicationData>
* <Seaterm232>
* <SoftwareVersion>2.8.0.119</SoftwareVersion>
* <BuildDate>07-Nov-2018</BuildDate>
* </Seaterm232>
* </ApplicationData>
* cast   4 19 Aug 2019 11:33:21 samples 1648 to 2244, avg = 1, stop = mag switch
# nquan = 16
# nvalues = 537                         
# units = specified
# name 0 = depFM: Depth [fresh water, m]
# name 1 = dz/dtM: Descent Rate [m/s]
# name 2 = sbeox0Mg/L: Oxygen, SBE 43 [mg/l]
# name 3 = sbeox0PS: Oxygen, SBE 43 [% saturation]
# name 4 = specc: Specific Conductance [uS/cm]
# name 5 = c0uS/cm: Conductivity [uS/cm]
# name 6 = flECO-AFL: Fluorescence, WET Labs ECO-AFL/FL [mg/m^3]
# name 7 = ph: pH
# name 8 = orp: Oxidation Reduction Potential [mV]
# name 9 = par/sat/log: PAR/Logarithmic, Satlantic
# name 10 = turbWETntu0: Turbidity, WET Labs ECO [NTU]
# name 11 = prdM: Pressure, Strain Gauge [db]
# name 12 = prdE: Pressure, Strain Gauge [psi]
# name 13 = tv290C: Temperature [ITS-90, deg C]
# name 14 = density00: Density [density, kg/m^3]
# name 15 = flag:  0.000e+00
# span 0 =     -0.563,      3.189       
# span 1 =     -0.008,      0.110       
# span 2 =     0.0649,    11.6345       
# span 3 =      0.759,    146.476       
# span 4 =      1.370,     89.317       
# span 5 =   1.415311,  78.506989       
# span 6 =    -2.0216,   243.5239       
# span 7 =      7.527,      9.208       
# span 8 =   -22.3892,   440.9706       
# span 9 = 7.3253e+00, 2.6119e+03       
# span 10 =    -4.8949,   893.8386      
# span 11 =     -0.553,      3.128      
# span 12 =     -0.801,      4.537      
# span 13 =    18.9264,    28.2540      
# span 14 =   996.1812,   998.4699      
# span 15 = 0.0000e+00, 0.0000e+00      
# interval = seconds: 0.25
# start_time = Aug 19 2019 11:33:21 [Instrument's time stamp, header]
# bad_flag = -9.990e-29
# <Sensors count="9" >
#   <sensor Channel="1" >
#     <!-- Count, Temperature -->
#     <TemperatureSensor SensorID="58" >
#       <SerialNumber>7809</SerialNumber>
#       <CalibrationDate>24-Mar-19</CalibrationDate>
#       <A0>1.21792325e-003</A0>
#       <A1>2.81669265e-004</A1>
#       <A2>-1.60333336e-006</A2>
#       <A3>1.98414625e-007</A3>
#       <Slope>1.00000000</Slope>
#       <Offset>0.0000</Offset>
#     </TemperatureSensor>
#   </sensor>
#   <sensor Channel="2" >
#     <!-- Frequency 0, Conductivity -->
#     <ConductivitySensor SensorID="3" >
#       <SerialNumber>7809</SerialNumber>
#       <CalibrationDate>24-Mar-19</CalibrationDate>
#       <UseG_J>1</UseG_J>
#       <!-- Cell const and series R are applicable only for wide range sensors. -->
#       <SeriesR>0.0000</SeriesR>
#       <CellConst>2000.0000</CellConst>
#       <ConductivityType>0</ConductivityType>
#       <Coefficients equation="0" >
#         <A>0.00000000e+000</A>
#         <B>0.00000000e+000</B>
#         <C>0.00000000e+000</C>
#         <D>0.00000000e+000</D>
#         <M>0.0</M>
#         <CPcor>-9.57000000e-008</CPcor>
#       </Coefficients>
#       <Coefficients equation="1" >
#         <G>-1.00589325e+000</G>
#         <H>1.26816302e-001</H>
#         <I>-1.51560448e-004</I>
#         <J>2.67137274e-005</J>
#         <CPcor>-9.57000000e-008</CPcor>
#         <CTcor>3.2500e-006</CTcor>
#         <!-- WBOTC not applicable unless ConductivityType = 1. -->
#         <WBOTC>0.00000000e+000</WBOTC>
#       </Coefficients>
#       <Slope>1.00000000</Slope>
#       <Offset>0.00000</Offset>
#     </ConductivitySensor>
#   </sensor>
#   <sensor Channel="3" >
#     <!-- Count, Pressure, Strain Gauge -->
#     <PressureSensor SensorID="46" >
#       <SerialNumber>7809</SerialNumber>
#       <CalibrationDate>11-Mar-19</CalibrationDate>
#       <PA0>4.56561833e-002</PA0>
#       <PA1>4.85095118e-004</PA1>
#       <PA2>-2.88327090e-012</PA2>
#       <PTEMPA0>-5.48784562e+001</PTEMPA0>
#       <PTEMPA1>5.53756816e+001</PTEMPA1>
#       <PTEMPA2>-5.86727098e-001</PTEMPA2>
#       <PTCA0>5.25246745e+005</PTCA0>
#       <PTCA1>1.22304214e+001</PTCA1>
#       <PTCA2>-3.56745036e-001</PTCA2>
#       <PTCB0>2.51668750e+001</PTCB0>
#       <PTCB1>3.75000000e-004</PTCB1>
#       <PTCB2>0.00000000e+000</PTCB2>
#       <Offset>0.000000</Offset>
#     </PressureSensor>
#   </sensor>
#   <sensor Channel="4" >
#     <!-- A/D voltage 0, Oxygen, SBE 43 -->
#     <OxygenSensor SensorID="38" >
#       <SerialNumber>0434</SerialNumber>
#       <CalibrationDate>13-Apr-19</CalibrationDate>
#       <Use2007Equation>1</Use2007Equation>
#       <CalibrationCoefficients equation="0" >
#         <!-- Coefficients for Owens-Millard equation. -->
#         <Boc>0.0000</Boc>
#         <Soc>0.0000e+000</Soc>
#         <offset>0.0000</offset>
#         <Pcor>0.00e+000</Pcor>
#         <Tcor>0.0000</Tcor>
#         <Tau>0.0</Tau>
#       </CalibrationCoefficients>
#       <CalibrationCoefficients equation="1" >
#         <!-- Coefficients for Sea-Bird equation - SBE calibration in 2007 and later. -->
#         <Soc>4.2007e-001</Soc>
#         <offset>-0.6109</offset>
#         <A>-4.3656e-003</A>
#         <B> 1.7017e-004</B>
#         <C>-2.5341e-006</C>
#         <D0> 2.5826e+000</D0>
#         <D1> 1.92634e-004</D1>
#         <D2>-4.64803e-002</D2>
#         <E> 3.6000e-002</E>
#         <Tau20> 1.1800</Tau20>
#         <H1>-3.3000e-002</H1>
#         <H2> 5.0000e+003</H2>
#         <H3> 1.4500e+003</H3>
#       </CalibrationCoefficients>
#     </OxygenSensor>
#   </sensor>
#   <sensor Channel="5" >
#     <!-- A/D voltage 1, PAR/Logarithmic, Satlantic -->
#     <PARLog_SatlanticSensor SensorID="76" >
#       <SerialNumber>1122</SerialNumber>
#       <CalibrationDate>08-May-2019</CalibrationDate>
#       <a0>9.7456e-001</a0>
#       <a1>8.1640e-001</a1>
#       <Im>1.3589e+000</Im>
#       <Multiplier>1.0000e+000</Multiplier>
#     </PARLog_SatlanticSensor>
#   </sensor>
#   <sensor Channel="6" >
#     <!-- A/D voltage 2, pH -->
#     <pH_Sensor SensorID="43" >
#       <SerialNumber>0363</SerialNumber>
#       <CalibrationDate>15-Apr-19</CalibrationDate>
#       <Slope>4.5952</Slope>
#       <Offset>2.5370</Offset>
#     </pH_Sensor>
#   </sensor>
#   <sensor Channel="7" >
#     <!-- A/D voltage 3, Oxidation Reduction Potential -->
#     <OxidationReductionPotentialSensor SensorID="41" >
#       <SerialNumber>0363</SerialNumber>
#       <CalibrationDate>15-Apr-19</CalibrationDate>
#       <B>2.499480</B>
#       <M>-0.496195</M>
#       <Offset>0.0</Offset>
#     </OxidationReductionPotentialSensor>
#   </sensor>
#   <sensor Channel="8" >
#     <!-- A/D voltage 4, Fluorometer, WET Labs ECO-AFL/FL -->
#     <FluoroWetlabECO_AFL_FL_Sensor SensorID="20" >
#       <SerialNumber>FLNTURT-2496</SerialNumber>
#       <CalibrationDate>08-May-2019</CalibrationDate>
#       <ScaleFactor>5.00000000e+001</ScaleFactor>
#       <!-- Dark output -->
#       <Vblank>0.0550</Vblank>
#     </FluoroWetlabECO_AFL_FL_Sensor>
#   </sensor>
#   <sensor Channel="9" >
#     <!-- A/D voltage 5, Turbidity Meter, WET Labs, ECO-NTU -->
#     <TurbidityMeter SensorID="67" >
#       <SerialNumber>FLNTURT-2496</SerialNumber>
#       <CalibrationDate>08-May-2019</CalibrationDate>
#       <ScaleFactor>189.000000</ScaleFactor>
#       <!-- Dark output -->
#       <DarkVoltage>0.071000</DarkVoltage>
#     </TurbidityMeter>
#   </sensor>
# </Sensors>
# datcnv_date = Aug 20 2019 10:51:56, 7.26.7.129 [datcnv_vars = 15]
# datcnv_in = C:\DATA\081919_fcr20.hex C:\DATA\SBE19plusV2_7809.xmlcon
# datcnv_skipover = 0
# datcnv_ox_hysteresis_correction = yes
# datcnv_ox_tau_correction = yes
# filter_date = Aug 20 2019 10:52:12, 7.26.7.129
# filter_in = C:\DATA\081919_fcr20.cnv
# filter_low_pass_tc_A = 0.030
# filter_low_pass_tc_B = 0.150
# filter_low_pass_A_vars = prdM prdE tv290C density00
# filter_low_pass_B_vars = depFM dz/dtM sbeox0Mg/L sbeox0PS specc c0uS/cm flECO-AFL ph orp par/sat/log turbWETntu0
# alignctd_date = Aug 20 2019 10:52:30, 7.26.7.129
# alignctd_in = C:\DATA\081919_fcr20.cnv
# alignctd_adv = dz/dtM 1.000, sbeox0Mg/L 1.000, sbeox0PS 1.000, specc 1.000, c0uS/cm 1.000, flECO-AFL 1.000, ph 1.000, orp 1.000, turbWETntu0 1.000                                                                                 
# file_type = ascii
*END*
     -0.559 2.1479e-64     7.6544     95.544      1.579   1.632949    -0.0975      7.555   440.9706 2.1860e+03    -0.5280     -0.548     -0.795    26.6904   996.6066 0.0000e+00
     -0.559 2.3627e-63     7.6545     95.546      1.553   1.606285    -0.0915      7.553   437.4911 2.1712e+03    -0.5229     -0.548     -0.794    26.6918   996.6061 0.0000e+00
     -0.559 2.5990e-62     7.6539     95.541      1.529   1.581850    -0.0975      7.553   434.4939 2.1533e+03    -0.5065     -0.548     -0.795    26.6932   996.6058 0.0000e+00
     -0.559 2.8589e-61     7.6533     95.534      1.538   1.590950    -0.1092      7.554   431.8343 2.1455e+03    -0.3956     -0.548     -0.795    26.6948   996.6053 0.0000e+00
     -0.559 3.1448e-60     7.6532     95.533      1.537   1.589587    -0.1118      7.555   429.0806 2.1526e+03    -0.2959     -0.548     -0.795    26.6962   996.6050 0.0000e+00
     -0.559 3.4593e-59     7.6532     95.533      1.514   1.565375    -0.1113      7.555   426.2366 2.1661e+03    -0.2841     -0.548     -0.794    26.6970   996.6047 0.0000e+00
     -0.559 3.8052e-58     7.6526     95.525      1.500   1.551654    -0.1124      7.556   423.5167 2.1713e+03    -0.2863     -0.548     -0.795    26.6976   996.6045 0.0000e+00
     -0.559 4.1857e-57     7.6514     95.510      1.499   1.550406    -0.1083      7.556   420.9742 2.1702e+03    -0.2565     -0.548     -0.795    26.6977   996.6046 0.0000e+00
     -0.559 4.6043e-56     7.6511     95.506      1.499   1.550284    -0.1045      7.557   418.6406 2.1717e+03    -0.2517     -0.549     -0.796    26.6977   996.6045 0.0000e+00
     -0.559 5.0647e-55     7.6520     95.518      1.499   1.550178    -0.1006      7.557   416.8113 2.1767e+03    -0.2938     -0.548     -0.795    26.6979   996.6045 0.0000e+00
     -0.559 5.5712e-54     7.6520     95.518      1.498   1.549127    -0.0955      7.556   415.4622 2.1829e+03    -0.3064     -0.548     -0.795    26.6982   996.6044 0.0000e+00
     -0.559 6.1283e-53     7.6510     95.504      1.486   1.537576    -0.0956      7.556   414.3738 2.1849e+03    -0.3056     -0.548     -0.795    26.6983   996.6044 0.0000e+00
     -0.559 6.7411e-52     7.6516     95.508      1.486   1.537243    -0.1023      7.559   413.8041 2.1799e+03    -0.3168     -0.548     -0.795    26.6983   996.6043 0.0000e+00
     -0.559 7.4153e-51     7.6535     95.528      1.494   1.545099    -0.1064      7.565   413.6501 2.1664e+03    -0.3114     -0.548     -0.795    26.6984   996.6044 0.0000e+00
     -0.559 8.1568e-50     7.6545     95.538      1.456   1.505837    -0.1027      7.570   413.2003 2.1317e+03    -0.3063     -0.548     -0.795    26.6983   996.6043 0.0000e+00
     -0.559 8.9725e-49     7.6545     95.538      1.396   1.442699    -0.1003      7.572   412.4100 1.9332e+03    -0.3523     -0.548     -0.795    26.6976   996.6046 0.0000e+00
     -0.559 9.8697e-48     7.6544     95.534      1.370   1.415311    -0.1041      7.576   411.4934 1.8172e+03    -0.4428     -0.548     -0.795    26.6951   996.6052 0.0000e+00
     -0.560 1.0857e-46     7.6549     95.535      1.382   1.428133    -0.1136      7.582   409.8614 2.1185e+03    -0.4830     -0.549     -0.796    26.6924   996.6060 0.0000e+00
     -0.560 1.1942e-45     7.6556     95.540      1.423   1.471015    -0.1199      7.586   408.0788 2.4130e+03    -0.4772     -0.549     -0.796    26.6919   996.6061 0.0000e+00
     -0.560 1.3137e-44     7.6558     95.540      1.503   1.553627    -0.1103      7.587   407.8358 2.4918e+03    -0.4385     -0.548     -0.795    26.6918   996.6062 0.0000e+00
     -0.560 1.4450e-43     7.6550     95.527      1.613   1.666650    -0.1021      7.587   408.8158 2.5385e+03    -0.3429     -0.549     -0.796    26.6905   996.6065 0.0000e+00
     -0.560 1.5895e-42     7.6543     95.516      1.703   1.760411    -0.1072      7.584   409.5175 2.5711e+03    -0.2719     -0.549     -0.796    26.6884   996.6071 0.0000e+00
     -0.560 1.7485e-41     7.6548     95.521      1.741   1.800229    -0.1113      7.584   409.5235 2.5948e+03    -0.2682     -0.549     -0.796    26.6854   996.6079 0.0000e+00
     -0.560 1.9233e-40     7.6553     95.525      1.771   1.831269    -0.1085      7.588   409.5770 2.6074e+03    -0.2649     -0.548     -0.795    26.6830   996.6086 0.0000e+00
     -0.560 2.1157e-39     7.6558     95.531      1.821   1.882273    -0.0988      7.590   409.9060 2.6119e+03    -0.2968     -0.549     -0.796    26.6818   996.6089 0.0000e+00
     -0.560 2.3272e-38     7.6568     95.542      1.848   1.910011    -0.0898      7.588   409.9736 2.6096e+03    -0.3926     -0.548     -0.795    26.6811   996.6091 0.0000e+00
     -0.560 2.5599e-37     7.6570     95.543      1.851   1.913201    -0.0868      7.584   410.1356 2.5909e+03    -0.4726     -0.549     -0.796    26.6797   996.6095 0.0000e+00
     -0.560 2.8159e-36     7.6573     95.544      1.858   1.920846    -0.0879      7.580   410.9190 2.5514e+03    -0.5099     -0.549     -0.796    26.6784   996.6098 0.0000e+00
     -0.560 3.0975e-35     7.6580     95.550      1.876   1.939080    -0.0948      7.577   413.0782 2.5066e+03    -0.5167     -0.549     -0.796    26.6776   996.6100 0.0000e+00
     -0.560 3.4073e-34     7.6574     95.541      1.881   1.943575    -0.0998      7.567   417.4005 2.4671e+03    -0.5217     -0.549     -0.796    26.6774   996.6101 0.0000e+00
     -0.560 3.7480e-33     7.6566     95.532      1.850   1.911843    -0.0970      7.552   422.3106 2.3850e+03    -0.5051     -0.549     -0.796    26.6769   996.6102 0.0000e+00
     -0.560 4.1228e-32     7.6571     95.539      1.812   1.872220    -0.1037      7.539   425.5539 1.8427e+03    -0.4791     -0.549     -0.796    26.6750   996.6107 0.0000e+00
     -0.560 4.5351e-31     7.6567     95.536      1.785   1.844666    -0.1293      7.533   426.7589 8.9560e+02    -0.5028     -0.549     -0.797    26.6727   996.6114 0.0000e+00
     -0.560 4.9886e-30     7.6549     95.512      1.773   1.832132    -0.1543      7.530   425.0077 3.7146e+02    -0.5283     -0.549     -0.796    26.6722   996.6115 0.0000e+00
     -0.560 5.4875e-29     7.6542     95.499      1.788   1.847405    -0.1639      7.528   403.9492 3.4972e+02    -0.4935     -0.549     -0.796    26.6730   996.6113 0.0000e+00
     -0.560 6.0362e-28     7.6559     95.511      1.841   1.902602    -0.1505      7.527   385.4347 4.6631e+02    -0.4099     -0.549     -0.797    26.6744   996.6109 0.0000e+00
     -0.560 6.6398e-27     7.6587     95.536      1.928   1.992612    -0.0011      7.528   405.7509 5.7367e+02     0.2532     -0.549     -0.796    26.6750   996.6107 0.0000e+00
     -0.560 7.3038e-26     7.6605     95.550      1.982   2.048632     0.2732      7.528   426.4909 6.0259e+02     1.5271     -0.548     -0.795    26.6744   996.6109 0.0000e+00
     -0.560 8.0342e-25     7.6603     95.540      2.006   2.073035     0.4258      7.530   425.9206 6.4127e+02     2.2439     -0.549     -0.796    26.6720   996.6116 0.0000e+00
     -0.560 8.8376e-24     7.6601     95.530      2.091   2.160941     0.4398      7.533   422.1722 6.8778e+02     2.2671     -0.549     -0.796    26.6663   996.6131 0.0000e+00
     -0.560 9.7214e-23     7.6612     95.539      2.215   2.287774     0.4252      7.536   418.3385 6.8664e+02     2.2005     -0.549     -0.796    26.6603   996.6148 0.0000e+00
     -0.560 1.0694e-21     7.6619     95.544      2.265   2.339295     0.2838      7.540   415.7898 6.7883e+02     1.7988     -0.549     -0.796    26.6552   996.6162 0.0000e+00
     -0.560 1.1763e-20     7.6620     95.546      2.205   2.276965     0.0391      7.547   414.4149 6.7717e+02     1.0815     -0.548     -0.795    26.6507   996.6173 0.0000e+00
     -0.560 1.2939e-19     7.6615     95.542      2.099   2.167794    -0.0889      7.553   413.4159 6.5153e+02     0.7380     -0.549     -0.796    26.6467   996.6185 0.0000e+00
     -0.559 1.4233e-18     7.6605     95.535      2.029   2.096489    -0.0755      7.553   412.8314 6.2677e+02     0.9546     -0.548     -0.795    26.6431   996.6195 0.0000e+00
     -0.559 1.5656e-17     7.6605     95.538      1.982   2.048459     0.2702      7.549   412.8545 5.9873e+02     3.4719     -0.548     -0.795    26.6411   996.6200 0.0000e+00
     -0.559 1.7222e-16     7.6618     95.557      1.904   1.967237     0.9008      7.548   413.2654 5.2978e+02     8.0699     -0.548     -0.795    26.6411   996.6200 0.0000e+00
     -0.559 1.8944e-15     7.6631     95.574      1.814   1.874797     1.2200      7.551   413.9272 4.1939e+02    10.5362     -0.548     -0.795    26.6434   996.6193 0.0000e+00
     -0.559 2.0839e-14     7.6615     95.554      1.759   1.817849     1.1827      7.552   414.8340 3.0895e+02    10.4167     -0.548     -0.795    26.6466   996.6185 0.0000e+00
     -0.559 2.2923e-13     7.6593     95.526      1.728   1.785588     0.4667      7.551   415.9696 2.4923e+02     6.4938     -0.548     -0.795    26.6488   996.6179 0.0000e+00
     -0.559 2.5215e-12     7.6592     95.525      1.682   1.738173    -0.8836      7.548   417.0742 2.3064e+02    -0.7799     -0.549     -0.796    26.6499   996.6176 0.0000e+00
     -0.559 2.7736e-11     7.6595     95.529      1.634   1.688089    -1.6271      7.544   417.9513 2.2682e+02    -4.7092     -0.548     -0.795    26.6499   996.6176 0.0000e+00
     -0.559 3.0510e-10     7.6585     95.514      1.633   1.686934    -1.6559      7.542   418.7450 2.3459e+02    -4.8019     -0.548     -0.795    26.6501   996.6175 0.0000e+00
     -0.559 3.3561e-09     7.6576     95.504      1.669   1.724204    -1.2492      7.544   419.6158 2.5009e+02    -2.2938     -0.548     -0.795    26.6502   996.6174 0.0000e+00
     -0.559 3.6917e-08     7.6576     95.505      1.702   1.758540    -0.4985      7.544   420.4783 2.8570e+02     2.3478     -0.548     -0.795    26.6497   996.6176 0.0000e+00
     -0.559 4.0609e-07     7.6577     95.508      1.727   1.785285    -0.0875      7.545   421.2580 3.5742e+02     4.9133     -0.548     -0.795    26.6498   996.6176 0.0000e+00
     -0.559      0.000     7.6586     95.521      1.736   1.794126    -0.0940      7.552   422.5890 4.5309e+02     5.2286     -0.548     -0.795    26.6496   996.6176 0.0000e+00
     -0.559      0.000     7.6599     95.540      1.744   1.802076    -0.6037      7.558   424.2679 5.4833e+02     5.6024     -0.549     -0.796    26.6493   996.6177 0.0000e+00
     -0.559      0.001     7.6609     95.555      1.759   1.818041    -1.5426      7.561   425.3821 5.9262e+02     6.2216     -0.548     -0.794    26.6496   996.6177 0.0000e+00
     -0.559      0.001     7.6611     95.560      1.739   1.797075    -2.0216      7.563   426.2525 6.7630e+02     6.7175     -0.548     -0.795    26.6505   996.6175 0.0000e+00
     -0.559      0.000     7.6612     95.565      1.682   1.738655    -1.5656      7.566   426.9621 9.3058e+02     8.6162     -0.548     -0.795    26.6523   996.6169 0.0000e+00
     -0.558     -0.001     7.6609     95.563      1.627   1.681946     3.9784      7.571   426.4765 1.1877e+03    29.1784     -0.548     -0.796    26.6539   996.6165 0.0000e+00
     -0.557     -0.002     7.6591     95.543      1.566   1.618308    64.8813      7.575   416.5095 1.3007e+03   255.2684     -0.545     -0.791    26.6551   996.6161 0.0000e+00
     -0.558     -0.002     7.6573     95.524      1.490   1.539478   176.5247      7.565   308.0862 1.3279e+03   669.6363     -0.545     -0.790    26.6562   996.6159 0.0000e+00
     -0.561      0.001     7.6554     95.510      1.441   1.489154   237.4162      7.582   108.0031 1.3194e+03   893.8386     -0.551     -0.799    26.6592   996.6150 0.0000e+00
     -0.563      0.010     7.6492     95.496      1.587   1.643454   242.9472      7.733    -6.2232 1.2861e+03   893.7272     -0.553     -0.801    26.6596   996.6149 0.0000e+00
     -0.563      0.025     7.6280     95.497      3.511   3.658544   243.4512      8.019   -22.3892 1.2351e+03   668.9125     -0.551     -0.799    26.6628   996.6140 0.0000e+00
     -0.561      0.043     7.5876     95.501      9.557  10.010535   243.5103      8.316   -19.4016 1.2027e+03   253.5463     -0.552     -0.800    26.6614   996.6144 0.0000e+00
     -0.551      0.060     7.5446     95.494     17.579  18.481426   243.5239      8.561    31.0176 1.2472e+03    26.9258     -0.548     -0.794    26.6686   996.6124 0.0000e+00
     -0.525      0.076     7.5141     95.494     25.854  27.275513   243.5203      8.766   120.2908 1.3690e+03     6.1321     -0.518     -0.751    26.6621   996.6144 0.0000e+00
     -0.492      0.091     7.4934     95.482     34.134  36.096074   243.5188      8.934   172.8420 1.4931e+03     1.8363     -0.478     -0.694    26.7850   996.5809 0.0000e+00
     -0.467      0.103     7.4775     95.454     38.158  40.417053   243.4793      9.054   182.6111 1.5821e+03    -2.6969     -0.455     -0.660    27.1657   996.4781 0.0000e+00
     -0.446      0.110     7.4666     95.451     38.414  40.747689   242.9909      9.125   184.8060 1.6635e+03    -4.8949     -0.440     -0.639    27.5163   996.3832 0.0000e+00
     -0.421      0.110     7.4586     95.466     38.346  40.728709   237.5525      9.166   186.0444 1.7689e+03    -3.4371     -0.417     -0.605    27.7236   996.3268 0.0000e+00
     -0.387      0.110     7.4501     95.464     38.270  40.695522   177.6295      9.191   188.5508 1.8906e+03    14.9290     -0.378     -0.548    27.8640   996.2911 0.0000e+00
     -0.353      0.110     7.4422     95.451     38.203  40.663925    67.7569      9.205   191.1049 1.9821e+03    48.6863     -0.343     -0.499    27.9551   996.2662 0.0000e+00
     -0.325      0.109     7.4407     95.473     38.126  40.600680     7.8201      9.208   185.6938 2.0246e+03    67.1007     -0.318     -0.460    28.0350   996.2432 0.0000e+00
     -0.300      0.106     7.4500     95.570     38.042  40.502214     2.3772      9.199   165.1128 2.0470e+03    68.6351     -0.292     -0.424    28.1005   996.2249 0.0000e+00
     -0.276      0.102     7.4676     95.726     37.939  40.362144     1.8957      9.188   141.7863 2.0850e+03    67.3690     -0.272     -0.393    28.1651   996.2063 0.0000e+00
     -0.251      0.098     7.4904     95.937     37.859  40.240195     1.8939      9.188   130.7125 2.1364e+03    52.0222     -0.248     -0.358    28.2257   996.1892 0.0000e+00
     -0.226      0.094     7.5157     96.193     37.822  40.170381     1.9647      9.198   128.3590 2.1728e+03    23.8672     -0.222     -0.323    28.2540   996.1812 0.0000e+00
     -0.200      0.086     7.5407     96.466     37.765  40.089327     2.0062      9.204   128.1300 2.2038e+03     8.4962     -0.198     -0.287    28.2380   996.1859 0.0000e+00
     -0.173      0.076     7.5655     96.753     37.714  40.021942     2.0149      9.204   128.8037 2.2473e+03     7.0927     -0.168     -0.243    28.1878   996.2003 0.0000e+00
     -0.153      0.065     7.5869     97.005     37.694  39.990436     2.0262      9.202   129.5349 2.2898e+03     6.8974     -0.146     -0.211    28.1334   996.2159 0.0000e+00
     -0.142      0.052     7.6015     97.175     37.675  39.962306     2.0473      9.199   131.1211 2.3050e+03     6.7574     -0.138     -0.199    28.0932   996.2274 0.0000e+00
     -0.135      0.039     7.6117     97.285     37.658  39.935732     2.0627      9.196   133.1832 2.2865e+03     6.7114     -0.133     -0.192    28.0662   996.2350 0.0000e+00
     -0.127      0.029     7.6189     97.352     37.656  39.923055     2.0651      9.194   133.5598 2.2608e+03     6.7346     -0.124     -0.180    28.0503   996.2396 0.0000e+00
     -0.120      0.023     7.6235     97.374     37.684  39.935972     2.0755      9.192   133.1792 2.2526e+03     6.6444     -0.115     -0.168    28.0386   996.2430 0.0000e+00
     -0.115      0.020     7.6264     97.362     37.731  39.964925     2.0844      9.190   133.3132 2.2616e+03     6.4077     -0.113     -0.163    28.0296   996.2454 0.0000e+00
     -0.112      0.017     7.6287     97.334     37.806  40.019157     2.0779      9.189   133.7182 2.2738e+03     6.2651     -0.111     -0.162    28.0188   996.2486 0.0000e+00
     -0.108      0.013     7.6323     97.317     37.893  40.083788     2.0659      9.187   134.2900 2.2697e+03     6.2637     -0.106     -0.155    28.0065   996.2521 0.0000e+00
     -0.103      0.010     7.6427     97.397     37.941  40.111503     2.0606      9.185   134.8925 2.1737e+03     6.2263     -0.100     -0.146    27.9850   996.2582 0.0000e+00
     -0.100      0.008     7.6724     97.753     37.940  40.100297     2.0661      9.183   135.4967 1.9604e+03     6.1404     -0.097     -0.141    27.9535   996.2672 0.0000e+00
     -0.099      0.006     7.7385     98.596     37.916  40.075247     2.0713      9.181   136.0881 1.7586e+03     6.0784     -0.097     -0.141    27.9227   996.2760 0.0000e+00
     -0.100      0.004     7.8615    100.165     37.903  40.062562     2.0712      9.180   136.7085 1.6754e+03     6.0664     -0.098     -0.143    27.8826   996.2874 0.0000e+00
     -0.100      0.002     8.0366    102.389     37.917  40.073887     2.0992      9.179   137.4055 1.7005e+03     6.1261     -0.098     -0.142    27.8454   996.2980 0.0000e+00
     -0.099      0.000     8.2104    104.589     37.933  40.085200     2.1587      9.179   138.0628 1.7218e+03     6.2107     -0.097     -0.141    27.8343   996.3011 0.0000e+00
     -0.097      0.000     8.3291    106.082     37.928  40.072376     2.1931      9.179   138.6325 1.6765e+03     6.2370     -0.095     -0.139    27.8418   996.2989 0.0000e+00
     -0.097     -0.001     8.3827    106.727     37.917  40.045786     2.1942      9.177   139.2178 1.6269e+03     6.2466     -0.094     -0.137    27.8451   996.2980 0.0000e+00
     -0.098     -0.001     8.3841    106.682     37.914  40.017615     2.1899      9.176   139.8048 1.6142e+03     6.2616     -0.097     -0.141    27.8391   996.2996 0.0000e+00
     -0.100     -0.001     8.3438    106.093     37.914  39.985649     2.2017      9.176   140.3094 1.6232e+03     6.2549     -0.099     -0.144    27.8314   996.3019 0.0000e+00
     -0.101     -0.001     8.2825    105.250     37.869  39.913161     2.2319      9.176   140.6736 1.5825e+03     6.2634     -0.099     -0.144    27.8227   996.3043 0.0000e+00
     -0.101      0.001     8.2260    104.492     37.754  39.775947     2.2519      9.176   141.0241 1.4691e+03     6.2994     -0.099     -0.144    27.8068   996.3088 0.0000e+00
     -0.101      0.005     8.1818    103.910     37.652  39.659702     2.2613      9.174   141.6229 1.3149e+03     6.3293     -0.098     -0.142    27.7706   996.3191 0.0000e+00
     -0.100      0.009     8.1478    103.466     37.647  39.650296     2.2668      9.171   142.3209 1.0579e+03     6.3301     -0.099     -0.143    27.7224   996.3326 0.0000e+00
     -0.097      0.012     8.1213    103.119     37.723  39.725701     2.2580      9.166   142.8389 1.0497e+03     6.3081     -0.097     -0.141    27.6867   996.3426 0.0000e+00
     -0.092      0.014     8.0979    102.807     37.809  39.809631     2.2513      9.163   143.3259 1.2811e+03     6.2936     -0.090     -0.132    27.6681   996.3478 0.0000e+00
     -0.087      0.015     8.0734    102.471     37.847  39.839816     2.2634      9.162   143.8206 1.4215e+03     6.2857     -0.084     -0.122    27.6581   996.3506 0.0000e+00
     -0.083      0.017     8.0408    102.019     37.859  39.836729     2.2826      9.162   144.2601 1.7910e+03     6.2789     -0.081     -0.116    27.6526   996.3521 0.0000e+00
     -0.079      0.018     7.9891    101.318     37.877  39.835769     2.3012      9.161   144.6818 2.1174e+03     6.2774     -0.078     -0.113    27.6490   996.3532 0.0000e+00
     -0.076      0.018     7.9146    100.331     37.887  39.828178     2.3152      9.160   145.1334 2.1498e+03     6.2672     -0.075     -0.108    27.6414   996.3554 0.0000e+00
     -0.072      0.017     7.8328     99.254     37.885  39.808400     2.3220      9.159   145.7627 2.0980e+03     6.2533     -0.072     -0.103    27.6282   996.3592 0.0000e+00
     -0.065      0.016     7.7708     98.426     37.882  39.787049     2.3657      9.158   146.4407 1.9493e+03     6.2084     -0.065     -0.093    27.6072   996.3651 0.0000e+00
     -0.059      0.014     7.7488     98.095     37.877  39.760438     2.4447      9.156   146.9637 1.8298e+03     6.1175     -0.056     -0.082    27.5790   996.3730 0.0000e+00
     -0.055      0.012     7.7733     98.346     37.883  39.740543     2.4883      9.153   147.3540 1.8798e+03     6.0385     -0.053     -0.076    27.5541   996.3800 0.0000e+00
     -0.054      0.009     7.8386     99.111     37.904  39.736908     2.5038      9.151   147.7184 2.0463e+03     6.0073     -0.053     -0.077    27.5333   996.3859 0.0000e+00
     -0.054      0.006     7.9297    100.208     37.907  39.716446     2.5186      9.150   148.2716 2.1588e+03     6.0350     -0.054     -0.078    27.5105   996.3922 0.0000e+00
     -0.053      0.003     8.0312    101.445     37.894  39.683539     2.5199      9.148   148.8806 2.1709e+03     6.0456     -0.052     -0.076    27.4811   996.4004 0.0000e+00
     -0.052      0.001     8.1366    102.738     37.883  39.656415     2.5113      9.145   149.3174 2.1509e+03     6.0051     -0.050     -0.073    27.4451   996.4105 0.0000e+00
     -0.051      0.000     8.2466    104.099     37.881  39.642400     2.5017      9.143   149.7668 2.1470e+03     6.0036     -0.049     -0.071    27.4100   996.4204 0.0000e+00
     -0.051     -0.001     8.3566    105.464     37.889  39.641023     2.4987      9.143   150.1848 2.1530e+03     6.0599     -0.049     -0.071    27.3794   996.4288 0.0000e+00
     -0.053     -0.002     8.4554    106.689     37.895  39.639754     2.5096      9.144   150.4142 2.1482e+03     6.0956     -0.051     -0.074    27.3529   996.4362 0.0000e+00
     -0.055     -0.002     8.5332    107.652     37.890  39.627039     2.5196      9.144   150.6471 2.1410e+03     6.0755     -0.054     -0.078    27.3328   996.4418 0.0000e+00
     -0.056     -0.002     8.5853    108.293     37.884  39.614248     2.5162      9.142   151.0217 2.1422e+03     6.0462     -0.055     -0.079    27.3182   996.4458 0.0000e+00
     -0.055     -0.001     8.6189    108.704     37.887  39.612044     2.5115      9.141   151.4160 2.1472e+03     6.0358     -0.054     -0.079    27.3058   996.4493 0.0000e+00
     -0.055      0.000     8.6472    109.052     37.879  39.600389     2.5846      9.141   151.8002 2.1460e+03     6.0482     -0.054     -0.078    27.2947   996.4523 0.0000e+00
     -0.054      0.001     8.6751    109.397     37.882  39.600274     2.7329      9.140   152.2261 2.1434e+03     6.0649     -0.053     -0.077    27.2850   996.4550 0.0000e+00
     -0.054      0.001     8.6973    109.670     37.895  39.610651     2.8129      9.140   152.6937 2.1454e+03     6.0739     -0.053     -0.077    27.2762   996.4575 0.0000e+00
     -0.053      0.001     8.7114    109.837     37.887  39.598891     2.8154      9.139   153.1521 2.1432e+03     6.0584     -0.052     -0.076    27.2692   996.4595 0.0000e+00
     -0.053      0.002     8.7204    109.939     37.878  39.585041     2.8406      9.139   153.4660 2.1310e+03     6.0740     -0.052     -0.075    27.2656   996.4605 0.0000e+00
     -0.053      0.003     8.7247    109.979     37.868  39.570141     2.9011      9.140   153.7365 2.1148e+03     6.1644     -0.053     -0.077    27.2626   996.4613 0.0000e+00
     -0.053      0.004     8.7258    109.982     37.849  39.545686     2.9321      9.141   154.0992 2.1050e+03     6.2344     -0.053     -0.076    27.2589   996.4623 0.0000e+00
     -0.052      0.004     8.7273    109.993     37.850  39.543284     2.9287      9.141   154.4953 2.1056e+03     6.2647     -0.051     -0.073    27.2539   996.4637 0.0000e+00
     -0.051      0.003     8.7294    110.016     37.850  39.541099     2.9377      9.140   154.9130 2.1121e+03     6.2696     -0.050     -0.072    27.2470   996.4656 0.0000e+00
     -0.048      0.002     8.7324    110.052     37.829  39.519264     2.9630      9.138   155.2775 2.1206e+03     6.2609     -0.048     -0.069    27.2396   996.4676 0.0000e+00
     -0.046      0.000     8.7367    110.108     37.841  39.533198     2.9837      9.136   155.5460 2.1279e+03     6.2899     -0.045     -0.064    27.2339   996.4693 0.0000e+00
     -0.046      0.000     8.7464    110.234     37.887  39.582616     2.9881      9.135   155.8366 2.1305e+03     6.3249     -0.043     -0.063    27.2295   996.4706 0.0000e+00
     -0.049      0.001     8.7606    110.414     37.912  39.608925     2.9905      9.135   156.2961 2.1319e+03     6.3230     -0.048     -0.070    27.2270   996.4712 0.0000e+00
     -0.052      0.002     8.7669    110.493     37.901  39.597375     2.9955      9.134   156.8004 2.1343e+03     6.3000     -0.053     -0.077    27.2280   996.4708 0.0000e+00
     -0.051      0.004     8.7563    110.359     37.875  39.569921     2.9959      9.134   157.2016 2.1357e+03     6.2762     -0.052     -0.075    27.2297   996.4704 0.0000e+00
     -0.047      0.004     8.7305    110.034     37.838  39.530907     2.9955      9.132   157.6199 2.1437e+03     6.2654     -0.046     -0.067    27.2305   996.4702 0.0000e+00
     -0.043      0.004     8.7019    109.673     37.815  39.506556     2.9640      9.129   158.0722 2.1589e+03     6.2015     -0.041     -0.060    27.2312   996.4700 0.0000e+00
     -0.041      0.003     8.6843    109.448     37.837  39.529411     2.9020      9.127   158.4540 2.1650e+03     6.0935     -0.039     -0.056    27.2309   996.4701 0.0000e+00
     -0.041      0.000     8.6811    109.406     37.861  39.553324     2.8690      9.127   158.6221 2.1581e+03     6.0419     -0.039     -0.058    27.2307   996.4702 0.0000e+00
     -0.044     -0.001     8.6830    109.428     37.851  39.541763     2.8693      9.126   158.7287 2.1468e+03     6.0358     -0.043     -0.063    27.2306   996.4701 0.0000e+00
     -0.048      0.000     8.6734    109.308     37.827  39.516579     2.8801      9.126   158.9687 2.1361e+03     6.0531     -0.047     -0.069    27.2303   996.4702 0.0000e+00
     -0.049      0.002     8.6380    108.861     37.813  39.502758     2.8954      9.126   159.2875 2.1306e+03     6.0542     -0.049     -0.071    27.2290   996.4706 0.0000e+00
     -0.047      0.005     8.5706    108.011     37.812  39.501615     2.9067      9.126   159.6575 2.1323e+03     6.0167     -0.047     -0.067    27.2272   996.4710 0.0000e+00
     -0.042      0.007     8.4751    106.806     37.814  39.502759     2.9123      9.125   160.0006 2.1372e+03     5.9918     -0.042     -0.061    27.2268   996.4712 0.0000e+00
     -0.038      0.007     8.3672    105.445     37.828  39.516591     2.9194      9.124   160.3382 2.1425e+03     6.0155     -0.037     -0.053    27.2270   996.4712 0.0000e+00
     -0.036      0.006     8.2732    104.257     37.853  39.541886     2.9405      9.123   160.6423 2.1433e+03     6.1069     -0.034     -0.049    27.2271   996.4711 0.0000e+00
     -0.036      0.005     8.2138    103.506     37.867  39.554686     2.9690      9.122   160.9241 2.1372e+03     6.2115     -0.034     -0.050    27.2269   996.4712 0.0000e+00
     -0.036      0.003     8.1896    103.198     37.859  39.544384     2.9865      9.121   161.3356 2.1298e+03     6.2325     -0.036     -0.053    27.2262   996.4714 0.0000e+00
     -0.036      0.002     8.1830    103.112     37.859  39.544279     2.9874      9.120   161.7464 2.1259e+03     6.2296     -0.036     -0.052    27.2250   996.4718 0.0000e+00
     -0.035      0.002     8.1750    103.010     37.869  39.553428     2.9540      9.119   162.0189 2.1249e+03     6.2414     -0.034     -0.049    27.2236   996.4722 0.0000e+00
     -0.034      0.002     8.1577    102.791     37.845  39.528037     2.9040      9.119   162.2221 2.1252e+03     6.1786     -0.033     -0.048    27.2221   996.4726 0.0000e+00
     -0.033      0.002     8.1312    102.454     37.810  39.491197     2.8849      9.118   162.3963 2.1241e+03     6.0933     -0.032     -0.047    27.2203   996.4730 0.0000e+00
     -0.033      0.002     8.0998    102.057     37.809  39.488887     2.8789      9.118   162.5766 2.1191e+03     6.0620     -0.032     -0.047    27.2190   996.4734 0.0000e+00
     -0.033      0.002     8.0691    101.668     37.821  39.500095     2.8583      9.118   162.8531 2.1135e+03     6.0623     -0.033     -0.047    27.2181   996.4737 0.0000e+00
     -0.033      0.002     8.0431    101.339     37.821  39.499752     2.8515      9.117   163.1582 2.1114e+03     6.0965     -0.033     -0.047    27.2174   996.4739 0.0000e+00
     -0.032      0.002     8.0248    101.106     37.807  39.484746     2.8749      9.117   163.4270 2.1111e+03     6.1156     -0.032     -0.046    27.2165   996.4741 0.0000e+00
     -0.031      0.003     8.0151    100.981     37.770  39.445616     2.8900      9.117   163.6938 2.1108e+03     6.0969     -0.030     -0.044    27.2151   996.4745 0.0000e+00
     -0.030      0.003     8.0112    100.929     37.735  39.407519     2.8777      9.116   163.9738 2.1093e+03     6.1978     -0.030     -0.043    27.2140   996.4748 0.0000e+00
     -0.030      0.002     8.0049    100.850     37.733  39.405000     2.8656      9.116   164.3179 2.1063e+03     6.4178     -0.029     -0.042    27.2131   996.4750 0.0000e+00
     -0.029      0.000     7.9884    100.642     37.743  39.415159     2.8726      9.116   164.5847 2.1039e+03     6.5608     -0.028     -0.041    27.2117   996.4754 0.0000e+00
     -0.029     -0.001     7.9592    100.274     37.732  39.403387     2.8853      9.116   164.7909 2.1011e+03     6.5830     -0.028     -0.040    27.2106   996.4757 0.0000e+00
     -0.029     -0.002     7.9191     99.770     37.719  39.389617     2.8803      9.115   165.0900 2.0949e+03     6.5226     -0.028     -0.040    27.2098   996.4759 0.0000e+00
     -0.031     -0.002     7.8701     99.152     37.705  39.375634     2.8640      9.114   165.4481 2.0867e+03     6.4215     -0.030     -0.043    27.2089   996.4762 0.0000e+00
     -0.033     -0.001     7.8139     98.443     37.691  39.361278     2.8610      9.114   165.7652 2.0815e+03     6.3437     -0.032     -0.046    27.2087   996.4763 0.0000e+00
     -0.033      0.000     7.7535     97.680     37.674  39.343003     2.8705      9.114   166.0848 2.0796e+03     6.3023     -0.032     -0.047    27.2089   996.4762 0.0000e+00
     -0.032      0.002     7.6920     96.905     37.616  39.281630     2.8750      9.112   166.7307 2.0788e+03     6.2808     -0.032     -0.046    27.2091   996.4761 0.0000e+00
     -0.031      0.002     7.6286     96.108     37.528  39.190549     2.8724      9.108   167.3797 2.0791e+03     6.2813     -0.029     -0.043    27.2091   996.4761 0.0000e+00
     -0.029      0.001     7.5626     95.277     37.470  39.130466     2.8737      9.105   167.4793 2.0813e+03     6.3079     -0.027     -0.040    27.2086   996.4763 0.0000e+00
     -0.028     -0.001     7.4946     94.421     37.466  39.126488     2.8820      9.105   167.4191 2.0823e+03     6.3394     -0.027     -0.039    27.2083   996.4764 0.0000e+00
     -0.029     -0.002     7.4223     93.510     37.481  39.142459     2.8863      9.105   167.6836 2.0775e+03     6.3348     -0.027     -0.040    27.2080   996.4764 0.0000e+00
     -0.031     -0.003     7.3463     92.553     37.472  39.133134     2.8650      9.104   168.1823 2.0694e+03     6.2849     -0.030     -0.044    27.2078   996.4764 0.0000e+00
     -0.033     -0.004     7.2745     91.648     37.540  39.204175     2.8239      9.103   168.5440 2.0532e+03     6.2284     -0.033     -0.047    27.2085   996.4762 0.0000e+00
     -0.034     -0.006     7.2253     91.025     37.819  39.493571     2.8052      9.100   168.6165 1.9822e+03     6.2410     -0.034     -0.049    27.2091   996.4760 0.0000e+00
     -0.034     -0.008     7.2868     91.789     38.155  39.839051     2.8032      9.099   168.6282 1.9177e+03     6.3061     -0.034     -0.049    27.2094   996.4760 0.0000e+00
     -0.034     -0.008     7.6322     96.121     38.333  40.016836     2.7310      9.100   168.6853 1.9620e+03     6.3941     -0.032     -0.047    27.2097   996.4759 0.0000e+00
     -0.037     -0.008     8.3104    104.646     38.377  40.056094     2.5905      9.101   168.7909 2.0139e+03     6.4847     -0.035     -0.051    27.2099   996.4758 0.0000e+00
     -0.042     -0.007     9.1499    115.211     38.382  40.059777     2.5095      9.102   169.0444 2.0086e+03     6.5176     -0.041     -0.060    27.2103   996.4758 0.0000e+00
     -0.046     -0.005     9.9669    125.499     38.384  40.061360     2.5053      9.104   169.3418 1.9984e+03     6.5294     -0.046     -0.067    27.2031   996.4778 0.0000e+00
     -0.046     -0.003    10.6649    134.285     38.399  40.075239     2.5401      9.105   169.5471 1.9874e+03     6.4638     -0.047     -0.068    27.1882   996.4821 0.0000e+00
     -0.045     -0.000    11.1889    140.876     38.425  40.100616     2.6006      9.105   169.7201 1.9535e+03     6.3144     -0.044     -0.064    27.1790   996.4846 0.0000e+00
     -0.042      0.002    11.5128    144.947     38.440  40.114259     2.6306      9.105   169.8851 1.8838e+03     6.2297     -0.042     -0.060    27.1778   996.4850 0.0000e+00
     -0.040      0.002    11.6345    146.476     38.440  40.113229     2.6151      9.106   170.0791 1.7913e+03     6.2261     -0.040     -0.057    27.1785   996.4848 0.0000e+00
     -0.040      0.002    11.5779    145.761     38.416  40.088150     2.5700      9.107   170.3440 1.7149e+03     6.2055     -0.040     -0.057    27.1773   996.4851 0.0000e+00
     -0.041      0.001    11.4076    143.617     38.394  40.064962     2.5190      9.107   170.5932 1.6498e+03     6.1441     -0.041     -0.059    27.1739   996.4860 0.0000e+00
     -0.042      0.000    11.2082    141.110     38.414  40.086799     2.5020      9.106   170.7697 1.5385e+03     6.1071     -0.042     -0.060    27.1713   996.4868 0.0000e+00
     -0.042 2.3845e-08    11.0304    138.874     38.425  40.098245     2.5034      9.105   170.9294 1.3745e+03     6.0851     -0.041     -0.060    27.1702   996.4871 0.0000e+00
     -0.042 2.6230e-07    10.8905    137.115     38.403  40.076392     2.5014      9.104   171.1478 1.1911e+03     6.0752     -0.041     -0.059    27.1691   996.4874 0.0000e+00
     -0.041 6.3485e-07    10.7942    135.906     38.402  40.076504     2.5468      9.105   171.3449 1.0270e+03     6.1511     -0.040     -0.058    27.1694   996.4873 0.0000e+00
     -0.041      0.000    10.7322    135.131     38.422  40.099605     2.6354      9.106   171.5060 9.0865e+02     6.2495     -0.040     -0.058    27.1709   996.4869 0.0000e+00
     -0.041      0.000    10.6860    134.559     38.421  40.101781     2.6793      9.106   171.8054 8.1287e+02     6.2823     -0.040     -0.058    27.1719   996.4866 0.0000e+00
     -0.041      0.001    10.6413    134.004     38.420  40.102821     2.6796      9.106   172.2113 7.1586e+02     6.2857     -0.041     -0.059    27.1718   996.4867 0.0000e+00
     -0.041      0.001    10.5916    133.387     38.426  40.112179     2.7080      9.108   172.4554 6.2792e+02     6.2907     -0.041     -0.059    27.1730   996.4864 0.0000e+00
     -0.041      0.001    10.5421    132.772     38.400  40.087969     2.7712      9.108   172.4335 5.5987e+02     6.3421     -0.041     -0.059    27.1767   996.4853 0.0000e+00
     -0.040      0.001    10.5024    132.280     38.374  40.064044     2.8107      9.108   172.4632 5.1474e+02     6.3826     -0.040     -0.057    27.1804   996.4843 0.0000e+00
     -0.040      0.001    10.4760    131.960     38.383  40.076834     2.8131      9.107   172.7289 4.9187e+02     6.3216     -0.039     -0.056    27.1836   996.4834 0.0000e+00
     -0.040      0.001    10.4573    131.735     38.417  40.115649     2.7926      9.107   173.0644 4.8406e+02     6.2593     -0.039     -0.056    27.1874   996.4824 0.0000e+00
     -0.040      0.000    10.4388    131.510     38.450  40.152460     2.7613      9.107   173.3360 4.8971e+02     6.2857     -0.039     -0.056    27.1910   996.4813 0.0000e+00
     -0.040 5.9269e-08    10.4232    131.317     38.438  40.141022     2.7467      9.106   173.5176 5.1239e+02     6.3458     -0.040     -0.058    27.1945   996.4803 0.0000e+00
     -0.040 6.5195e-07    10.4202    131.282     38.402  40.104315     2.7465      9.106   173.7108 5.5186e+02     6.3623     -0.040     -0.057    27.1994   996.4790 0.0000e+00
     -0.040      0.000    10.4300    131.408     38.387  40.089539     2.7853      9.107   173.8655 6.0740e+02     6.3222     -0.039     -0.056    27.2045   996.4775 0.0000e+00
     -0.040      0.000    10.4399    131.535     38.386  40.089330     2.8684      9.108   174.0118 6.6929e+02     6.2869     -0.039     -0.057    27.2079   996.4766 0.0000e+00
     -0.041      0.001    10.4366    131.498     38.397  40.101790     2.9192      9.110   174.1884 7.4140e+02     6.2964     -0.040     -0.058    27.2098   996.4761 0.0000e+00
     -0.041      0.002    10.4216    131.309     38.407  40.113226     2.9221      9.111   174.3660 8.4837e+02     6.3058     -0.040     -0.058    27.2109   996.4758 0.0000e+00
     -0.040      0.002    10.4072    131.127     38.395  40.100642     2.9384      9.112   174.6115 9.9293e+02     6.2363     -0.040     -0.057    27.2107   996.4759 0.0000e+00
     -0.039      0.002    10.3976    131.003     38.374  40.076603     2.9698      9.113   174.7475 1.1621e+03     6.1120     -0.038     -0.055    27.2123   996.4754 0.0000e+00
     -0.037      0.002    10.3872    130.867     38.375  40.076498     2.9807      9.114   174.8063 1.3100e+03     6.0477     -0.036     -0.052    27.2147   996.4747 0.0000e+00
     -0.037      0.002    10.3722    130.673     38.399  40.099375     2.9825      9.117   174.9779 1.3930e+03     6.0487     -0.036     -0.052    27.2151   996.4747 0.0000e+00
     -0.038      0.001    10.3608    130.525     38.400  40.099272     2.9829      9.118   175.2739 1.4690e+03     6.0583     -0.037     -0.054    27.2142   996.4749 0.0000e+00
     -0.038      0.000    10.3669    130.596     38.379  40.075252     2.9505      9.118   175.5451 1.5894e+03     6.0987     -0.037     -0.054    27.2128   996.4753 0.0000e+00
     -0.037      0.000    10.3917    130.903     38.369  40.062878     2.8950      9.119   175.6755 1.7153e+03     6.1770     -0.037     -0.053    27.2097   996.4762 0.0000e+00
     -0.037      0.000    10.4272    131.348     38.383  40.076624     2.8669      9.120   175.8187 1.8078e+03     6.2512     -0.036     -0.052    27.2073   996.4768 0.0000e+00
     -0.037      0.001    10.4667    131.851     38.417  40.114487     2.8704      9.120   175.9857 1.8568e+03     6.3082     -0.036     -0.052    27.2070   996.4769 0.0000e+00
     -0.038      0.001    10.5023    132.307     38.439  40.139774     2.9292      9.121   176.1462 1.8872e+03     6.3734     -0.037     -0.054    27.2043   996.4776 0.0000e+00
     -0.038      0.001    10.5235    132.579     38.426  40.128449     3.0392      9.122   176.2972 1.9236e+03     6.4498     -0.037     -0.054    27.2002   996.4787 0.0000e+00
     -0.037      0.001    10.5272    132.625     38.404  40.104525     3.1004      9.123   176.3479 1.9553e+03     6.4789     -0.037     -0.053    27.1994   996.4790 0.0000e+00
     -0.036      0.001    10.5171    132.495     38.405  40.104440     3.1056      9.125   176.4159 1.9723e+03     6.4950     -0.035     -0.051    27.2025   996.4782 0.0000e+00
     -0.036      0.001    10.4986    132.258     38.428  40.127421     3.1106      9.126   176.6027 1.9779e+03     6.4815     -0.035     -0.050    27.2067   996.4771 0.0000e+00
     -0.036      0.000    10.4776    131.991     38.429  40.128451     3.1170      9.126   176.7998 1.9779e+03     6.3811     -0.035     -0.051    27.2095   996.4762 0.0000e+00
     -0.036 5.6189e-08    10.4582    131.746     38.419  40.116890     3.1229      9.127   176.9923 1.9763e+03     6.2967     -0.035     -0.050    27.2086   996.4764 0.0000e+00
     -0.036 6.1808e-07    10.4445    131.574     38.417  40.114601     3.1206      9.128   177.2090 1.9756e+03     6.2472     -0.036     -0.052    27.2067   996.4770 0.0000e+00
     -0.036      0.000    10.4381    131.495     38.403  40.100779     3.1068      9.128   177.3546 1.9760e+03     6.1759     -0.036     -0.052    27.2055   996.4774 0.0000e+00
     -0.036      0.000    10.4318    131.418     38.379  40.076741     3.1041      9.128   177.4625 1.9756e+03     6.1237     -0.035     -0.051    27.2039   996.4778 0.0000e+00
     -0.036      0.001    10.4205    131.275     38.380  40.077885     3.1133      9.129   177.6531 1.9738e+03     6.1068     -0.035     -0.051    27.2034   996.4779 0.0000e+00
     -0.035      0.001    10.4113    131.157     38.416  40.114611     3.1141      9.130   177.8531 1.9727e+03     6.0705     -0.035     -0.050    27.2039   996.4778 0.0000e+00
     -0.035      0.002    10.4101    131.142     38.440  40.139899     3.1309      9.131   177.9876 1.9735e+03     6.1437     -0.035     -0.050    27.2047   996.4776 0.0000e+00
     -0.035      0.002    10.4139    131.193     38.429  40.129710     3.1695      9.131   178.0744 1.9746e+03     6.3682     -0.034     -0.050    27.2059   996.4773 0.0000e+00
     -0.034      0.002    10.4214    131.292     38.417  40.118376     3.1821      9.132   178.2134 1.9755e+03     6.5239     -0.034     -0.048    27.2058   996.4772 0.0000e+00
     -0.033      0.001    10.4368    131.487     38.427  40.129835     3.1696      9.134   178.4642 1.9755e+03     6.5522     -0.033     -0.047    27.2046   996.4776 0.0000e+00
     -0.033      0.001    10.4611    131.793     38.438  40.141285     3.1661      9.135   178.6981 1.9749e+03     6.5135     -0.032     -0.047    27.2038   996.4778 0.0000e+00
     -0.033      0.001    10.4885    132.138     38.427  40.129856     3.2101      9.136   178.8901 1.9750e+03     6.5141     -0.032     -0.046    27.2058   996.4773 0.0000e+00
     -0.033      0.001    10.5122    132.439     38.416  40.118606     3.2929      9.138   179.0649 1.9752e+03     6.6248     -0.033     -0.047    27.2082   996.4766 0.0000e+00
     -0.033      0.001    10.5297    132.665     38.427  40.132238     3.3444      9.139   179.1764 1.9745e+03     6.7378     -0.032     -0.047    27.2088   996.4764 0.0000e+00
     -0.033      0.000    10.5378    132.775     38.459  40.167715     3.3549      9.139   179.2059 1.9738e+03     6.7670     -0.033     -0.046    27.2086   996.4765 0.0000e+00
     -0.032      0.000    10.5347    132.745     38.455  40.166656     3.3244      9.140   179.2509 1.9732e+03     6.6492     -0.032     -0.045    27.2080   996.4766 0.0000e+00
     -0.032      0.001    10.5229    132.601     38.409  40.119445     3.2628      9.142   179.4618 1.9720e+03     6.4287     -0.031     -0.046    27.2093   996.4763 0.0000e+00
     -0.032      0.001    10.5078    132.411     38.394  40.104763     3.2335      9.142   179.6906 1.9710e+03     6.3292     -0.032     -0.045    27.2113   996.4758 0.0000e+00
     -0.032      0.001    10.4982    132.289     38.405  40.116106     3.2389      9.143   179.7800 1.9702e+03     6.3300     -0.031     -0.046    27.2147   996.4748 0.0000e+00
     -0.032      0.000    10.4993    132.303     38.418  40.129626     3.2763      9.144   179.9406 1.9683e+03     6.3073     -0.032     -0.045    27.2196   996.4735 0.0000e+00
     -0.031      0.000    10.5079    132.410     38.430  40.141263     3.3391      9.145   180.1704 1.9661e+03     6.2852     -0.031     -0.044    27.2218   996.4729 0.0000e+00
     -0.031      0.001    10.5174    132.525     38.421  40.129833     3.3652      9.147   180.3216 1.9636e+03     6.2597     -0.030     -0.044    27.2205   996.4732 0.0000e+00
     -0.031      0.001    10.5262    132.629     38.412  40.118398     3.3583      9.147   180.4779 1.9594e+03     6.2600     -0.031     -0.044    27.2198   996.4734 0.0000e+00
     -0.031      0.002    10.5349    132.736     38.424  40.129959     3.3597      9.148   180.5969 1.9559e+03     6.2891     -0.032     -0.046    27.2211   996.4731 0.0000e+00
     -0.031      0.002    10.5398    132.802     38.435  40.142655     3.3643      9.149   180.5560 1.9549e+03     6.2843     -0.031     -0.045    27.2213   996.4730 0.0000e+00
     -0.030      0.002    10.5384    132.797     38.433  40.144944     3.3617      9.151   180.4993 1.9533e+03     6.2668     -0.029     -0.042    27.2181   996.4739 0.0000e+00
     -0.028      0.002    10.5331    132.742     38.441  40.157640     3.3634      9.152   180.6856 1.9505e+03     6.2747     -0.028     -0.040    27.2143   996.4749 0.0000e+00
     -0.028      0.002    10.5245    132.641     38.450  40.169200     3.3853      9.152   181.2605 1.9499e+03     6.3475     -0.028     -0.040    27.2127   996.4753 0.0000e+00
     -0.028      0.001    10.5147    132.518     38.439  40.157754     3.4095      9.153   185.1269 1.9480e+03     6.4587     -0.028     -0.041    27.2141   996.4750 0.0000e+00
     -0.028      0.001    10.5087    132.435     38.430  40.146212     3.4133      9.153   188.8884 1.9412e+03     6.5052     -0.028     -0.040    27.2206   996.4732 0.0000e+00
     -0.028      0.001    10.5033    132.356     38.443  40.156610     3.4140      9.154   186.0434 1.9353e+03     6.5161     -0.027     -0.039    27.2268   996.4715 0.0000e+00
     -0.028      0.001    10.4917    132.199     38.447  40.156498     3.4183      9.155   182.6495 1.9339e+03     6.5251     -0.028     -0.040    27.2301   996.4705 0.0000e+00
     -0.027      0.001    10.4742    131.971     38.438  40.144852     3.4298      9.155   182.3554 1.9321e+03     6.5808     -0.027     -0.039    27.2307   996.4704 0.0000e+00
     -0.026      0.002    10.4573    131.752     38.438  40.142762     3.4578      9.154   182.2291 1.9278e+03     6.6988     -0.026     -0.038    27.2270   996.4714 0.0000e+00
     -0.026      0.003    10.4478    131.625     38.428  40.131229     3.4793      9.154   182.1543 1.9242e+03     6.7715     -0.026     -0.038    27.2213   996.4730 0.0000e+00
     -0.026      0.005    10.4470    131.609     38.432  40.132365     3.4823      9.155   182.3973 1.9246e+03     6.7711     -0.026     -0.038    27.2166   996.4743 0.0000e+00
     -0.025      0.008    10.4473    131.605     38.458  40.156490     3.4936      9.156   183.3604 1.9329e+03     6.6946     -0.026     -0.037    27.2143   996.4750 0.0000e+00
     -0.023      0.010    10.4424    131.536     38.472  40.168986     3.5204      9.157   184.1638 1.9511e+03     6.6003     -0.023     -0.033    27.2113   996.4758 0.0000e+00
     -0.019      0.011    10.4391    131.489     38.462  40.156488     3.5375      9.157   183.8512 1.9715e+03     6.5808     -0.019     -0.028    27.2082   996.4767 0.0000e+00
     -0.015      0.011    10.4459    131.572     38.439  40.132344     3.5448      9.156   183.6242 1.9838e+03     6.5907     -0.015     -0.022    27.2062   996.4773 0.0000e+00
     -0.011      0.010    10.4599    131.744     38.439  40.130992     3.5566      9.156   184.3449 1.9856e+03     6.5553     -0.011     -0.015    27.2029   996.4781 0.0000e+00
     -0.009      0.008    10.4739    131.919     38.449  40.140141     3.5760      9.156   185.6824 1.9780e+03     6.5143     -0.009     -0.013    27.1990   996.4792 0.0000e+00
     -0.008      0.006    10.4884    132.098     38.426  40.115996     3.5960      9.157   194.5471 1.9710e+03     6.5203     -0.008     -0.012    27.1965   996.4799 0.0000e+00
     -0.008      0.006    10.5094    132.357     38.406  40.092986     3.6082      9.157   215.6405 1.9781e+03     6.5298     -0.007     -0.011    27.1958   996.4801 0.0000e+00
     -0.007      0.007    10.5409    132.747     38.430  40.115860     3.6206      9.155   234.5698 1.9965e+03     6.5634     -0.007     -0.011    27.1942   996.4806 0.0000e+00
     -0.006      0.009    10.5792    133.219     38.455  40.138621     3.6417      9.151   241.4466 2.0106e+03     6.6650     -0.006     -0.009    27.1930   996.4810 0.0000e+00
     -0.003      0.013    10.6137    133.643     38.435  40.114260     3.6547      9.147   242.6040 2.0097e+03     6.7422     -0.003     -0.005    27.1929   996.4809 0.0000e+00
     -0.000      0.020    10.6371    133.925     38.401  40.075235     3.6569      9.141   242.8856 1.9891e+03     6.7434      0.000     -0.000    27.1905   996.4816 0.0000e+00
      0.004      0.029    10.6511    134.080     38.381  40.047657     3.6599      9.136   242.1837 1.9577e+03     6.7114      0.003      0.005    27.1868   996.4827 0.0000e+00
      0.010      0.037    10.6576    134.134     38.378  40.034745     3.6559      9.131   232.1391 1.9212e+03     6.6824      0.008      0.011    27.1826   996.4839 0.0000e+00
      0.022      0.046    10.6531    134.047     38.398  40.046061     3.6524      9.128   221.8452 1.8059e+03     6.7218      0.019      0.027    27.1780   996.4851 0.0000e+00
      0.038      0.053    10.6401    133.861     38.416  40.057497     3.6606      9.128   221.4845 1.6099e+03     6.7612      0.039      0.057    27.1741   996.4863 0.0000e+00
      0.054      0.058    10.6296    133.715     38.409  40.046039     3.6852      9.130   220.1196 1.4963e+03     6.7324      0.053      0.077    27.1665   996.4885 0.0000e+00
      0.070      0.061    10.6276    133.678     38.402  40.034487     3.7165      9.131   215.4092 1.3026e+03     6.7342      0.066      0.097    27.1521   996.4925 0.0000e+00
      0.088      0.064    10.6368    133.781     38.415  40.044780     3.7256      9.135   204.1957 1.0231e+03     6.7497      0.088      0.128    27.1371   996.4968 0.0000e+00
      0.103      0.068    10.6570    134.021     38.418  40.043522     3.7176      9.137   194.2382 1.0649e+03     6.7563      0.103      0.150    27.1290   996.4991 0.0000e+00
      0.116      0.073    10.6819    134.315     38.401  40.019265     3.7157      9.137   192.7542 1.4585e+03     6.7816      0.111      0.162    27.1250   996.5003 0.0000e+00
      0.133      0.076    10.7022    134.547     38.395  40.005406     3.8067      9.138   192.6197 1.6039e+03     6.7930      0.128      0.185    27.1195   996.5018 0.0000e+00
      0.156      0.076    10.7045    134.554     38.399  40.002908     3.9854      9.140   191.9238 1.1859e+03     6.7959      0.152      0.220    27.1139   996.5035 0.0000e+00
      0.183      0.075    10.6820    134.255     38.391  39.989059     4.0813      9.142   190.8791 8.9942e+02     6.7847      0.179      0.259    27.1096   996.5048 0.0000e+00
      0.208      0.073    10.6470    133.805     38.371  39.964915     4.0910      9.142   190.2270 1.1037e+03     6.7552      0.207      0.301    27.1014   996.5071 0.0000e+00
      0.224      0.071    10.6129    133.370     38.372  39.964905     4.0930      9.139   189.8038 1.3906e+03     6.7347      0.223      0.324    27.0898   996.5105 0.0000e+00
      0.233      0.067    10.5800    132.953     38.397  39.988925     4.0893      9.138   189.4622 1.2980e+03     6.7330      0.228      0.330    27.0805   996.5130 0.0000e+00
      0.243      0.060    10.5445    132.503     38.411  40.001412     4.0889      9.137   189.1933 9.5687e+02     6.7340      0.235      0.341    27.0743   996.5148 0.0000e+00
      0.262      0.050    10.5091    132.053     38.400  39.988925     4.0883      9.137   188.9614 8.3979e+02     6.6816      0.255      0.370    27.0705   996.5159 0.0000e+00
      0.286      0.040    10.4806    131.692     38.378  39.964905     4.0995      9.138   188.8098 9.4396e+02     6.4931      0.285      0.412    27.0683   996.5166 0.0000e+00
      0.301      0.030    10.4684    131.540     38.378  39.964914     4.1288      9.140   188.7374 1.0661e+03     6.2246      0.300      0.436    27.0665   996.5171 0.0000e+00
      0.302      0.018    10.4809    131.700     38.400  39.989038     4.1480      9.141   188.6882 1.0560e+03     6.0895      0.298      0.434    27.0645   996.5177 0.0000e+00
      0.297      0.006    10.5107    132.080     38.411  40.002660     4.1413      9.142   188.6450 9.2397e+02     6.1042      0.291      0.421    27.0621   996.5184 0.0000e+00
      0.291     -0.002    10.5421    132.477     38.410  40.002650     3.9873      9.142   188.5591 8.1624e+02     6.1740      0.285      0.412    27.0607   996.5187 0.0000e+00
      0.289     -0.004    10.5653    132.772     38.396  39.988923     3.7075      9.141   188.5097 7.6600e+02     6.2451      0.283      0.410    27.0610   996.5186 0.0000e+00
      0.290     -0.001    10.5788    132.943     38.371  39.963655     3.5581      9.141   188.6508 7.1710e+02     6.2752      0.284      0.412    27.0633   996.5180 0.0000e+00
      0.292      0.005    10.5879    133.060     38.358  39.951055     3.5423      9.142   188.8878 6.8507e+02     6.3093      0.286      0.415    27.0658   996.5173 0.0000e+00
      0.293      0.011    10.5951    133.151     38.370  39.963541     3.5342      9.142   189.0525 7.1957e+02     6.3944      0.288      0.417    27.0671   996.5170 0.0000e+00
      0.294      0.017    10.5955    133.155     38.394  39.987665     3.5113      9.142   189.1790 7.2963e+02     6.4849      0.288      0.418    27.0678   996.5168 0.0000e+00
      0.298      0.021    10.5868    133.045     38.395  39.988810     3.4831      9.142   189.2991 6.4490e+02     6.4868      0.290      0.421    27.0687   996.5166 0.0000e+00
      0.307      0.021    10.5728    132.865     38.385  39.977381     3.4788      9.142   189.3863 5.7199e+02     6.4821      0.300      0.435    27.0702   996.5162 0.0000e+00
      0.318      0.019    10.5585    132.684     38.384  39.976446     3.4947      9.143   189.4587 5.5313e+02     6.5262      0.314      0.456    27.0708   996.5161 0.0000e+00
      0.326      0.016    10.5487    132.561     38.385  39.977496     3.5447      9.145   189.5722 6.0607e+02     6.4310      0.321      0.466    27.0701   996.5163 0.0000e+00
      0.327      0.011    10.5424    132.482     38.398  39.990080     3.6244      9.146   189.7267 6.8437e+02     6.2159      0.322      0.467    27.0687   996.5166 0.0000e+00
      0.326      0.006    10.5328    132.364     38.408  40.001630     3.6609      9.146   189.7786 7.0752e+02     6.0875      0.319      0.463    27.0676   996.5171 0.0000e+00
      0.324      0.003    10.5202    132.207     38.396  39.990192     3.6563      9.147   189.7681 7.3129e+02     6.0591      0.317      0.460    27.0670   996.5172 0.0000e+00
      0.323      0.004    10.5142    132.133     38.385  39.978743     3.6298      9.147   190.0305 7.2389e+02     6.1668      0.317      0.459    27.0670   996.5171 0.0000e+00
      0.325      0.009    10.5242    132.256     38.397  39.990170     3.5824      9.145   190.7149 6.7542e+02     6.3739      0.318      0.462    27.0669   996.5172 0.0000e+00
      0.328      0.020    10.5518    132.601     38.408  40.001390     3.5508      9.141   191.4171 6.9322e+02     6.4992      0.321      0.466    27.0676   996.5170 0.0000e+00
      0.330      0.032    10.5901    133.081     38.395  39.987434     3.5426      9.139   191.8961 7.5924e+02     6.5339      0.324      0.471    27.0691   996.5166 0.0000e+00
      0.334      0.043    10.6262    133.532     38.359  39.948388     3.5877      9.139   192.2903 7.8561e+02     6.5974      0.325      0.470    27.0692   996.5166 0.0000e+00
      0.348      0.052    10.6502    133.827     38.324  39.910185     3.6802      9.141   192.5700 7.3840e+02     6.7096      0.336      0.487    27.0688   996.5168 0.0000e+00
      0.373      0.057    10.6592    133.930     38.323  39.906408     3.7332      9.143   192.7838 6.3862e+02     6.7441      0.368      0.535    27.0677   996.5172 0.0000e+00
      0.395      0.060    10.6517    133.828     38.323  39.902716     3.7429      9.144   193.0676 5.8238e+02     6.7188      0.391      0.567    27.0667   996.5176 0.0000e+00
      0.409      0.063    10.6331    133.584     38.290  39.865543     3.8323      9.142   193.5066 6.3798e+02     6.8297      0.401      0.581    27.0664   996.5177 0.0000e+00
      0.419      0.066    10.6165    133.364     38.266  39.837847     3.9993      9.139   194.0471 6.7496e+02     7.0689      0.412      0.598    27.0641   996.5183 0.0000e+00
      0.430      0.070    10.6041    133.199     38.254  39.821763     4.0884      9.136   194.4416 6.0203e+02     7.2194      0.421      0.610    27.0594   996.5197 0.0000e+00
      0.445      0.076    10.5912    133.029     38.233  39.798031     4.1037      9.134   194.6619 5.4019e+02     7.2732      0.432      0.627    27.0551   996.5209 0.0000e+00
      0.469      0.084    10.5786    132.859     38.183  39.741342     4.2098      9.132   194.9048 5.1733e+02     7.2936      0.459      0.665    27.0516   996.5220 0.0000e+00
      0.499      0.090    10.5638    132.650     38.097  39.644187     4.4096      9.129   195.1407 4.8256e+02     7.2365      0.490      0.711    27.0467   996.5235 0.0000e+00
      0.526      0.092    10.5434    132.365     38.040  39.575545     4.5162      9.127   195.2771 4.4863e+02     7.2040      0.518      0.752    27.0420   996.5249 0.0000e+00
      0.549      0.091    10.5210    132.055     38.020  39.546193     4.5182      9.126   195.4352 4.2926e+02     7.2289      0.540      0.783    27.0401   996.5255 0.0000e+00
      0.570      0.087    10.5013    131.782     38.025  39.543212     4.5209      9.125   195.6761 4.1898e+02     7.2108      0.559      0.811    27.0365   996.5265 0.0000e+00
      0.590      0.084    10.4844    131.550     38.027  39.539489     4.6014      9.123   195.9528 4.0946e+02     7.1154      0.581      0.842    27.0260   996.5295 0.0000e+00
      0.610      0.084    10.4642    131.281     37.996  39.501169     4.7543      9.120   196.2001 4.0464e+02     6.9930      0.599      0.868    27.0118   996.5335 0.0000e+00
      0.629      0.084    10.4320    130.859     37.963  39.460762     4.8437      9.117   196.3426 4.0352e+02     6.9769      0.615      0.892    26.9994   996.5370 0.0000e+00
      0.652      0.083    10.3884    130.285     37.943  39.431801     4.8587      9.115   196.3848 3.9391e+02     6.9864      0.638      0.926    26.9889   996.5400 0.0000e+00
      0.677      0.082    10.3386    129.627     37.928  39.404915     4.9013      9.114   196.4526 3.6913e+02     6.9437      0.665      0.965    26.9809   996.5423 0.0000e+00
      0.701      0.082    10.2886    128.965     37.924  39.389588     4.9771      9.112   196.8173 3.4566e+02     6.9513      0.689      0.999    26.9744   996.5442 0.0000e+00
      0.720      0.082    10.2473    128.418     37.918  39.373428     5.0124      9.108   197.4388 3.3862e+02     6.9806      0.708      1.026    26.9675   996.5461 0.0000e+00
      0.736      0.082    10.2169    128.008     37.891  39.336475     5.0158      9.104   198.0309 3.3543e+02     7.0028      0.722      1.047    26.9570   996.5491 0.0000e+00
      0.754      0.083    10.1957    127.711     37.889  39.323656     5.0007      9.099   198.4708 3.1388e+02     7.0556      0.737      1.070    26.9404   996.5536 0.0000e+00
      0.776      0.086    10.1855    127.544     37.922  39.345377     4.9515      9.094   198.7985 2.8319e+02     7.1280      0.760      1.103    26.9248   996.5580 0.0000e+00
      0.800      0.089    10.1850    127.494     37.936  39.345157     4.9151      9.092   199.0676 2.6335e+02     7.1562      0.785      1.138    26.9123   996.5616 0.0000e+00
      0.826      0.090    10.1877    127.488     37.926  39.320980     4.8990      9.089   199.2299 2.5210e+02     7.1680      0.810      1.174    26.9016   996.5646 0.0000e+00
      0.851      0.087    10.1894    127.477     37.922  39.306952     4.8686      9.086   199.3842 2.4628e+02     7.2054      0.836      1.211    26.8885   996.5683 0.0000e+00
      0.875      0.082    10.1949    127.525     37.925  39.302493     4.8252      9.086   199.5570 2.4304e+02     7.2152      0.859      1.246    26.8688   996.5739 0.0000e+00
      0.895      0.077    10.2121    127.720     37.897  39.267055     4.7996      9.085   199.7700 2.3736e+02     7.1878      0.879      1.275    26.8506   996.5790 0.0000e+00
      0.911      0.072    10.2458    128.113     37.837  39.195865     4.8016      9.084   200.0669 2.3140e+02     7.1684      0.894      1.297    26.8322   996.5840 0.0000e+00
      0.926      0.069    10.2952    128.685     37.798  39.140004     4.8751      9.082   200.3071 2.2628e+02     7.3091      0.908      1.316    26.8170   996.5883 0.0000e+00
      0.942      0.069    10.3498    129.307     37.778  39.099457     5.0121      9.079   200.5243 2.2084e+02     7.5771      0.923      1.339    26.8099   996.5903 0.0000e+00
      0.960      0.071    10.3958    129.814     37.725  39.022989     5.0889      9.076   200.7995 2.1559e+02     7.6889      0.941      1.365    26.8025   996.5923 0.0000e+00
      0.979      0.073    10.4263    130.112     37.645  38.913670     5.0920      9.073   201.0539 2.1021e+02     7.6449      0.960      1.392    26.7915   996.5954 0.0000e+00
      0.998      0.075    10.4444    130.223     37.564  38.793321     5.0840      9.069   201.3626 2.0361e+02     7.6032      0.978      1.418    26.7725   996.6007 0.0000e+00
      1.019      0.077    10.4506    130.156     37.467  38.646936     5.0973      9.063   201.7793 1.9715e+02     7.5443      1.000      1.450    26.7425   996.6090 0.0000e+00
      1.039      0.077    10.4376    129.833     37.352  38.476722     5.1313      9.058   202.1338 1.9194e+02     7.4582      1.021      1.480    26.7144   996.6167 0.0000e+00
      1.057      0.075    10.4039    129.249     37.252  38.322140     5.1474      9.054   202.3789 1.8651e+02     7.4135      1.037      1.503    26.6850   996.6247 0.0000e+00
      1.077      0.070    10.3605    128.569     37.215  38.237807     5.1456      9.050   202.6789 1.8028e+02     7.3973      1.054      1.530    26.6345   996.6385 0.0000e+00
      1.098      0.065    10.3220    127.986     37.230  38.218719     5.1874      9.045   203.1798 1.7477e+02     7.3934      1.078      1.564    26.5706   996.6559 0.0000e+00
      1.115      0.061    10.2908    127.532     37.250  38.218252     5.2707      9.041   203.6169 1.7124e+02     7.3990      1.096      1.590    26.5001   996.6751 0.0000e+00
      1.127      0.059    10.2625    127.142     37.276  38.232126     5.3124      9.037   203.8342 1.6817e+02     7.3995      1.104      1.601    26.4258   996.6952 0.0000e+00
      1.137      0.056    10.2294    126.703     37.312  38.259495     5.3102      9.033   204.0855 1.6399e+02     7.4000      1.113      1.614    26.3628   996.7120 0.0000e+00
      1.150      0.054    10.1774    126.038     37.353  38.295247     5.3218      9.028   204.4181 1.5955e+02     7.3064      1.127      1.635    26.3166   996.7246 0.0000e+00
      1.166      0.053    10.0976    125.050     37.403  38.347000     5.3570      9.024   204.7592 1.5570e+02     7.1198      1.144      1.659    26.2892   996.7320 0.0000e+00
      1.182      0.053     9.9851    123.683     37.424  38.377415     5.3815      9.019   205.1126 1.5210e+02     7.0120      1.160      1.683    26.2757   996.7358 0.0000e+00
      1.195      0.052     9.8438    121.968     37.382  38.345622     5.3835      9.015   205.5067 1.4909e+02     7.0190      1.173      1.703    26.2631   996.7392 0.0000e+00
      1.207      0.051     9.6985    120.180     37.314  38.280000     5.3635      9.011   205.9105 1.4638e+02     7.0731      1.183      1.716    26.2518   996.7423 0.0000e+00
      1.218      0.051     9.5795    118.684     37.261  38.218757     5.3305      9.006   206.2951 1.4303e+02     7.1411      1.194      1.732    26.2498   996.7429 0.0000e+00
      1.230      0.052     9.5024    117.682     37.236  38.176416     5.3226      9.001   206.6297 1.3955e+02     7.1865      1.206      1.750    26.2651   996.7389 0.0000e+00
      1.243      0.054     9.4720    117.242     37.231  38.148894     5.3462      8.995   206.8589 1.3615e+02     7.1960      1.218      1.766    26.2875   996.7329 0.0000e+00
      1.259      0.055     9.4864    117.345     37.248  38.139868     5.4860      8.988   207.0011 1.3253e+02     7.0917      1.234      1.790    26.2941   996.7311 0.0000e+00
      1.275      0.055     9.5308    117.812     37.267  38.130724     5.7299      8.981   207.1447 1.2889e+02     6.8761      1.250      1.814    26.2822   996.7344 0.0000e+00
      1.290      0.054     9.5812    118.363     37.262  38.101771     5.8587      8.975   207.4764 1.2540e+02     6.7524      1.265      1.834    26.2588   996.7407 0.0000e+00
      1.305      0.052     9.6133    118.710     37.284  38.107136     5.8730      8.969   208.2588 1.2237e+02     6.7434      1.280      1.856    26.2290   996.7488 0.0000e+00
      1.317      0.051     9.6142    118.691     37.319  38.132087     5.8765      8.959   209.1185 1.2024e+02     6.7015      1.293      1.876    26.1930   996.7585 0.0000e+00
      1.327      0.053     9.5836    118.292     37.344  38.149530     5.9008      8.947   209.4397 1.1871e+02     6.4427      1.302      1.888    26.1511   996.7698 0.0000e+00
      1.336      0.057     9.5278    117.562     37.399  38.191077     5.9589      8.934   209.5602 1.1668e+02     6.0383      1.310      1.898    26.1158   996.7792 0.0000e+00
      1.349      0.061     9.4577    116.613     37.490  38.253551     5.9885      8.922   209.8874 1.1293e+02     5.8428      1.320      1.913    26.0932   996.7853 0.0000e+00
      1.369      0.063     9.3813    115.564     37.606  38.333555     5.9905      8.912   210.4714 1.0804e+02     5.8489      1.342      1.947    26.0783   996.7894 0.0000e+00
      1.392      0.064     9.3051    114.529     37.702  38.396605     5.9838      8.904   211.2008 1.0414e+02     5.8171      1.367      1.983    26.0753   996.7903 0.0000e+00
      1.411      0.063     9.2376    113.624     37.776  38.444530     5.9500      8.897   211.8225 1.0132e+02     5.6885      1.385      2.007    26.0635   996.7935 0.0000e+00
      1.426      0.059     9.1809    112.869     37.882  38.532105     5.9198      8.889   212.3955 9.9101e+01     5.5719      1.401      2.031    26.0157   996.8063 0.0000e+00
      1.438      0.054     9.1297    112.189     37.997  38.630228     5.9057      8.881   212.8812 9.7369e+01     5.5539      1.412      2.046    25.9590   996.8214 0.0000e+00
      1.448      0.050     9.0722    111.425     38.066  38.678724     5.8139      8.873   213.2210 9.5626e+01     5.4718      1.419      2.057    25.9119   996.8340 0.0000e+00
      1.459      0.048     8.9901    110.353     38.085  38.674089     5.6507      8.868   213.7502 9.3643e+01     5.2669      1.431      2.075    25.8760   996.8436 0.0000e+00
      1.472      0.047     8.8714    108.830     38.074  38.637633     5.5702      8.863   214.5484 9.1434e+01     5.1410      1.444      2.095    25.8518   996.8500 0.0000e+00
      1.486      0.045     8.7119    106.829     38.073  38.618766     5.5693      8.857   215.2148 8.9322e+01     5.0965      1.458      2.114    25.8278   996.8565 0.0000e+00
      1.499      0.045     8.5196    104.451     38.098  38.636373     5.5530      8.851   215.6123 8.7502e+01     5.0233      1.470      2.132    25.8010   996.8637 0.0000e+00
      1.510      0.045     8.3137    101.904     38.131  38.660077     5.5207      8.844   215.8272 8.6161e+01     4.9448      1.482      2.150    25.7684   996.8724 0.0000e+00
      1.518      0.046     8.1083     99.340     38.204  38.714924     5.5091      8.837   215.9195 8.5055e+01     4.9011      1.489      2.160    25.7303   996.8823 0.0000e+00
      1.527      0.047     7.9179     96.943     38.307  38.791658     5.5079      8.832   216.0400 8.3540e+01     4.8877      1.495      2.170    25.7038   996.8893 0.0000e+00
      1.540      0.049     7.7631     94.975     38.373  38.826074     5.4714      8.827   216.2528 8.1515e+01     4.9467      1.508      2.187    25.7033   996.8895 0.0000e+00
      1.555      0.051     7.6553     93.591     38.389  38.813599     5.4144      8.819   216.5992 7.9375e+01     5.0587      1.524      2.210    25.6950   996.8918 0.0000e+00
      1.570      0.051     7.5863     92.706     38.362  38.767743     5.3906      8.811   217.0444 7.7464e+01     5.1272      1.541      2.234    25.6654   996.8997 0.0000e+00
      1.585      0.049     7.5353     92.061     38.321  38.715953     5.4004      8.804   217.7643 7.5778e+01     5.1518      1.556      2.255    25.6296   996.9092 0.0000e+00
      1.597      0.044     7.4757     91.322     38.305  38.695222     5.4117      8.798   218.7639 7.4383e+01     5.1263      1.567      2.273    25.5822   996.9216 0.0000e+00
      1.607      0.041     7.3892     90.262     38.319  38.707514     5.4488      8.792   219.4944 7.3438e+01     4.9507      1.577      2.288    25.5410   996.9324 0.0000e+00
      1.615      0.041     7.2795     88.917     38.352  38.737624     5.5202      8.785   219.8863 7.2769e+01     4.6664      1.585      2.299    25.5179   996.9386 0.0000e+00
      1.621      0.042     7.1668     87.499     38.375  38.741884     5.5633      8.777   220.2323 7.1944e+01     4.5080      1.590      2.306    25.5071   996.9414 0.0000e+00
      1.630      0.045     7.0723     86.249     38.375  38.695507     5.5804      8.769   220.6668 7.0514e+01     4.5099      1.597      2.316    25.5023   996.9427 0.0000e+00
      1.644      0.047     7.0022     85.267     38.364  38.621165     5.6660      8.761   221.1813 6.8510e+01     4.6239      1.610      2.336    25.4999   996.9434 0.0000e+00
      1.661      0.048     6.9523     84.543     38.342  38.541198     5.8187      8.754   221.4626 6.6500e+01     4.8044      1.629      2.362    25.5047   996.9422 0.0000e+00
      1.677      0.048     6.9197     84.054     38.336  38.490276     5.9096      8.746   221.4869 6.5025e+01     4.8899      1.647      2.388    25.4884   996.9466 0.0000e+00
      1.688      0.047     6.8910     83.642     38.327  38.449747     5.9232      8.740   221.5619 6.4154e+01     4.9035      1.657      2.404    25.4182   996.9649 0.0000e+00
      1.696      0.046     6.8432     83.012     38.271  38.368522     5.9310      8.736   221.7668 6.3420e+01     4.9700      1.664      2.413    25.3249   996.9892 0.0000e+00
      1.705      0.046     6.7548     81.882     38.202  38.269879     5.9518      8.732   222.1576 6.2442e+01     5.0715      1.670      2.423    25.2481   997.0091 0.0000e+00
      1.715      0.048     6.6203     80.179     38.179  38.209180     5.9668      8.726   222.6734 6.1146e+01     5.1143      1.681      2.438    25.1887   997.0245 0.0000e+00
      1.728      0.052     6.4525     78.072     38.216  38.205862     5.9647      8.720   223.0991 5.9586e+01     5.0948      1.695      2.458    25.1493   997.0347 0.0000e+00
      1.745      0.053     6.2676     75.767     38.277  38.229698     5.9270      8.714   223.4323 5.8020e+01     5.0315      1.711      2.482    25.1249   997.0411 0.0000e+00
      1.761      0.053     6.0835     73.483     38.323  38.243412     5.8493      8.708   223.6910 5.6615e+01     4.9388      1.728      2.506    25.0873   997.0508 0.0000e+00
      1.776      0.051     5.9149     71.398     38.353  38.244672     5.7970      8.703   223.9042 5.5441e+01     4.9238      1.743      2.528    25.0343   997.0644 0.0000e+00
      1.788      0.047     5.7611     69.505     38.375  38.244892     5.7886      8.699   224.2032 5.4591e+01     4.9495      1.755      2.546    24.9788   997.0787 0.0000e+00
      1.798      0.043     5.6112     67.680     38.386  38.246047     5.7819      8.694   224.4665 5.3942e+01     4.8893      1.763      2.557    24.9298   997.0913 0.0000e+00
      1.806      0.041     5.4542     65.791     38.395  38.258615     5.7594      8.689   224.7645 5.3249e+01     4.7854      1.771      2.569    24.8887   997.1019 0.0000e+00
      1.816      0.040     5.2901     63.828     38.395  38.269910     5.7414      8.683   225.2260 5.2352e+01     4.7096      1.781      2.583    24.8511   997.1114 0.0000e+00
      1.827      0.040     5.1331     61.949     38.371  38.255667     5.7390      8.676   225.6582 5.1401e+01     4.6602      1.793      2.599    24.8198   997.1195 0.0000e+00
      1.837      0.042     4.9962     60.297     38.329  38.213373     5.7391      8.670   226.0322 5.0614e+01     4.6475      1.803      2.615    24.8054   997.1232 0.0000e+00
      1.847      0.046     4.8888     58.981     38.270  38.139406     5.7419      8.663   226.3067 4.9830e+01     4.6875      1.812      2.627    24.8124   997.1215 0.0000e+00
      1.858      0.049     4.8218     58.131     38.156  37.996091     5.7473      8.656   226.4817 4.8860e+01     4.7174      1.821      2.641    24.8317   997.1166 0.0000e+00
      1.871      0.050     4.7997     57.794     38.022  37.813519     5.7522      8.649   226.7712 4.7725e+01     4.7135      1.833      2.659    24.8479   997.1126 0.0000e+00
      1.887      0.049     4.8123     57.851     37.984  37.709212     5.7487      8.641   227.1403 4.6508e+01     4.7059      1.850      2.683    24.8498   997.1121 0.0000e+00
      1.903      0.047     4.8327     58.001     38.029  37.686962     5.7133      8.635   227.4170 4.5486e+01     4.5920      1.868      2.710    24.8306   997.1170 0.0000e+00
      1.916      0.042     4.8219     57.803     38.064  37.671345     5.6624      8.630   227.6210 4.4835e+01     4.3862      1.882      2.729    24.7929   997.1267 0.0000e+00
      1.925      0.037     4.7422     56.807     38.069  37.647266     5.6367      8.625   227.8005 4.4428e+01     4.2499      1.890      2.740    24.7313   997.1423 0.0000e+00
      1.931      0.031     4.5631     54.637     38.090  37.649683     5.6372      8.618   228.0392 4.4038e+01     4.1884      1.893      2.746    24.6311   997.1677 0.0000e+00
      1.937      0.024     4.2838     51.279     38.153  37.700538     5.6687      8.612   228.3557 4.3528e+01     4.1671      1.899      2.754    24.5336   997.1923 0.0000e+00
      1.945      0.019     3.9429     47.201     38.203  37.754330     5.7219      8.607   228.6158 4.3048e+01     4.1897      1.908      2.766    24.4699   997.2084 0.0000e+00
      1.951      0.015     3.5847     42.932     38.222  37.792281     5.7509      8.601   228.7743 4.2773e+01     4.2324      1.915      2.776    24.4359   997.2169 0.0000e+00
      1.954      0.013     3.2474     38.916     38.247  37.842047     5.7512      8.596   228.8956 4.2708e+01     4.2569      1.917      2.780    24.4145   997.2223 0.0000e+00
      1.955      0.013     2.9627     35.524     38.231  37.848282     5.7425      8.592   229.0498 4.2733e+01     4.2568      1.917      2.780    24.3934   997.2277 0.0000e+00
      1.955      0.018     2.7519     33.006     38.111  37.740752     5.7322      8.588   229.3486 4.2693e+01     4.2311      1.916      2.779    24.3984   997.2264 0.0000e+00
      1.956      0.025     2.6377     31.623     37.944  37.557542     5.7307      8.584   229.7552 4.2417e+01     4.2085      1.916      2.779    24.4299   997.2185 0.0000e+00
      1.962      0.034     2.6306     31.495     37.849  37.410382     5.7332      8.580   230.0946 4.1731e+01     4.2453      1.921      2.786    24.4655   997.2096 0.0000e+00
      1.974      0.042     2.7108     32.400     37.865  37.357831     5.7030      8.576   230.3538 4.0716e+01     4.3158      1.934      2.805    24.4956   997.2021 0.0000e+00
      1.991      0.047     2.8403     33.899     37.935  37.366361     5.6423      8.571   230.5673 3.9728e+01     4.4058      1.954      2.833    24.5228   997.1953 0.0000e+00
      2.008      0.048     2.9604     35.299     37.995  37.386484     5.6148      8.566   230.7829 3.8940e+01     4.4810      1.970      2.857    24.5075   997.1992 0.0000e+00
      2.021      0.045     3.0002     35.756     38.040  37.410655     5.6213      8.561   230.9815 3.8298e+01     4.4712      1.983      2.876    24.4213   997.2209 0.0000e+00
      2.031      0.041     2.9155     34.734     38.049  37.404695     5.6263      8.558   231.1611 3.7843e+01     4.3525      1.994      2.891    24.3183   997.2467 0.0000e+00
      2.039      0.040     2.7077     32.243     37.979  37.314405     5.6312      8.554   231.4057 3.7560e+01     4.1606      2.000      2.901    24.2348   997.2675 0.0000e+00
      2.044      0.043     2.4134     28.715     37.908  37.207572     5.6296      8.548   231.7019 3.7297e+01     4.0183      2.005      2.908    24.1841   997.2802 0.0000e+00
      2.051      0.049     2.0829     24.750     37.946  37.191993     5.6242      8.541   231.9901 3.6803e+01     4.0085      2.009      2.915    24.1655   997.2848 0.0000e+00
      2.065      0.054     1.7614     20.900     38.070  37.252915     5.6260      8.535   232.2235 3.5926e+01     4.0435      2.021      2.932    24.1507   997.2886 0.0000e+00
      2.085      0.059     1.4854     17.599     38.188  37.309344     5.6774      8.530   232.3720 3.4891e+01     4.0143      2.044      2.964    24.1256   997.2949 0.0000e+00
      2.106      0.061     1.2724     15.056     38.300  37.366394     5.7864      8.524   232.4094 3.4057e+01     3.9834      2.066      2.998    24.0788   997.3066 0.0000e+00
      2.123      0.060     1.1071     13.085     38.481  37.498302     5.8513      8.518   232.4179 3.3440e+01     3.9978      2.083      3.021    24.0039   997.3251 0.0000e+00
      2.137      0.058     0.9596     11.332     38.789  37.761610     5.8550      8.513   232.4739 3.2894e+01     3.9922      2.097      3.041    23.9192   997.3460 0.0000e+00
      2.149      0.056     0.8069      9.521     39.078  38.010942     5.8319      8.508   232.6569 3.2459e+01     3.9811      2.108      3.057    23.8419   997.3652 0.0000e+00
      2.159      0.056     0.6439      7.592     39.136  38.037326     5.7790      8.504   232.9098 3.2022e+01     3.9942      2.116      3.070    23.7730   997.3821 0.0000e+00
      2.171      0.059     0.4860      5.727     39.208  38.080582     5.7359      8.499   233.1220 3.1392e+01     3.9865      2.128      3.086    23.7135   997.3967 0.0000e+00
      2.187      0.063     0.3454      4.066     39.588  38.406949     5.7179      8.493   233.3297 3.0607e+01     3.9537      2.143      3.108    23.6688   997.4077 0.0000e+00
      2.207      0.065     0.2280      2.681     40.208  38.936410     5.6233      8.486   233.4425 2.9770e+01     3.8601      2.163      3.138    23.6291   997.4176 0.0000e+00
      2.227      0.065     0.1405      1.649     41.038  39.657737     5.4411      8.479   233.4532 2.9011e+01     3.7070      2.186      3.170    23.5856   997.4284 0.0000e+00
      2.247      0.062     0.0864      1.012     41.879  40.399302     5.3359      8.473   233.4594 2.8409e+01     3.6088      2.205      3.198    23.5624   997.4340 0.0000e+00
      2.262      0.057     0.0649      0.759     42.547  40.982864     5.3137      8.468   233.5177 2.7944e+01     3.5576      2.220      3.219    23.5218   997.4440 0.0000e+00
      2.275      0.052     0.0681      0.796     43.416  41.761623     5.2247      8.463   233.6412 2.7572e+01     3.4166      2.231      3.236    23.4181   997.4693 0.0000e+00
      2.285      0.049     0.0846      0.986     44.655  42.894888     5.0666      8.458   233.7480 2.7216e+01     3.2145      2.240      3.250    23.3076   997.4962 0.0000e+00
      2.294      0.049     0.1036      1.207     46.150  44.272530     4.9789      8.451   233.8628 2.6864e+01     3.1131      2.250      3.264    23.2240   997.5166 0.0000e+00
      2.304      0.053     0.1225      1.424     47.790  45.782977     4.9622      8.443   233.9973 2.6439e+01     3.1086      2.258      3.275    23.1553   997.5332 0.0000e+00
      2.317      0.058     0.1405      1.632     48.933  46.806668     4.8552      8.436   234.0827 2.5846e+01     3.1267      2.271      3.293    23.0902   997.5490 0.0000e+00
      2.334      0.061     0.1573      1.824     49.144  46.934028     4.6660      8.429   234.2072 2.5194e+01     3.1036      2.288      3.319    23.0244   997.5652 0.0000e+00
      2.354      0.062     0.1728      2.002     48.963  46.687752     4.5731      8.423   234.3844 2.4558e+01     3.0576      2.308      3.347    22.9634   997.5801 0.0000e+00
      2.373      0.059     0.1846      2.137     49.031  46.686586     4.5728      8.415   234.5044 2.3986e+01     3.0627      2.329      3.377    22.8994   997.5959 0.0000e+00
      2.390      0.053     0.1922      2.223     49.403  46.983354     4.6024      8.407   234.5401 2.3566e+01     3.0671      2.346      3.401    22.8246   997.6141 0.0000e+00
      2.402      0.046     0.1967      2.272     50.109  47.608654     4.9137      8.398   234.5571 2.3266e+01     3.0131      2.356      3.417    22.7445   997.6329 0.0000e+00
      2.410      0.041     0.1985      2.291     51.189  48.594840     5.4748      8.388   234.6238 2.3057e+01     2.9330      2.364      3.428    22.6685   997.6505 0.0000e+00
      2.416      0.039     0.1990      2.295     52.194  49.507833     5.7946      8.378   234.6578 2.2899e+01     2.8850      2.369      3.436    22.6009   997.6664 0.0000e+00
      2.423      0.041     0.1991      2.294     52.777  50.009987     6.0241      8.369   234.6247 2.2647e+01     2.8918      2.375      3.445    22.5420   997.6802 0.0000e+00
      2.433      0.045     0.1975      2.273     53.071  50.220340     8.2754      8.361   234.5680 2.2278e+01     3.0158      2.385      3.459    22.4973   997.6907 0.0000e+00
      2.446      0.050     0.1935      2.223     53.284  50.336192    12.4068      8.353   234.4888 2.1865e+01     3.2046      2.398      3.478    22.4624   997.6995 0.0000e+00
      2.461      0.053     0.1889      2.167     53.513  50.457887    14.6550      8.344   234.4409 2.1420e+01     3.3066      2.413      3.499    22.4250   997.7085 0.0000e+00
      2.478      0.054     0.1842      2.109     53.706  50.548316    14.8153      8.335   234.2474 2.0995e+01     3.3312      2.431      3.525    22.3796   997.7193 0.0000e+00
      2.494      0.052     0.1787      2.044     53.782  50.540192    14.4498      8.325   233.5259 2.0652e+01     3.2730      2.447      3.549    22.3161   997.7340 0.0000e+00
      2.507      0.048     0.1740      1.988     53.728  50.423068    13.7552      8.315   231.9981 2.0381e+01     3.1598      2.460      3.568    22.2313   997.7535 0.0000e+00
      2.518      0.046     0.1713      1.956     53.496  50.148352    13.3959      8.304   229.9710 2.0150e+01     3.1089      2.470      3.583    22.1378   997.7751 0.0000e+00
      2.526      0.046     0.1698      1.936     53.142  49.759165    13.5814      8.294   228.2028 1.9915e+01     3.1166      2.477      3.593    22.0510   997.7949 0.0000e+00
      2.535      0.047     0.1687      1.920     52.827  49.401222    15.9122      8.286   226.7084 1.9608e+01     3.2197      2.484      3.604    21.9768   997.8119 0.0000e+00
      2.548      0.049     0.1670      1.899     52.470  48.996101    20.1886      8.277   225.1529 1.9222e+01     3.4386      2.497      3.622    21.9163   997.8256 0.0000e+00
      2.564      0.052     0.1657      1.881     52.069  48.544472    22.5279      8.266   223.6789 1.8837e+01     3.5998      2.514      3.646    21.8656   997.8370 0.0000e+00
      2.579      0.053     0.1650      1.870     52.050  48.449795    22.7642      8.256   222.4803 1.8502e+01     3.5959      2.530      3.669    21.8152   997.8483 0.0000e+00
      2.593      0.052     0.1630      1.845     52.443  48.740428    23.0112      8.246   220.6411 1.8222e+01     3.5227      2.543      3.689    21.7554   997.8617 0.0000e+00
      2.606      0.048     0.1598      1.806     52.810  49.009883    23.4246      8.236   217.1860 1.7963e+01     3.5017      2.556      3.707    21.6851   997.8775 0.0000e+00
      2.618      0.043     0.1582      1.786     53.045  49.167202    23.6444      8.226   212.9695 1.7695e+01     3.5380      2.568      3.724    21.6104   997.8940 0.0000e+00
      2.629      0.039     0.1577      1.779     53.318  49.372231    23.6568      8.218   208.4642 1.7464e+01     3.5687      2.579      3.742    21.5356   997.9106 0.0000e+00
      2.638      0.038     0.1563      1.762     53.729  49.710448    23.5396      8.211   203.4091 1.7314e+01     3.5448      2.588      3.753    21.4644   997.9267 0.0000e+00
      2.644      0.040     0.1554      1.751     54.112  50.017282    22.2281      8.204   198.5679 1.7196e+01     3.4458      2.592      3.760    21.3944   997.9423 0.0000e+00
      2.652      0.044     0.1552      1.747     54.262  50.096888    19.8412      8.198   195.0149 1.7015e+01     3.3226      2.599      3.770    21.3337   997.9558 0.0000e+00
      2.662      0.049     0.1544      1.736     54.484  50.228286    18.5313      8.191   193.1440 1.6723e+01     3.2679      2.609      3.784    21.2933   997.9648 0.0000e+00
      2.676      0.054     0.1523      1.709     55.313  50.907214    18.2944      8.183   191.9506 1.6367e+01     3.2758      2.623      3.805    21.2583   997.9727 0.0000e+00
      2.694      0.059     0.1494      1.674     56.894  52.271441    16.9424      8.174   190.3077 1.6011e+01     3.3196      2.642      3.831    21.2151   997.9824 0.0000e+00
      2.713      0.059     0.1472      1.647     58.614  53.764608    14.4685      8.165   188.4226 1.5684e+01     3.3714      2.661      3.860    21.1617   997.9942 0.0000e+00
      2.730      0.056     0.1457      1.628     59.616  54.604382    13.1186      8.157   186.6243 1.5408e+01     3.3446      2.678      3.884    21.0934   998.0091 0.0000e+00
      2.744      0.050     0.1447      1.615     59.974  54.865298    12.9665      8.150   184.8263 1.5168e+01     3.2905      2.691      3.902    21.0145   998.0266 0.0000e+00
      2.755      0.043     0.1426      1.590     60.193  55.013340    12.6123      8.144   183.0308 1.4956e+01     3.3065      2.703      3.921    20.9336   998.0447 0.0000e+00
      2.765      0.037     0.1394      1.554     60.288  55.060121    11.9927      8.137   181.0896 1.4800e+01     3.3425      2.712      3.934    20.8564   998.0621 0.0000e+00
      2.772      0.035     0.1373      1.529     60.385  55.113220    11.6559      8.131   178.4780 1.4690e+01     3.3640      2.718      3.942    20.7884   998.0771 0.0000e+00
      2.778      0.036     0.1364      1.518     60.887  55.528234    11.5576      8.125   175.2868 1.4583e+01     3.3705      2.724      3.950    20.7313   998.0894 0.0000e+00
      2.785      0.038     0.1361      1.513     61.548  56.075409    10.7428      8.119   172.6180 1.4430e+01     3.5203      2.730      3.960    20.6872   998.0989 0.0000e+00
      2.795      0.042     0.1362      1.513     62.113  56.519278     9.2515      8.111   170.9033 1.4190e+01     3.8312      2.739      3.972    20.6580   998.1053 0.0000e+00
      2.807      0.046     0.1363      1.513     63.385  57.591104     8.4390      8.102   169.5253 1.3873e+01     3.9829      2.752      3.992    20.6329   998.1106 0.0000e+00
      2.822      0.048     0.1367      1.514     65.587  59.503708     8.3234      8.094   168.0027 1.3547e+01     4.0114      2.768      4.015    20.5985   998.1181 0.0000e+00
      2.836      0.049     0.1357      1.501     67.774  61.407555     7.8010      8.084   166.5180 1.3265e+01     4.3721      2.782      4.034    20.5546   998.1279 0.0000e+00
      2.849      0.048     0.1331      1.471     69.547  62.944116     6.8487      8.075   165.1677 1.3029e+01     5.0339      2.794      4.052    20.4973   998.1401 0.0000e+00
      2.860      0.045     0.1314      1.451     71.032  64.227421     6.3286      8.067   163.6371 1.2800e+01     5.3936      2.805      4.068    20.4260   998.1555 0.0000e+00
      2.871      0.043     0.1309      1.445     72.199  65.229193     6.2719      8.057   162.0358 1.2572e+01     5.4443      2.815      4.083    20.3554   998.1714 0.0000e+00
      2.881      0.042     0.1310      1.446     73.144  66.030702     6.1639      8.047   160.5190 1.2364e+01     5.7773      2.826      4.099    20.2964   998.1845 0.0000e+00
      2.890      0.043     0.1309      1.444     73.988  66.735542     5.9761      8.038   159.1491 1.2156e+01     6.3723      2.835      4.111    20.2471   998.1953 0.0000e+00
      2.900      0.045     0.1297      1.429     74.721  67.331037     5.8739      8.030   158.2069 1.1936e+01     6.6735      2.844      4.125    20.2041   998.2050 0.0000e+00
      2.911      0.047     0.1286      1.415     75.356  67.827353     5.8649      8.021   157.6450 1.1659e+01     6.6985      2.854      4.140    20.1675   998.2130 0.0000e+00
      2.925      0.050     0.1277      1.403     75.392  67.777835     5.8495      8.010   157.2595 1.1330e+01     6.7409      2.867      4.159    20.1340   998.2203 0.0000e+00
      2.940      0.052     0.1258      1.380     74.470  66.859267     5.7404      7.998   156.9871 1.1035e+01     6.9890      2.884      4.181    20.0970   998.2285 0.0000e+00
      2.954      0.053     0.1232      1.350     73.336  65.747747     5.5591      7.985   156.7610 1.0750e+01     7.4370      2.896      4.200    20.0526   998.2379 0.0000e+00
      2.967      0.053     0.1210      1.324     72.553  64.954157     5.4616      7.973   156.5905 1.0445e+01     7.7015      2.910      4.220    20.0017   998.2487 0.0000e+00
      2.981      0.051     0.1191      1.303     72.011  64.383095     5.4366      7.960   156.3876 1.0165e+01     7.7612      2.925      4.241    19.9474   998.2601 0.0000e+00
      2.995      0.046     0.1176      1.284     71.657  63.991466     5.2745      7.947   155.9422 9.9219e+00     8.0935      2.937      4.260    19.8866   998.2722 0.0000e+00
      3.007      0.041     0.1171      1.278     71.559  63.841832     4.9754      7.936   155.3357 9.7381e+00     8.6710      2.949      4.277    19.8205   998.2853 0.0000e+00
      3.017      0.036     0.1178      1.285     71.547  63.781442     4.8104      7.925   154.9056 9.6174e+00     8.9760      2.960      4.293    19.7569   998.2981 0.0000e+00
      3.025      0.031     0.1188      1.295     71.145  63.388351     4.8059      7.914   154.3548 9.5251e+00     9.0280      2.967      4.304    19.6969   998.3101 0.0000e+00
      3.031      0.030     0.1198      1.306     69.984  62.330376     4.9123      7.904   153.0644 9.4461e+00     9.1368      2.974      4.313    19.6436   998.3209 0.0000e+00
      3.036      0.031     0.1198      1.305     68.706  61.158246     5.1008      7.894   151.6069 9.3730e+00     9.3413      2.977      4.317    19.6006   998.3297 0.0000e+00
      3.041      0.034     0.1181      1.286     68.427  60.846370     5.1948      7.885   150.6707 9.2580e+00     9.4688      2.980      4.323    19.5650   998.3369 0.0000e+00
      3.050      0.039     0.1171      1.273     68.955  61.228663     5.2069      7.877   150.0045 9.0750e+00     9.4649      2.989      4.335    19.5390   998.3421 0.0000e+00
      3.062      0.043     0.1164      1.264     69.609  61.713192     5.2905      7.871   149.4888 8.8732e+00     9.4584      3.003      4.355    19.5295   998.3436 0.0000e+00
      3.077      0.046     0.1153      1.249     70.543  62.446698     5.4342      7.865   149.1678 8.6773e+00     9.4893      3.018      4.377    19.5118   998.3465 0.0000e+00
      3.091      0.046     0.1150      1.245     72.033  63.678322     5.5140      7.859   148.8766 8.4772e+00     9.5104      3.031      4.397    19.4623   998.3565 0.0000e+00
      3.103      0.043     0.1145      1.239     74.299  65.609166     5.5363      7.853   148.4626 8.3183e+00     9.4834      3.043      4.415    19.3942   998.3706 0.0000e+00
      3.114      0.038     0.1140      1.233     77.189  68.121731     5.6343      7.847   147.9482 8.2293e+00     9.3270      3.054      4.430    19.3235   998.3848 0.0000e+00
      3.122      0.033     0.1134      1.226     79.718  70.346256     5.8138      7.841   147.3895 8.1641e+00     9.0943      3.062      4.441    19.2554   998.3987 0.0000e+00
      3.129      0.028     0.1115      1.205     81.426  71.843976     5.9209      7.837   146.6972 8.0905e+00     8.9953      3.068      4.450    19.1948   998.4112 0.0000e+00
      3.136      0.024     0.1103      1.192     82.781  73.005663     5.9319      7.834   145.9442 8.0182e+00     8.9830      3.075      4.460    19.1407   998.4227 0.0000e+00
      3.141      0.022     0.1108      1.197     84.422  74.409084     5.9043      7.830   145.4272 7.9524e+00     8.9129      3.081      4.468    19.1107   998.4298 0.0000e+00
      3.145      0.021     0.1113      1.201     86.241  75.967143     5.8465      7.824   145.0056 7.8849e+00     8.8357      3.084      4.473    19.1195   998.4289 0.0000e+00
      3.150      0.021     0.1103      1.190     87.569  77.090057     5.8056      7.819   144.4605 7.8134e+00     8.8037      3.088      4.479    19.1195   998.4295 0.0000e+00
      3.156      0.020     0.1092      1.177     88.439  77.810432     5.8004      7.814   143.9126 7.7330e+00     8.7879      3.095      4.488    19.0923   998.4352 0.0000e+00
      3.162      0.020     0.1090      1.175     89.062  78.316898     5.7999      7.811   143.2848 7.6534e+00     8.8082      3.101      4.498    19.0651   998.4412 0.0000e+00
      3.167      0.019     0.1090      1.173     89.317  78.506989     5.7219      7.807   142.4623 7.5926e+00     8.8536      3.107      4.505    19.0403   998.4469 0.0000e+00
      3.172      0.018     0.1083      1.166     89.138  78.327826     5.5691      7.802   141.5403 7.5388e+00     8.8778      3.110      4.511    19.0119   998.4528 0.0000e+00
      3.176      0.016     0.1072      1.155     88.548  77.804352     5.4781      7.797   140.5680 7.4872e+00     8.8716      3.115      4.518    18.9849   998.4584 0.0000e+00
      3.180      0.013     0.1060      1.141     87.702  77.075155     5.4622      7.793   139.4827 7.4581e+00     8.8436      3.118      4.522    18.9631   998.4629 0.0000e+00
      3.183      0.011     0.1041      1.122     86.936  76.443765     5.5075      7.789   138.3984 7.4394e+00     8.8016      3.122      4.528    18.9415   998.4672 0.0000e+00
      3.186      0.008     0.1021      1.100     86.459  76.085140     5.6093      7.784   137.4386 7.4100e+00     8.7581      3.125      4.532    18.9277   998.4699 0.0000e+00
      3.187      0.006     0.1001      1.080     86.215  75.919064     5.6692      7.780   136.5678 7.3825e+00     8.7424      3.126      4.534    18.9264   998.4699 0.0000e+00
      3.188      0.004     0.0986      1.063     86.023  75.771366     5.6770      7.776   135.6996 7.3671e+00     8.7431      3.127      4.535    18.9302   998.4688 0.0000e+00
      3.188      0.002     0.0983      1.060     85.718  75.507709     5.6519      7.772   134.8570 7.3607e+00     8.7335      3.126      4.534    18.9550   998.4638 0.0000e+00
      3.189      0.002     0.0986      1.064     85.526  75.338629     5.6254      7.771   134.4671 7.3531e+00     8.7245      3.127      4.535    19.0001   998.4548 0.0000e+00
      3.189 -9.990e-29 -9.990e-29 -9.990e-29 -9.990e-29 -9.990e-29 -9.990e-29 -9.990e-29 -9.990e-29 7.3362e+00 -9.990e-29      3.128      4.536    19.0311   998.4486 0.0000e+00
      3.189 -9.990e-29 -9.990e-29 -9.990e-29 -9.990e-29 -9.990e-29 -9.990e-29 -9.990e-29 -9.990e-29 7.3253e+00 -9.990e-29      3.127      4.535    19.0401   998.4468 0.0000e+00
      3.189 -9.990e-29 -9.990e-29 -9.990e-29 -9.990e-29 -9.990e-29 -9.990e-29 -9.990e-29 -9.990e-29 7.3289e+00 -9.990e-29      3.128      4.536    19.0404   998.4466 0.0000e+00
      3.189 -9.990e-29 -9.990e-29 -9.990e-29 -9.990e-29 -9.990e-29 -9.990e-29 -9.990e-29 -9.990e-29 7.3324e+00 -9.990e-29      3.128      4.537    19.0393   998.4467 0.0000e+00
