* Sea-Bird SBE19plus  Data File:
* FileName = C:\DATA\100219_FCR_50_0002.hex
* Software version 2.8.0.119 SB_Terminal.dll
* Temperature SN = 7809
* Conductivity SN = 7809
* System UpLoad Time = Oct 03 2019 10:14:24
* <ApplicationData>
* <Seaterm232>
* <SoftwareVersion>2.8.0.119</SoftwareVersion>
* <BuildDate>07-Nov-2018</BuildDate>
* </Seaterm232>
* </ApplicationData>
* cast   2 02 Oct 2019 14:03:42 samples 523 to 1608, avg = 1, stop = mag switch
# nquan = 16
# nvalues = 762                         
# units = specified
# name 0 = depFM: Depth [fresh water, m]
# name 1 = dz/dtM: Descent Rate [m/s]
# name 2 = sbeox0ML/L: Oxygen, SBE 43 [ml/l]
# name 3 = sbeox0PS: Oxygen, SBE 43 [% saturation]
# name 4 = specc: Specific Conductance [uS/cm]
# name 5 = c0uS/cm: Conductivity [uS/cm]
# name 6 = flECO-AFL: Fluorescence, WET Labs ECO-AFL/FL [mg/m^3]
# name 7 = ph: pH
# name 8 = orp: Oxidation Reduction Potential [mV]
# name 9 = par/sat/log: PAR/Logarithmic, Satlantic
# name 10 = turbWETntu0: Turbidity, WET Labs ECO [NTU]
# name 11 = prdM: Pressure, Strain Gauge [db]
# name 12 = prdE: Pressure, Strain Gauge [psi]
# name 13 = tv290C: Temperature [ITS-90, deg C]
# name 14 = density00: Density [density, kg/m^3]
# name 15 = flag:  0.000e+00
# span 0 =     -0.572,      9.612       
# span 1 =     -0.012,      0.140       
# span 2 =    -0.3343,     8.4636       
# span 3 =     -4.409,    144.462       
# span 4 =     20.544,    436.824       
# span 5 =  21.283967, 335.191927       
# span 6 =    -0.1290,    13.0126       
# span 7 =      6.403,      9.017       
# span 8 =    10.3878,   272.3822       
# span 9 = 1.2338e-01, 4.5896e+02       
# span 10 =    -0.6072,    29.9480      
# span 11 =     -0.570,      9.427      
# span 12 =     -0.826,     13.672      
# span 13 =    12.9360,    27.6398      
# span 14 =   996.3443,   999.5609      
# span 15 = 0.0000e+00, 0.0000e+00      
# interval = seconds: 0.25
# start_time = Oct 02 2019 14:03:42 [Instrument's time stamp, header]
# bad_flag = -9.990e-29
# <Sensors count="9" >
#   <sensor Channel="1" >
#     <!-- Count, Temperature -->
#     <TemperatureSensor SensorID="58" >
#       <SerialNumber>7809</SerialNumber>
#       <CalibrationDate>24-Mar-19</CalibrationDate>
#       <A0>1.21792325e-003</A0>
#       <A1>2.81669265e-004</A1>
#       <A2>-1.60333336e-006</A2>
#       <A3>1.98414625e-007</A3>
#       <Slope>1.00000000</Slope>
#       <Offset>0.0000</Offset>
#     </TemperatureSensor>
#   </sensor>
#   <sensor Channel="2" >
#     <!-- Frequency 0, Conductivity -->
#     <ConductivitySensor SensorID="3" >
#       <SerialNumber>7809</SerialNumber>
#       <CalibrationDate>24-Mar-19</CalibrationDate>
#       <UseG_J>1</UseG_J>
#       <!-- Cell const and series R are applicable only for wide range sensors. -->
#       <SeriesR>0.0000</SeriesR>
#       <CellConst>2000.0000</CellConst>
#       <ConductivityType>0</ConductivityType>
#       <Coefficients equation="0" >
#         <A>0.00000000e+000</A>
#         <B>0.00000000e+000</B>
#         <C>0.00000000e+000</C>
#         <D>0.00000000e+000</D>
#         <M>0.0</M>
#         <CPcor>-9.57000000e-008</CPcor>
#       </Coefficients>
#       <Coefficients equation="1" >
#         <G>-1.00589325e+000</G>
#         <H>1.26816302e-001</H>
#         <I>-1.51560448e-004</I>
#         <J>2.67137274e-005</J>
#         <CPcor>-9.57000000e-008</CPcor>
#         <CTcor>3.2500e-006</CTcor>
#         <!-- WBOTC not applicable unless ConductivityType = 1. -->
#         <WBOTC>0.00000000e+000</WBOTC>
#       </Coefficients>
#       <Slope>1.00000000</Slope>
#       <Offset>0.00000</Offset>
#     </ConductivitySensor>
#   </sensor>
#   <sensor Channel="3" >
#     <!-- Count, Pressure, Strain Gauge -->
#     <PressureSensor SensorID="46" >
#       <SerialNumber>7809</SerialNumber>
#       <CalibrationDate>11-Mar-19</CalibrationDate>
#       <PA0>4.56561833e-002</PA0>
#       <PA1>4.85095118e-004</PA1>
#       <PA2>-2.88327090e-012</PA2>
#       <PTEMPA0>-5.48784562e+001</PTEMPA0>
#       <PTEMPA1>5.53756816e+001</PTEMPA1>
#       <PTEMPA2>-5.86727098e-001</PTEMPA2>
#       <PTCA0>5.25246745e+005</PTCA0>
#       <PTCA1>1.22304214e+001</PTCA1>
#       <PTCA2>-3.56745036e-001</PTCA2>
#       <PTCB0>2.51668750e+001</PTCB0>
#       <PTCB1>3.75000000e-004</PTCB1>
#       <PTCB2>0.00000000e+000</PTCB2>
#       <Offset>0.000000</Offset>
#     </PressureSensor>
#   </sensor>
#   <sensor Channel="4" >
#     <!-- A/D voltage 0, Oxygen, SBE 43 -->
#     <OxygenSensor SensorID="38" >
#       <SerialNumber>0434</SerialNumber>
#       <CalibrationDate>13-Apr-19</CalibrationDate>
#       <Use2007Equation>1</Use2007Equation>
#       <CalibrationCoefficients equation="0" >
#         <!-- Coefficients for Owens-Millard equation. -->
#         <Boc>0.0000</Boc>
#         <Soc>0.0000e+000</Soc>
#         <offset>0.0000</offset>
#         <Pcor>0.00e+000</Pcor>
#         <Tcor>0.0000</Tcor>
#         <Tau>0.0</Tau>
#       </CalibrationCoefficients>
#       <CalibrationCoefficients equation="1" >
#         <!-- Coefficients for Sea-Bird equation - SBE calibration in 2007 and later. -->
#         <Soc>4.2007e-001</Soc>
#         <offset>-0.6109</offset>
#         <A>-4.3656e-003</A>
#         <B> 1.7017e-004</B>
#         <C>-2.5341e-006</C>
#         <D0> 2.5826e+000</D0>
#         <D1> 1.92634e-004</D1>
#         <D2>-4.64803e-002</D2>
#         <E> 3.6000e-002</E>
#         <Tau20> 1.1800</Tau20>
#         <H1>-3.3000e-002</H1>
#         <H2> 5.0000e+003</H2>
#         <H3> 1.4500e+003</H3>
#       </CalibrationCoefficients>
#     </OxygenSensor>
#   </sensor>
#   <sensor Channel="5" >
#     <!-- A/D voltage 1, PAR/Logarithmic, Satlantic -->
#     <PARLog_SatlanticSensor SensorID="76" >
#       <SerialNumber>1122</SerialNumber>
#       <CalibrationDate>08-May-2019</CalibrationDate>
#       <a0>9.7456e-001</a0>
#       <a1>8.1640e-001</a1>
#       <Im>1.3589e+000</Im>
#       <Multiplier>1.0000e+000</Multiplier>
#     </PARLog_SatlanticSensor>
#   </sensor>
#   <sensor Channel="6" >
#     <!-- A/D voltage 2, pH -->
#     <pH_Sensor SensorID="43" >
#       <SerialNumber>0363</SerialNumber>
#       <CalibrationDate>15-Apr-19</CalibrationDate>
#       <Slope>4.5952</Slope>
#       <Offset>2.5370</Offset>
#     </pH_Sensor>
#   </sensor>
#   <sensor Channel="7" >
#     <!-- A/D voltage 3, Oxidation Reduction Potential -->
#     <OxidationReductionPotentialSensor SensorID="41" >
#       <SerialNumber>0363</SerialNumber>
#       <CalibrationDate>15-Apr-19</CalibrationDate>
#       <B>2.499480</B>
#       <M>-0.496195</M>
#       <Offset>0.0</Offset>
#     </OxidationReductionPotentialSensor>
#   </sensor>
#   <sensor Channel="8" >
#     <!-- A/D voltage 4, Fluorometer, WET Labs ECO-AFL/FL -->
#     <FluoroWetlabECO_AFL_FL_Sensor SensorID="20" >
#       <SerialNumber>FLNTURT-2496</SerialNumber>
#       <CalibrationDate>08-May-2019</CalibrationDate>
#       <ScaleFactor>5.00000000e+001</ScaleFactor>
#       <!-- Dark output -->
#       <Vblank>0.0550</Vblank>
#     </FluoroWetlabECO_AFL_FL_Sensor>
#   </sensor>
#   <sensor Channel="9" >
#     <!-- A/D voltage 5, Turbidity Meter, WET Labs, ECO-NTU -->
#     <TurbidityMeter SensorID="67" >
#       <SerialNumber>FLNTURT-2496</SerialNumber>
#       <CalibrationDate>08-May-2019</CalibrationDate>
#       <ScaleFactor>189.000000</ScaleFactor>
#       <!-- Dark output -->
#       <DarkVoltage>0.071000</DarkVoltage>
#     </TurbidityMeter>
#   </sensor>
# </Sensors>
# datcnv_date = Oct 03 2019 10:16:17, 7.26.7.129 [datcnv_vars = 15]
# datcnv_in = C:\DATA\100219_FCR_50.hex C:\DATA\SBE19plusV2_7809.xmlcon
# datcnv_skipover = 0
# datcnv_ox_hysteresis_correction = yes
# datcnv_ox_tau_correction = yes
# filter_date = Oct 03 2019 10:16:50, 7.26.7.129
# filter_in = C:\DATA\100219_FCR_50.cnv
# filter_low_pass_tc_A = 0.030
# filter_low_pass_tc_B = 0.150
# filter_low_pass_A_vars = sbeox0ML/L prdM prdE tv290C density00
# filter_low_pass_B_vars = depFM dz/dtM sbeox0PS specc c0uS/cm flECO-AFL ph orp par/sat/log turbWETntu0
# alignctd_date = Oct 03 2019 10:17:10, 7.26.7.129
# alignctd_in = C:\DATA\100219_FCR_50.cnv
# alignctd_adv = dz/dtM 1.000, sbeox0PS 1.000, specc 1.000, c0uS/cm 1.000, flECO-AFL 1.000, ph 1.000, orp 1.000, turbWETntu0 1.000                                                                                                   
# file_type = ascii
*END*
     -0.572      0.068     5.3764     97.613     20.544  21.283967    -0.1057      8.237   272.3822 4.1056e+02    -0.6072     -0.570     -0.826    27.6233   996.3486 0.0000e+00
     -0.543      0.078     5.3738     97.622     21.754  22.427350    -0.1140      8.439   269.1575 4.1834e+02    -0.6044     -0.537     -0.781    27.6398   996.3443 0.0000e+00
     -0.502      0.083     5.3823     97.607     26.875  27.619201    -0.1224      8.602   267.9513 4.2412e+02    -0.4797     -0.488     -0.708    27.5648   996.3681 0.0000e+00
     -0.470      0.083     5.4235     97.588     35.238  36.152080    -0.1201      8.719   267.0904 4.2642e+02    -0.2470     -0.452     -0.656    27.1742   996.4786 0.0000e+00
     -0.458      0.075     5.4669     97.584     39.955  40.946385    -0.1206      8.802   266.4920 4.2935e+02    -0.1174     -0.446     -0.647    26.7540   996.5945 0.0000e+00
     -0.452      0.060     5.4906     97.572     40.512  41.481443    -0.1290      8.871   265.1041 4.3627e+02    -0.1250     -0.449     -0.652    26.5158   996.6587 0.0000e+00
     -0.437      0.042     5.5030     97.544     38.795  39.700990    -0.1266      8.930   262.9572 4.4207e+02    -0.1425     -0.429     -0.621    26.3806   996.6965 0.0000e+00
     -0.421      0.029     5.5091     97.525     34.990  35.795941    -0.1177      8.976   260.3235 4.4432e+02    -0.1314     -0.410     -0.594    26.2955   996.7237 0.0000e+00
     -0.412      0.021     5.5167     97.521     34.290  35.079275    -0.1162      9.004   257.4369 4.4666e+02    -0.1220     -0.403     -0.584    26.2303   996.7422 0.0000e+00
     -0.410      0.017     5.5206     97.526     37.953  38.841571    -0.1182      9.016   252.8353 4.4666e+02    -0.1280     -0.398     -0.577    26.1853   996.7538 0.0000e+00
     -0.415      0.017     5.5209     97.542     40.342  41.297445    -0.1070      9.017   247.3603 4.4467e+02    -0.0069     -0.407     -0.591    26.1555   996.7620 0.0000e+00
     -0.420      0.023     5.5215     97.556     40.532  41.479258     0.0625      9.012   244.0674 4.4635e+02     1.4738     -0.416     -0.604    26.1421   996.7632 0.0000e+00
     -0.415      0.034     5.5227     97.553     40.563  41.484247     0.3806      9.002   242.5334 4.5105e+02     4.1739     -0.410     -0.596    26.1308   996.7656 0.0000e+00
     -0.401      0.047     5.5193     97.547     40.597  41.484705     0.5567      8.991   241.4599 4.5402e+02     5.6364     -0.395     -0.573    26.1633   996.7596 0.0000e+00
     -0.382      0.057     5.5175     97.551     40.635  41.484744     0.5880      8.984   241.2411 4.5482e+02     5.8511     -0.376     -0.545    26.1936   996.7520 0.0000e+00
     -0.359      0.062     5.5218     97.566     40.674  41.484651     0.7931      8.978   241.3502 4.5532e+02     6.8348     -0.350     -0.509    26.1665   996.7590 0.0000e+00
     -0.340      0.061     5.5243     97.577     40.704  41.483522     1.1734      8.974   239.5960 4.5653e+02     8.5835     -0.331     -0.479    26.1299   996.7691 0.0000e+00
     -0.326      0.060     5.5280     97.569     40.717  41.471051     1.3798      8.967   234.2284 4.5813e+02     9.5261     -0.319     -0.462    26.0904   996.7796 0.0000e+00
     -0.316      0.062     5.5334     97.572     40.726  41.460786     1.3982      8.949   227.2132 4.5896e+02     9.6465     -0.310     -0.449    26.0381   996.7937 0.0000e+00
     -0.306      0.067     5.5396     97.649     40.766  41.486356     1.4137      8.933   223.0911 4.5878e+02     9.9406     -0.300     -0.436    25.9865   996.8074 0.0000e+00
     -0.294      0.072     5.5447     97.823     40.806  41.526242     1.4362      8.933   222.3325 4.4959e+02    10.4606     -0.291     -0.422    25.9483   996.8176 0.0000e+00
     -0.273      0.076     5.5467     98.040     40.816  41.562124     1.4447      8.933   221.7398 4.1282e+02    10.7556     -0.274     -0.398    25.9184   996.8256 0.0000e+00
     -0.240      0.081     5.5476     98.239     40.812  41.602804     1.4477      8.932   221.0015 3.6367e+02    10.7878     -0.232     -0.337    25.8934   996.8325 0.0000e+00
     -0.212      0.083     5.5533     98.426     40.807  41.637245     1.4562      8.931   220.2891 3.3873e+02    10.7836     -0.200     -0.289    25.8749   996.8375 0.0000e+00
     -0.197      0.078     5.5662     98.634     40.805  41.661171     1.4596      8.929   219.2342 3.2648e+02    10.7704     -0.195     -0.282    25.8604   996.8414 0.0000e+00
     -0.183      0.068     5.5764     98.857     40.764  41.638173     1.4539      8.926   218.4852 3.0794e+02    10.7590     -0.185     -0.268    25.8959   996.8320 0.0000e+00
     -0.163      0.056     5.5801     99.061     40.664  41.549668     1.4481      8.922   216.3962 2.9424e+02    10.7767     -0.158     -0.229    25.9700   996.8124 0.0000e+00
     -0.144      0.050     5.5842     99.182     40.587  41.479907     1.4505      8.917   214.4527 2.8847e+02    10.8212     -0.136     -0.196    26.0172   996.8001 0.0000e+00
     -0.136      0.049     5.5943     99.244     40.595  41.493086     1.4575      8.910   213.6587 2.8284e+02    10.8058     -0.131     -0.191    26.0451   996.7927 0.0000e+00
     -0.133      0.047     5.6044     99.347     40.622  41.518561     1.4629      8.902   212.9046 2.7450e+02    10.7543     -0.133     -0.193    26.0686   996.7864 0.0000e+00
     -0.123      0.045     5.6167     99.467     40.585  41.470479     1.4635      8.897   215.4009 2.6525e+02    10.7553     -0.124     -0.179    26.0840   996.7823 0.0000e+00
     -0.107      0.045     5.6225     99.530     40.502  41.356121     1.4651      8.892   218.3732 2.5673e+02    10.7847     -0.106     -0.153    26.0957   996.7791 0.0000e+00
     -0.091      0.048     5.6207     99.465     40.434  41.215105     1.4818      8.887   218.9016 2.5076e+02    10.8142     -0.088     -0.129    26.1034   996.7772 0.0000e+00
     -0.078      0.053     5.6285     98.959     40.437  41.098584     1.5101      8.880   219.6386 2.4854e+02    10.8176     -0.076     -0.110    26.0993   996.7784 0.0000e+00
     -0.068      0.057     5.6394     97.958     40.498  41.026358     1.5209      8.871   220.5722 2.4939e+02    10.7928     -0.067     -0.097    26.0887   996.7813 0.0000e+00
     -0.057      0.060     5.6426     97.242     40.563  40.976476     1.5171      8.864   220.4684 2.5161e+02    10.7765     -0.058     -0.084    26.0697   996.7864 0.0000e+00
     -0.042      0.063     5.6560     97.487     40.612  40.939696     1.5337      8.856   219.1578 2.4810e+02    10.9486     -0.044     -0.064    25.9848   996.8090 0.0000e+00
     -0.021      0.067     5.6541     98.727     40.638  40.898956     1.5652      8.847   217.4592 2.2336e+02    11.3001     -0.021     -0.030    25.8184   996.8530 0.0000e+00
      0.000      0.068     5.5898    100.821     40.671  40.864703     1.5857      8.842   216.9663 1.8549e+02    11.4871      0.002      0.003    25.6363   996.9011 0.0000e+00
      0.018      0.064     5.5469    103.327     40.722  40.842872     1.5909      8.839   217.5872 1.6389e+02    11.5063      0.017      0.025    25.4870   996.9403 0.0000e+00
      0.036      0.054     5.5787    105.902     40.774  40.825344     1.6021      8.837   217.6528 1.5361e+02    11.5973      0.035      0.051    25.3892   996.9659 0.0000e+00
      0.052      0.043     5.6543    108.875     40.848  40.843129     1.6261      8.835   217.2434 1.4479e+02    11.8007      0.054      0.078    25.3170   996.9847 0.0000e+00
      0.060      0.032     5.7942    112.216     40.909  40.867361     1.6376      8.833   216.5946 1.5119e+02    11.9338      0.062      0.089    25.2352   997.0058 0.0000e+00
      0.063      0.023     5.9645    115.011     40.930  40.864344     1.6461      8.831   215.7441 1.6278e+02    11.8953      0.061      0.089    25.1424   997.0298 0.0000e+00
      0.064      0.016     6.1059    116.535     40.954  40.870104     1.6681      8.828   215.5655 1.6240e+02    11.5328      0.062      0.091    25.0493   997.0538 0.0000e+00
      0.066      0.011     6.2815    116.729     40.974  40.873482     1.6872      8.827   215.8975 1.5901e+02    10.9268      0.065      0.095    24.9787   997.0719 0.0000e+00
      0.068      0.008     6.5093    115.821     40.954  40.841685     1.6943      8.827   215.8868 1.5758e+02    10.6311      0.067      0.097    24.9374   997.0826 0.0000e+00
      0.071      0.006     6.6894    114.069     40.923  40.803056     1.6937      8.826   215.6074 1.5593e+02    10.6447      0.070      0.101    24.9128   997.0889 0.0000e+00
      0.075      0.005     6.7781    111.747     40.908  40.787321     1.6888      8.824   215.2724 1.5432e+02    10.6316      0.075      0.109    24.8916   997.0943 0.0000e+00
      0.076      0.005     6.7867    109.255     40.891  40.778408     1.6786      8.822   214.3322 1.5267e+02    10.3419      0.077      0.111    24.8702   997.0998 0.0000e+00
      0.074      0.004     6.7307    107.070     40.854  40.758783     1.6564      8.819   213.0147 1.5258e+02     9.8292      0.073      0.105    24.8545   997.1038 0.0000e+00
      0.073      0.003     6.6254    105.402     40.816  40.740524     1.6375      8.816   212.3349 1.5374e+02     9.5772      0.070      0.101    24.8451   997.1061 0.0000e+00
      0.075      0.002     6.4842    104.212     40.806  40.748129     1.6410      8.813   212.3077 1.5477e+02     9.5902      0.074      0.108    24.8416   997.1070 0.0000e+00
      0.078      0.003     6.3255    103.564     40.831  40.787269     1.6724      8.813   212.5140 1.5375e+02     9.7237      0.078      0.111    24.8509   997.1046 0.0000e+00
      0.078      0.004     6.1916    103.591     40.861  40.832871     1.7226      8.811   211.7323 1.5216e+02     9.9464      0.077      0.112    24.8769   997.0980 0.0000e+00
      0.077      0.004     6.0967    104.317     40.859  40.855118     1.7531      8.809   209.9103 1.5240e+02    10.0542      0.078      0.113    24.9047   997.0909 0.0000e+00
      0.077      0.003     6.0220    105.514     40.835  40.865840     1.7559      8.807   208.8970 1.5425e+02    10.1095      0.074      0.107    24.9248   997.0858 0.0000e+00
      0.079      0.003     5.9804    106.834     40.830  40.899085     1.7126      8.805   209.0309 1.5720e+02    10.0902      0.077      0.111    24.9395   997.0821 0.0000e+00
      0.083      0.003     5.9780    108.077     40.832  40.939700     1.6289      8.803   209.5506 1.6085e+02     9.9195      0.083      0.120    24.9548   997.0781 0.0000e+00
      0.083      0.003     6.0221    109.128     40.832  40.976057     1.5849      8.801   209.5025 1.6263e+02     9.8155      0.082      0.119    24.9844   997.0706 0.0000e+00
      0.083      0.003     6.0959    109.831     40.844  41.021292     1.5789      8.799   208.6212 1.6075e+02     9.8488      0.080      0.116    25.0300   997.0589 0.0000e+00
      0.083      0.003     6.1692    110.101     40.839  41.042289     1.5819      8.795   207.6709 1.5970e+02     9.9613      0.081      0.118    25.0792   997.0461 0.0000e+00
      0.084      0.003     6.2369    110.013     40.819  41.039508     1.5957      8.791   207.1323 1.6078e+02    10.0613      0.083      0.120    25.1252   997.0344 0.0000e+00
      0.085      0.004     6.2966    109.778     40.819  41.051174     1.5892      8.788   207.0136 1.6066e+02    10.0753      0.084      0.121    25.1722   997.0223 0.0000e+00
      0.085      0.005     6.3339    109.628     40.814  41.056397     1.5730      8.784   207.5265 1.5903e+02    10.0973      0.084      0.122    25.2157   997.0110 0.0000e+00
      0.086      0.005     6.3441    109.638     40.789  41.039184     1.5737      8.782   208.1705 1.5658e+02    10.1632      0.083      0.121    25.2465   997.0032 0.0000e+00
      0.089      0.004     6.3328    109.773     40.779  41.033522     1.5713      8.781   208.0031 1.5503e+02    10.2170      0.087      0.126    25.2655   996.9982 0.0000e+00
      0.091      0.003     6.3109    110.016     40.794  41.051437     1.5609      8.779   207.5677 1.5520e+02    10.2558      0.090      0.131    25.2796   996.9946 0.0000e+00
      0.091      0.000     6.3003    110.298     40.806  41.065333     1.5617      8.778   207.2090 1.5544e+02    10.3047      0.089      0.129    25.2926   996.9912 0.0000e+00
      0.091     -0.002     6.3011    110.465     40.816  41.074559     1.5806      8.778   207.5373 1.5568e+02    10.3163      0.089      0.128    25.3029   996.9885 0.0000e+00
      0.090     -0.004     6.3082    110.430     40.841  41.099499     1.6242      8.777   208.7830 1.5523e+02    10.2984      0.090      0.130    25.3075   996.9874 0.0000e+00
      0.088     -0.006     6.3225    110.202     40.855  41.112940     1.6729      8.776   209.2795 1.5615e+02    10.2848      0.086      0.125    25.3088   996.9869 0.0000e+00
      0.084     -0.007     6.3431    109.786     40.854  41.110108     1.6934      8.774   208.8089 1.5841e+02    10.2503      0.082      0.119    25.3115   996.9862 0.0000e+00
      0.083     -0.007     6.3548    109.270     40.877  41.128738     1.6975      8.772   207.6522 1.5676e+02    10.2423      0.082      0.119    25.3116   996.9862 0.0000e+00
      0.083     -0.006     6.3510    108.808     40.905  41.147732     1.6889      8.770   202.8656 1.5633e+02    10.0563      0.082      0.119    25.3095   996.9867 0.0000e+00
      0.081     -0.004     6.3396    108.515     40.915  41.149290     1.6583      8.768   198.7728 1.6030e+02     9.6395      0.080      0.115    25.3095   996.9868 0.0000e+00
      0.077     -0.002     6.3134    108.391     40.915  41.147560     1.6400      8.766   201.9598 1.6126e+02     9.3980      0.076      0.109    25.3094   996.9868 0.0000e+00
      0.077     -0.002     6.2804    108.277     40.890  41.126810     1.6402      8.764   199.8420 1.5843e+02     9.3980      0.075      0.110    25.3037   996.9883 0.0000e+00
      0.080     -0.002     6.2538    108.099     40.850  41.088865     1.5917      8.762   187.1053 1.5657e+02     9.4755      0.080      0.115    25.2894   996.9921 0.0000e+00
      0.082     -0.002     6.2365    107.973     40.833  41.069701     1.5037      8.762   185.1943 1.5591e+02     9.5813      0.081      0.118    25.2760   996.9954 0.0000e+00
      0.080     -0.002     6.2355    108.001     40.852  41.085557     1.4621      8.762   197.9020 1.5400e+02     9.6610      0.079      0.115    25.2760   996.9955 0.0000e+00
      0.077     -0.002     6.2298    108.113     40.858  41.090109     1.4611      8.761   205.8443 1.5307e+02     9.6855      0.075      0.108    25.2848   996.9932 0.0000e+00
      0.075     -0.001     6.2150    108.083     40.832  41.061251     1.4660      8.759   206.1969 1.5590e+02     9.7470      0.072      0.104    25.2890   996.9921 0.0000e+00
      0.075      0.001     6.2057    107.719     40.829  41.054059     1.4688      8.757   199.8426 1.5810e+02     9.9130      0.073      0.107    25.2852   996.9931 0.0000e+00
      0.076      0.004     6.2092    106.983     40.845  41.066641     1.4693      8.755   185.6284 1.5746e+02    10.0532      0.074      0.108    25.2790   996.9947 0.0000e+00
      0.077      0.007     6.2216    105.934     40.867  41.086406     1.4712      8.753   174.3194 1.5638e+02    10.0992      0.074      0.109    25.2768   996.9952 0.0000e+00
      0.080      0.009     6.2246    104.666     40.884  41.102562     1.4838      8.753   169.8813 1.5395e+02     9.9778      0.079      0.115    25.2761   996.9954 0.0000e+00
      0.084      0.012     6.2047    103.333     40.854  41.071524     1.5084      8.752   168.1048 1.5170e+02     9.7321      0.082      0.119    25.2702   996.9970 0.0000e+00
      0.086      0.016     6.1611    102.117     40.813  41.028555     1.5170      8.748   167.1225 1.5315e+02     9.6196      0.084      0.121    25.2636   996.9987 0.0000e+00
      0.087      0.020     6.1001    101.200     40.810  41.027425     1.5189      8.740   166.2637 1.5524e+02     9.6660      0.085      0.123    25.2614   996.9993 0.0000e+00
      0.091      0.021     6.0231    100.657     40.837  41.057871     1.5394      8.731   165.1208 1.5389e+02     9.8992      0.087      0.127    25.2613   996.9993 0.0000e+00
      0.100      0.020     5.9433    100.323     40.861  41.079254     1.5661      8.726   163.8012 1.5092e+02    10.2765      0.097      0.140    25.2603   996.9996 0.0000e+00
      0.111      0.017     5.8698     99.984     40.881  41.095509     1.5816      8.726   163.0412 1.4747e+02    10.4926      0.112      0.162    25.2561   997.0007 0.0000e+00
      0.118      0.013     5.8135     99.536     40.915  41.127419     1.5786      8.726   162.9009 1.4531e+02    10.5130      0.119      0.173    25.2595   996.9999 0.0000e+00
      0.118      0.008     5.7863     98.923     40.934  41.147644     1.5739      8.726   162.8799 1.4860e+02    10.4898      0.116      0.169    25.2686   996.9975 0.0000e+00
      0.114      0.003     5.7730     98.092     40.931  41.149585     1.5680      8.726   162.3570 1.5545e+02    10.2773      0.110      0.160    25.2637   996.9988 0.0000e+00
      0.112      0.001     5.7557     97.055     40.925  41.150897     1.5425      8.726   161.3109 1.5960e+02     9.8776      0.110      0.159    25.2539   997.0013 0.0000e+00
      0.112      0.001     5.7309     95.918     40.930  41.163513     1.5165      8.727   160.5565 1.5941e+02     9.6549      0.111      0.161    25.2520   997.0019 0.0000e+00
      0.112      0.003     5.6971     94.779     40.934  41.175161     1.5047      8.728   160.2910 1.5884e+02     9.6166      0.110      0.160    25.2535   997.0014 0.0000e+00
      0.114      0.006     5.6489     93.703     40.918  41.164771     1.5047      8.727   160.2514 1.5935e+02     9.6113      0.111      0.161    25.2593   996.9999 0.0000e+00
      0.118      0.008     5.5848     92.704     40.913  41.164875     1.5155      8.727   161.8837 1.6028e+02     9.6233      0.116      0.168    25.2697   996.9972 0.0000e+00
      0.121      0.009     5.5168     91.768     40.920  41.176429     1.5230      8.725   164.0242 1.6138e+02     9.6306      0.119      0.173    25.2800   996.9946 0.0000e+00
      0.122      0.009     5.4490     90.926     40.918  41.177497     1.5176      8.723   163.2457 1.5995e+02     9.6339      0.120      0.174    25.2882   996.9925 0.0000e+00
      0.124      0.009     5.3859     90.191     40.914  41.177801     1.5102      8.721   161.3327 1.5580e+02     9.6305      0.121      0.175    25.2954   996.9906 0.0000e+00
      0.127      0.008     5.3293     89.517     40.912  41.180108     1.5122      8.720   160.4253 1.5099e+02     9.6215      0.124      0.180    25.3021   996.9889 0.0000e+00
      0.131      0.007     5.2732     88.869     40.933  41.205389     1.5232      8.718   160.4481 1.4864e+02     9.5919      0.128      0.186    25.3077   996.9875 0.0000e+00
      0.132      0.005     5.2241     88.249     40.953  41.229535     1.5319      8.718   160.9202 1.4988e+02     9.6000      0.129      0.187    25.3113   996.9866 0.0000e+00
      0.132      0.003     5.1832     87.704     40.938  41.218115     1.5308      8.718   160.7990 1.5038e+02     9.7521      0.128      0.186    25.3154   996.9855 0.0000e+00
      0.133      0.001     5.1443     87.264     40.911  41.194293     1.5272      8.718   160.1867 1.5041e+02     9.9892      0.131      0.189    25.3209   996.9841 0.0000e+00
      0.133      0.001     5.1068     86.899     40.908  41.195455     1.5229      8.717   159.5401 1.5169e+02    10.1067      0.132      0.191    25.3263   996.9828 0.0000e+00
      0.131      0.000     5.0694     86.572     40.941  41.232175     1.5219      8.716   159.1749 1.5166e+02    10.0586      0.129      0.187    25.3313   996.9814 0.0000e+00
      0.131     -0.002     5.0366     86.293     40.962  41.257358     1.5237      8.716   159.4712 1.5171e+02     9.7349      0.127      0.184    25.3358   996.9802 0.0000e+00
      0.133     -0.003     5.0118     86.082     40.947  41.246002     1.5187      8.716   160.1982 1.5375e+02     9.2082      0.130      0.189    25.3405   996.9789 0.0000e+00
      0.133     -0.003     4.9917     85.922     40.919  41.221839     1.5133      8.716   160.5650 1.5580e+02     8.9670      0.132      0.191    25.3461   996.9775 0.0000e+00
      0.130     -0.002     4.9717     85.768     40.912  41.219163     1.5188      8.716   161.7560 1.5710e+02     8.9820      0.127      0.185    25.3512   996.9762 0.0000e+00
      0.126      0.001     4.9548     85.566     40.903  41.213651     1.5249      8.714   168.0588 1.5700e+02     8.9633      0.122      0.177    25.3545   996.9753 0.0000e+00
      0.125      0.003     4.9430     85.308     40.719  41.028222     1.5180      8.709   178.8681 1.5407e+02     9.1341      0.122      0.176    25.3580   996.9744 0.0000e+00
      0.128      0.004     4.9340     85.183     40.408  40.691271     1.5136      8.702   188.9449 1.4982e+02     9.5392      0.125      0.181    25.3634   996.9730 0.0000e+00
      0.133      0.005     4.9264     86.255     40.312  40.504306     1.5155      8.697   190.2625 1.4715e+02     9.7974      0.130      0.189    25.3697   996.9714 0.0000e+00
      0.137      0.005     4.9138     90.440     40.437  40.481621     1.5143      8.696   180.0857 1.4724e+02     9.8309      0.136      0.197    25.3735   996.9705 0.0000e+00
      0.137      0.004     4.8987     98.519     40.576  40.480240     1.4996      8.699   178.6095 1.4922e+02     9.5191      0.135      0.196    25.3771   996.9695 0.0000e+00
      0.136      0.003     4.8760    109.135     40.677  40.487395     1.4678      8.702   191.4295 1.5015e+02     8.9106      0.133      0.193    25.3793   996.9687 0.0000e+00
      0.135      0.003     4.8923    120.090     40.749  40.504501     1.4503      8.701   199.2349 1.4856e+02     8.5694      0.133      0.192    25.2710   996.9968 0.0000e+00
      0.135      0.002     5.1324    129.677     40.772  40.496543     1.4520      8.699   200.2806 1.4785e+02     8.5394      0.132      0.191    25.0377   997.0569 0.0000e+00
      0.136      0.002     5.6588    137.104     40.748  40.454614     1.4535      8.699   201.2331 1.4910e+02     8.5154      0.132      0.192    24.8501   997.1050 0.0000e+00
      0.140      0.001     6.3345    142.071     40.748  40.441910     1.4510      8.700   202.1478 1.5047e+02     8.4767      0.137      0.199    24.7458   997.1316 0.0000e+00
      0.142     -0.001     7.0175    144.462     40.786  40.469886     1.4477      8.700   201.4466 1.5278e+02     8.4969      0.141      0.205    24.6839   997.1473 0.0000e+00
      0.140     -0.002     7.5904    144.434     40.799  40.475434     1.4491      8.700   199.3798 1.5480e+02     8.5629      0.138      0.200    24.6505   997.1558 0.0000e+00
      0.137     -0.003     8.0302    142.601     40.773  40.445503     1.4686      8.699   198.4956 1.5584e+02     8.8818      0.133      0.194    24.6324   997.1603 0.0000e+00
      0.134     -0.003     8.3250    140.005     40.757  40.425407     1.5014      8.699   199.1013 1.5824e+02     9.4679      0.131      0.191    24.6186   997.1638 0.0000e+00
      0.133     -0.002     8.4636    137.574     40.758  40.422899     1.5159      8.699   200.0782 1.5925e+02     9.7836      0.130      0.189    24.6034   997.1676 0.0000e+00
      0.133      0.000     8.4527    135.716     40.757  40.415181     1.5133      8.699   199.8103 1.5521e+02     9.7823      0.130      0.188    24.5971   997.1693 0.0000e+00
      0.135      0.002     8.3204    134.386     40.745  40.395555     1.5219      8.699   198.2721 1.5175e+02     9.8120      0.132      0.192    24.5919   997.1706 0.0000e+00
      0.137      0.003     8.1498    133.394     40.733  40.376047     1.5507      8.700   197.3976 1.5419e+02     9.8806      0.134      0.194    24.5876   997.1716 0.0000e+00
      0.137      0.003     8.0003    132.627     40.735  40.369757     1.5749      8.700   197.4098 1.5647e+02     9.8908      0.135      0.195    24.5857   997.1720 0.0000e+00
      0.137      0.003     7.8970    132.071     40.756  40.382965     1.5806      8.700   197.3010 1.5392e+02     9.8700      0.134      0.195    24.5760   997.1746 0.0000e+00
      0.137      0.002     7.8258    131.693     40.786  40.408764     1.5854      8.701   193.2432 1.4943e+02     9.8586      0.134      0.194    24.5638   997.1777 0.0000e+00
      0.138      0.002     7.7718    131.408     40.803  40.427751     1.5979      8.703   189.3882 1.4589e+02     9.8511      0.135      0.196    24.5551   997.1799 0.0000e+00
      0.139      0.002     7.7277    131.182     40.789  40.422082     1.6192      8.703   192.7632 1.4724e+02     9.8448      0.136      0.197    24.5464   997.1820 0.0000e+00
      0.140      0.002     7.6969    131.041     40.763  40.403722     1.6433      8.701   191.3749 1.5165e+02     9.8487      0.137      0.199    24.5361   997.1846 0.0000e+00
      0.140      0.001     7.6789    130.959     40.750  40.396219     1.6554      8.699   186.5412 1.5240e+02     9.8327      0.137      0.199    24.5284   997.1865 0.0000e+00
      0.140     -0.001     7.6622    130.859     40.746  40.394864     1.6524      8.698   191.1907 1.5135e+02     9.7493      0.137      0.199    24.5320   997.1857 0.0000e+00
      0.141     -0.004     7.6462    130.758     40.743  40.387343     1.6429      8.698   197.0865 1.5114e+02     9.6272      0.139      0.202    24.5446   997.1824 0.0000e+00
      0.142     -0.007     7.6365    130.705     40.734  40.368758     1.6358      8.698   198.9760 1.4911e+02     9.5690      0.140      0.204    24.5546   997.1800 0.0000e+00
      0.139     -0.010     7.6342    130.670     40.735  40.360589     1.6352      8.698   199.5823 1.4697e+02     9.6024      0.137      0.199    24.5611   997.1783 0.0000e+00
      0.133     -0.012     7.6263    130.620     40.731  40.352047     1.5927      8.697   198.9962 1.4855e+02     9.5727      0.131      0.189    24.5668   997.1768 0.0000e+00
      0.128     -0.012     7.6190    130.564     40.709  40.328953     1.5023      8.696   198.1708 1.5257e+02     9.4386      0.125      0.182    24.5622   997.1779 0.0000e+00
      0.125     -0.010     7.6200    130.489     40.719  40.335302     1.4538      8.695   198.7223 1.5457e+02     9.3586      0.122      0.178    24.5459   997.1820 0.0000e+00
      0.123     -0.007     7.6207    130.408     40.755  40.365317     1.4567      8.694   200.5030 1.5107e+02     9.3585      0.121      0.175    24.5310   997.1858 0.0000e+00
      0.122     -0.003     7.6176    130.351     40.768  40.374434     1.4767      8.693   201.3742 1.4675e+02     9.4049      0.120      0.173    24.5266   997.1869 0.0000e+00
      0.122      0.001     7.6149    130.280     40.775  40.382040     1.5053      8.692   201.0822 1.4722e+02     9.4931      0.119      0.173    24.5285   997.1864 0.0000e+00
      0.123      0.004     7.6110    130.148     40.782  40.393808     1.5239      8.691   200.4996 1.4861e+02     9.5735      0.121      0.176    24.5250   997.1873 0.0000e+00
      0.125      0.006     7.6062    129.988     40.770  40.389757     1.5285      8.688   200.4395 1.4826e+02     9.6226      0.123      0.178    24.5130   997.1904 0.0000e+00
      0.127      0.006     7.6049    129.866     40.765  40.396553     1.5260      8.686   200.9574 1.4682e+02     9.5296      0.125      0.180    24.5085   997.1915 0.0000e+00
      0.129      0.005     7.6019    129.817     40.772  40.412512     1.5205      8.685   201.2550 1.4445e+02     9.3013      0.126      0.183    24.5126   997.1904 0.0000e+00
      0.132      0.004     7.5925    129.806     40.747  40.392275     1.5141      8.686   201.1976 1.4336e+02     9.1889      0.129      0.188    24.5161   997.1897 0.0000e+00
      0.133      0.002     7.5801    129.770     40.697  40.342332     1.5179      8.686   201.1243 1.4565e+02     9.2193      0.132      0.191    24.5265   997.1870 0.0000e+00
      0.133      0.001     7.5696    129.729     40.680  40.316523     1.5309      8.686   201.0567 1.4809e+02     9.2423      0.131      0.190    24.5438   997.1827 0.0000e+00
      0.131      0.001     7.5661    129.764     40.713  40.334150     1.5335      8.685   200.2943 1.4544e+02     9.3368      0.128      0.186    24.5540   997.1801 0.0000e+00
      0.130      0.001     7.5669    129.859     40.758  40.364985     1.5228      8.683   199.0487 1.4103e+02     9.5420      0.127      0.184    24.5599   997.1786 0.0000e+00
      0.131      0.002     7.5641    129.936     40.774  40.371896     1.5146      8.681   198.6428 1.4021e+02     9.6593      0.128      0.186    24.5632   997.1777 0.0000e+00
      0.132      0.003     7.5602    130.009     40.761  40.354213     1.5123      8.677   195.9035 1.4214e+02     9.6730      0.129      0.188    24.5499   997.1810 0.0000e+00
      0.134      0.004     7.5658    130.114     40.749  40.341630     1.5121      8.676   192.9447 1.4383e+02     9.9044      0.131      0.191    24.5288   997.1865 0.0000e+00
      0.136      0.004     7.5772    130.238     40.754  40.346720     1.5213      8.676   194.9599 1.4252e+02    10.3597      0.133      0.193    24.5102   997.1912 0.0000e+00
      0.136      0.003     7.5820    130.373     40.758  40.352277     1.5286      8.677   196.4369 1.4059e+02    10.5898      0.134      0.194    24.4983   997.1941 0.0000e+00
      0.137      0.001     7.5854    130.482     40.752  40.345335     1.5216      8.678   195.2297 1.4235e+02    10.5568      0.134      0.195    24.4949   997.1950 0.0000e+00
      0.137      0.000     7.5931    130.516     40.737  40.326265     1.5322      8.679   188.7957 1.4604e+02    10.4849      0.134      0.194    24.4934   997.1953 0.0000e+00
      0.136      0.000     7.5998    130.492     40.729  40.312154     1.5617      8.679   176.9783 1.4814e+02    10.4084      0.134      0.194    24.4936   997.1952 0.0000e+00
      0.136      0.001     7.6079    130.439     40.728  40.301677     1.5750      8.680   175.4683 1.4727e+02    10.3527      0.133      0.193    24.4961   997.1946 0.0000e+00
      0.136      0.004     7.6165    130.333     40.702  40.263061     1.5709      8.680   184.7352 1.4418e+02    10.3361      0.133      0.192    24.4967   997.1945 0.0000e+00
      0.136      0.007     7.6178    130.151     40.677  40.226132     1.5644      8.678   184.8304 1.4210e+02    10.4367      0.133      0.193    24.4918   997.1957 0.0000e+00
      0.137      0.009     7.6167    129.955     40.696  40.236058     1.5749      8.676   180.8356 1.4264e+02    10.6521      0.134      0.194    24.4833   997.1979 0.0000e+00
      0.141      0.010     7.6161    129.818     40.720  40.256090     1.5929      8.674   186.9388 1.4434e+02    10.7777      0.137      0.198    24.4715   997.2008 0.0000e+00
      0.146      0.010     7.6133    129.708     40.740  40.277881     1.5909      8.672   192.8040 1.4594e+02    10.7755      0.144      0.208    24.4563   997.2047 0.0000e+00
      0.151      0.009     7.6035    129.597     40.768  40.309081     1.5775      8.671   192.6422 1.4715e+02    10.4609      0.150      0.217    24.4388   997.2091 0.0000e+00
      0.153      0.006     7.5909    129.500     40.769  40.315916     1.5789      8.672   185.5849 1.4853e+02     9.8253      0.150      0.218    24.4250   997.2126 0.0000e+00
      0.153      0.003     7.5855    129.413     40.741  40.297043     1.5902      8.672   172.1767 1.5112e+02     9.4485      0.150      0.217    24.4236   997.2129 0.0000e+00
      0.152      0.002     7.5791    129.335     40.704  40.271363     1.5839      8.673   163.3682 1.5405e+02     9.4105      0.149      0.216    24.4272   997.2120 0.0000e+00
      0.151      0.004     7.5710    129.265     40.683  40.259368     1.5716      8.674   161.4222 1.5600e+02     9.5300      0.148      0.214    24.4301   997.2113 0.0000e+00
      0.150      0.010     7.5652    129.190     40.640  40.215503     1.5716      8.673   161.3812 1.5548e+02     9.7465      0.147      0.213    24.4372   997.2095 0.0000e+00
      0.150      0.020     7.5581    129.101     40.563  40.121899     1.5761      8.668   160.8941 1.5162e+02     9.8653      0.146      0.212    24.4479   997.2068 0.0000e+00
      0.154      0.030     7.5516    129.008     40.549  40.079834     1.5828      8.663   159.4904 1.4690e+02     9.8848      0.148      0.215    24.4630   997.2030 0.0000e+00
      0.164      0.039     7.5460    128.919     40.583  40.087762     1.5915      8.658   158.0024 1.4253e+02     9.9174      0.158      0.230    24.4770   997.1995 0.0000e+00
      0.181      0.048     7.5416    128.806     40.599  40.090744     1.6039      8.653   157.1861 1.3958e+02    10.1944      0.179      0.259    24.4787   997.1992 0.0000e+00
      0.197      0.054     7.5394    128.626     40.627  40.115868     1.6191      8.643   157.7938 1.4006e+02    10.6771      0.195      0.283    24.4567   997.2047 0.0000e+00
      0.210      0.058     7.5391    128.381     40.646  40.137594     1.6280      8.628   159.1562 1.4287e+02    10.9370      0.206      0.299    24.4134   997.2157 0.0000e+00
      0.224      0.057     7.5401    128.105     40.604  40.099505     1.6337      8.616   159.5480 1.4542e+02    10.9774      0.219      0.317    24.3767   997.2249 0.0000e+00
      0.241      0.055     7.5365    127.809     40.538  40.036241     1.6270      8.610   159.2615 1.4627e+02    10.8698      0.235      0.340    24.3629   997.2285 0.0000e+00
      0.258      0.053     7.5262    127.542     40.513  40.007520     1.6079      8.608   158.9620 1.4772e+02    10.6191      0.254      0.369    24.3627   997.2286 0.0000e+00
      0.271      0.049     7.5095    127.396     40.524  40.006170     1.5930      8.603   158.5936 1.5094e+02    10.5024      0.268      0.389    24.3674   997.2275 0.0000e+00
      0.280      0.044     7.4931    127.372     40.549  40.019899     1.5769      8.598   158.5071 1.5229e+02    10.5082      0.273      0.396    24.3732   997.2260 0.0000e+00
      0.291      0.036     7.4746    127.414     40.579  40.046530     1.5867      8.596   158.5185 1.5089e+02    10.5247      0.284      0.411    24.3787   997.2246 0.0000e+00
      0.303      0.028     7.4554    127.433     40.603  40.074218     1.6248      8.598   158.3014 1.4972e+02    10.5383      0.298      0.433    24.3752   997.2256 0.0000e+00
      0.311      0.021     7.4514    127.404     40.619  40.100744     1.6389      8.603   157.9464 1.4954e+02    10.5087      0.307      0.446    24.3548   997.2308 0.0000e+00
      0.312      0.016     7.4526    127.382     40.619  40.113344     1.6357      8.608   157.3236 1.4965e+02    10.4944      0.308      0.446    24.3373   997.2351 0.0000e+00
      0.312      0.011     7.4583    127.381     40.598  40.099617     1.6555      8.613   156.4505 1.4956e+02    10.3327      0.305      0.441    24.3344   997.2359 0.0000e+00
      0.312      0.008     7.4595    127.394     40.557  40.061745     1.6879      8.615   155.9066 1.4816e+02    10.0292      0.306      0.443    24.3409   997.2342 0.0000e+00
      0.315      0.008     7.4529    127.428     40.531  40.036340     1.6981      8.615   155.7378 1.4555e+02     9.9048      0.309      0.448    24.3563   997.2304 0.0000e+00
      0.317      0.012     7.4499    127.501     40.543  40.046384     1.6921      8.615   155.7864 1.4298e+02     9.9100      0.311      0.451    24.3737   997.2261 0.0000e+00
      0.319      0.018     7.4485    127.630     40.558  40.056219     1.6935      8.615   156.2367 1.4004e+02    10.1900      0.313      0.454    24.3832   997.2238 0.0000e+00
      0.323      0.028     7.4491    127.796     40.536  40.028278     1.6970      8.612   156.7934 1.3549e+02    10.7672      0.316      0.457    24.3845   997.2234 0.0000e+00
      0.329      0.041     7.4503    127.880     40.481  39.962476     1.7000      8.606   157.0970 1.2989e+02    11.0884      0.323      0.468    24.3845   997.2234 0.0000e+00
      0.339      0.053     7.4550    127.763     40.430  39.895423     1.7037      8.601   157.3272 1.2428e+02    11.1568      0.330      0.478    24.3827   997.2240 0.0000e+00
      0.354      0.063     7.4625    127.472     40.405  39.852351     1.6985      8.598   157.4254 1.1705e+02    11.2005      0.342      0.496    24.3761   997.2257 0.0000e+00
      0.378      0.069     7.4765    127.095     40.392  39.822564     1.7060      8.597   157.3379 1.0868e+02    11.1581      0.372      0.539    24.3690   997.2275 0.0000e+00
      0.403      0.071     7.4870    126.691     40.376  39.789174     1.7434      8.597   157.4736 1.0254e+02    11.0704      0.399      0.579    24.3575   997.2305 0.0000e+00
      0.422      0.069     7.4813    126.285     40.374  39.766020     1.7684      8.599   157.8613 9.8104e+01    11.0246      0.415      0.603    24.3350   997.2362 0.0000e+00
      0.437      0.063     7.4660    125.892     40.364  39.733024     1.7659      8.603   158.2408 9.4093e+01    10.9983      0.429      0.622    24.3091   997.2428 0.0000e+00
      0.451      0.055     7.4455    125.511     40.295  39.644118     1.7821      8.607   158.5338 9.0235e+01    10.8172      0.442      0.640    24.2876   997.2481 0.0000e+00
      0.465      0.050     7.4243    125.124     40.184  39.516290     1.8168      8.610   158.7368 8.6554e+01    10.5057      0.457      0.663    24.2700   997.2525 0.0000e+00
      0.476      0.050     7.4035    124.714     40.080  39.393593     1.8299      8.610   158.6302 8.3384e+01    10.3458      0.469      0.679    24.2434   997.2593 0.0000e+00
      0.486      0.053     7.3850    124.251     40.015  39.303233     1.8284      8.606   158.4502 8.0256e+01    10.3258      0.475      0.688    24.2108   997.2674 0.0000e+00
      0.497      0.055     7.3670    123.728     39.987  39.248978     1.8423      8.602   158.7106 7.6966e+01    10.1982      0.486      0.705    24.1848   997.2739 0.0000e+00
      0.512      0.058     7.3466    123.091     40.004  39.245394     1.8677      8.597   159.1119 7.3472e+01     9.9825      0.501      0.727    24.1641   997.2791 0.0000e+00
      0.531      0.065     7.3276    122.246     40.033  39.259871     1.8846      8.587   159.6022 7.0182e+01     9.8812      0.522      0.756    24.1405   997.2850 0.0000e+00
      0.550      0.075     7.3044    121.208     40.017  39.233560     1.8895      8.571   159.6483 6.7797e+01     9.8917      0.542      0.787    24.1046   997.2939 0.0000e+00
      0.564      0.085     7.2793    120.080     39.977  39.181177     1.8838      8.554   158.8953 6.5695e+01    10.0102      0.552      0.800    24.0685   997.3029 0.0000e+00
      0.581      0.092     7.2494    119.034     39.948  39.134347     1.8767      8.541   158.4993 6.2553e+01    10.2322      0.565      0.818    24.0422   997.3095 0.0000e+00
      0.607      0.094     7.2001    118.138     39.945  39.111666     1.8807      8.534   158.7325 5.8439e+01    10.3483      0.593      0.860    24.0251   997.3138 0.0000e+00
      0.642      0.093     7.1390    117.285     39.947  39.097355     1.8894      8.531   159.6500 5.4484e+01    10.2995      0.631      0.915    24.0175   997.3159 0.0000e+00
      0.675      0.089     7.0697    116.420     39.954  39.088242     1.8605      8.531   160.9893 5.1678e+01    10.0359      0.667      0.967    24.0034   997.3195 0.0000e+00
      0.696      0.084     7.0087    115.550     40.017  39.128423     1.8001      8.529   160.9003 5.0053e+01     9.6187      0.687      0.996    23.9763   997.3262 0.0000e+00
      0.708      0.076     6.9652    114.687     40.187  39.265756     1.7666      8.526   159.5208 4.8706e+01     9.4173      0.695      1.008    23.9486   997.3331 0.0000e+00
      0.720      0.069     6.9168    113.755     40.437  39.479067     1.7583      8.521   158.9367 4.7085e+01     9.4028      0.705      1.021    23.9292   997.3379 0.0000e+00
      0.736      0.064     6.8680    112.556     40.607  39.612624     1.7603      8.516   159.3451 4.5164e+01     9.3785      0.722      1.045    23.9137   997.3418 0.0000e+00
      0.756      0.062     6.8194    110.946     40.636  39.610912     1.7824      8.510   159.8119 4.3281e+01     9.4176      0.742      1.076    23.8874   997.3485 0.0000e+00
      0.775      0.060     6.7735    108.827     40.636  39.585281     1.8169      8.503   159.9350 4.1771e+01     9.5159      0.761      1.103    23.8490   997.3579 0.0000e+00
      0.792      0.056     6.7303    106.165     40.624  39.556615     1.8318      8.495   159.8013 4.0581e+01     9.5840      0.778      1.129    23.8096   997.3678 0.0000e+00
      0.805      0.051     6.6660    103.085     40.595  39.518214     1.8232      8.486   159.5714 3.9682e+01     9.5859      0.791      1.148    23.7693   997.3779 0.0000e+00
      0.815      0.046     6.5778     99.854     40.585  39.501852     1.8089      8.476   159.3922 3.8884e+01     9.5385      0.800      1.161    23.7299   997.3874 0.0000e+00
      0.824      0.041     6.4582     96.812     40.574  39.485727     1.7883      8.466   159.4417 3.8062e+01     9.4700      0.808      1.172    23.6984   997.3951 0.0000e+00
      0.834      0.038     6.2992     94.220     40.542  39.450212     1.7733      8.456   160.6001 3.7255e+01     9.4129      0.817      1.185    23.6779   997.4002 0.0000e+00
      0.844      0.038     6.1133     92.241     40.418  39.326357     1.7665      8.446   162.4713 3.6432e+01     9.3715      0.828      1.201    23.6675   997.4028 0.0000e+00
      0.854      0.041     5.9139     90.965     40.161  39.067390     1.7760      8.432   163.1368 3.5707e+01     9.1993      0.838      1.216    23.6593   997.4048 0.0000e+00
      0.861      0.047     5.7292     90.328     39.898  38.794781     1.8103      8.415   162.6248 3.4969e+01     8.9043      0.844      1.225    23.6524   997.4065 0.0000e+00
      0.870      0.055     5.5735     90.152     39.758  38.632919     1.8342      8.396   161.7872 3.4017e+01     8.7213      0.851      1.235    23.6482   997.4075 0.0000e+00
      0.884      0.062     5.4531     90.291     39.723  38.570311     1.8300      8.379   161.6989 3.2923e+01     8.6904      0.865      1.255    23.6451   997.4082 0.0000e+00
      0.904      0.067     5.3804     90.770     39.724  38.545578     1.8037      8.363   163.7075 3.1671e+01     8.8909      0.885      1.284    23.6380   997.4100 0.0000e+00
      0.928      0.069     5.3489     91.639     39.727  38.524276     1.7766      8.348   166.4575 3.0475e+01     9.2454      0.910      1.320    23.6153   997.4155 0.0000e+00
      0.950      0.066     5.3463     92.706     39.728  38.503146     1.7787      8.338   167.4158 2.9677e+01     9.4048      0.933      1.354    23.5791   997.4244 0.0000e+00
      0.966      0.061     5.3573     93.743     39.727  38.480502     1.7863      8.330   167.4646 2.9141e+01     9.3763      0.949      1.376    23.5424   997.4334 0.0000e+00
      0.978      0.056     5.3846     94.682     39.713  38.440887     1.7725      8.321   167.4779 2.8782e+01     9.1302      0.961      1.394    23.5114   997.4409 0.0000e+00
      0.988      0.053     5.4458     95.471     39.712  38.404997     1.7596      8.313   167.6626 2.8504e+01     8.6892      0.969      1.406    23.4809   997.4484 0.0000e+00
      0.997      0.053     5.5190     96.040     39.713  38.363909     1.7605      8.305   169.0098 2.8002e+01     8.4697      0.975      1.414    23.4512   997.4555 0.0000e+00
      1.011      0.055     5.5820     96.294     39.721  38.324902     1.7656      8.297   170.6027 2.7344e+01     8.5076      0.989      1.436    23.4275   997.4614 0.0000e+00
      1.027      0.058     5.6431     96.115     39.760  38.314163     1.7607      8.289   171.6923 2.6654e+01     8.5248      1.008      1.462    23.3976   997.4686 0.0000e+00
      1.045      0.061     5.6961     95.481     39.791  38.297481     1.7016      8.283   172.0323 2.5892e+01     8.4809      1.024      1.485    23.3530   997.4793 0.0000e+00
      1.063      0.063     5.7375     94.469     39.857  38.313566     1.5971      8.275   171.7015 2.5200e+01     8.5013      1.043      1.513    23.2979   997.4927 0.0000e+00
      1.078      0.065     5.7629     93.157     39.980  38.381618     1.5375      8.266   171.3073 2.4608e+01     8.5746      1.059      1.536    23.2368   997.5074 0.0000e+00
      1.092      0.065     5.7595     91.624     40.074  38.421968     1.5364      8.256   171.1374 2.3963e+01     8.5811      1.069      1.551    23.1742   997.5224 0.0000e+00
      1.107      0.065     5.7251     89.894     40.119  38.420486     1.5664      8.246   171.4538 2.3263e+01     8.5798      1.085      1.573    23.1176   997.5360 0.0000e+00
      1.125      0.063     5.6693     87.876     40.162  38.427114     1.6139      8.238   172.2080 2.2532e+01     8.6573      1.104      1.601    23.0612   997.5495 0.0000e+00
      1.145      0.060     5.5961     85.497     40.197  38.438581     1.6427      8.232   172.9422 2.1807e+01     8.7322      1.122      1.629    22.9952   997.5653 0.0000e+00
      1.164      0.057     5.5088     82.779     40.203  38.432141     1.6462      8.228   172.0714 2.1258e+01     8.7316      1.144      1.659    22.9302   997.5807 0.0000e+00
      1.178      0.053     5.4146     79.898     40.202  38.412718     1.5867      8.223   169.9384 2.0945e+01     8.2887      1.157      1.678    22.8735   997.5942 0.0000e+00
      1.186      0.049     5.2992     77.171     40.218  38.394147     1.4775      8.218   169.0934 2.0729e+01     7.4081      1.162      1.686    22.8271   997.6052 0.0000e+00
      1.194      0.047     5.1581     74.786     40.265  38.397985     1.4104      8.213   169.9410 2.0435e+01     6.8996      1.169      1.695    22.8007   997.6114 0.0000e+00
      1.205      0.046     4.9924     72.723     40.301  38.395577     1.3904      8.208   171.2389 2.0028e+01     6.8279      1.181      1.712    22.7968   997.6124 0.0000e+00
      1.220      0.047     4.8104     70.882     40.296  38.364986     1.3655      8.203   170.8489 1.9642e+01     6.5737      1.197      1.736    22.7792   997.6166 0.0000e+00
      1.234      0.048     4.6474     69.259     40.298  38.345467     1.3183      8.197   168.9254 1.9347e+01     6.0871      1.211      1.756    22.7285   997.6285 0.0000e+00
      1.246      0.048     4.5089     67.963     40.328  38.349978     1.2871      8.191   168.1140 1.9078e+01     5.7949      1.222      1.772    22.6738   997.6414 0.0000e+00
      1.257      0.048     4.3916     66.968     40.362  38.356012     1.2827      8.185   168.7827 1.8783e+01     5.7288      1.233      1.788    22.6264   997.6525 0.0000e+00
      1.269      0.049     4.2837     66.110     40.387  38.354913     1.3003      8.179   169.8691 1.8498e+01     5.4837      1.244      1.805    22.5963   997.6596 0.0000e+00
      1.279      0.051     4.1820     65.258     40.393  38.336654     1.3260      8.172   170.5803 1.8238e+01     5.0594      1.254      1.819    22.5757   997.6644 0.0000e+00
      1.292      0.055     4.1074     64.392     40.405  38.325644     1.3339      8.164   170.9291 1.7913e+01     4.8590      1.265      1.834    22.5421   997.6722 0.0000e+00
      1.307      0.059     4.0542     63.543     40.455  38.348715     1.3436      8.157   170.9888 1.7543e+01     4.8641      1.282      1.859    22.5090   997.6800 0.0000e+00
      1.324      0.062     4.0079     62.753     40.500  38.361664     1.4173      8.150   170.7002 1.7189e+01     4.8594      1.299      1.882    22.4798   997.6869 0.0000e+00
      1.341      0.063     3.9581     62.025     40.515  38.355202     1.5483      8.145   170.8811 1.6786e+01     4.8674      1.314      1.905    22.4477   997.6944 0.0000e+00
      1.360      0.064     3.9072     61.291     40.494  38.334028     1.6277      8.139   171.6267 1.6400e+01     4.8950      1.335      1.936    22.4225   997.7003 0.0000e+00
      1.376      0.065     3.8560     60.455     40.448  38.296083     1.6497      8.132   172.8325 1.6128e+01     4.8985      1.351      1.960    22.3951   997.7067 0.0000e+00
      1.389      0.067     3.8112     59.526     40.439  38.277300     1.6572      8.123   174.2759 1.5867e+01     4.8432      1.362      1.975    22.3527   997.7165 0.0000e+00
      1.403      0.071     3.7711     58.650     40.490  38.297335     1.6582      8.112   174.9684 1.5531e+01     4.5542      1.375      1.994    22.3162   997.7251 0.0000e+00
      1.421      0.076     3.7288     57.875     40.578  38.347850     1.6619      8.102   175.1825 1.5136e+01     4.0591      1.393      2.021    22.3207   997.7242 0.0000e+00
      1.442      0.080     3.6772     57.115     40.649  38.380208     1.6499      8.093   175.1435 1.4696e+01     3.7727      1.413      2.050    22.3472   997.7181 0.0000e+00
      1.467      0.080     3.6159     56.266     40.673  38.371132     1.6264      8.086   174.7541 1.4231e+01     3.7129      1.436      2.083    22.3301   997.7221 0.0000e+00
      1.493      0.076     3.5652     55.195     40.683  38.365020     1.5500      8.080   175.6374 1.3830e+01     3.5653      1.466      2.126    22.2850   997.7326 0.0000e+00
      1.516      0.069     3.5234     53.836     40.689  38.369766     1.4197      8.075   177.8215 1.3595e+01     3.3316      1.492      2.163    22.2507   997.7407 0.0000e+00
      1.531      0.062     3.4817     52.336     40.682  38.365040     1.3522      8.070   178.9649 1.3477e+01     3.2141      1.502      2.180    22.2043   997.7513 0.0000e+00
      1.539      0.054     3.4362     50.907     40.690  38.371364     1.3494      8.064   178.6202 1.3350e+01     3.1942      1.508      2.187    22.1540   997.7628 0.0000e+00
      1.548      0.048     3.3756     49.678     40.710  38.382749     1.3420      8.058   177.9554 1.3189e+01     3.1889      1.517      2.200    22.1388   997.7665 0.0000e+00
      1.561      0.044     3.2873     48.718     40.715  38.375721     1.3328      8.053   178.3264 1.3014e+01     3.2154      1.530      2.219    22.1441   997.7653 0.0000e+00
      1.575      0.043     3.1901     48.068     40.704  38.349841     1.3335      8.049   179.7508 1.2859e+01     3.2526      1.545      2.241    22.1483   997.7643 0.0000e+00
      1.586      0.044     3.1010     47.701     40.689  38.323736     1.3326      8.046   180.7224 1.2738e+01     3.2453      1.556      2.257    22.1485   997.7644 0.0000e+00
      1.596      0.046     3.0250     47.518     40.683  38.313980     1.2873      8.042   180.9543 1.2603e+01     3.0950      1.564      2.269    22.1376   997.7669 0.0000e+00
      1.606      0.049     2.9665     47.482     40.663  38.295358     1.2019      8.037   180.9203 1.2458e+01     2.8772      1.575      2.285    22.1227   997.7703 0.0000e+00
      1.616      0.051     2.9276     47.572     40.669  38.289012     1.1491      8.031   180.6563 1.2306e+01     2.7746      1.585      2.298    22.1038   997.7747 0.0000e+00
      1.629      0.051     2.9107     47.691     40.702  38.300707     1.1435      8.026   180.2573 1.2084e+01     2.7724      1.596      2.314    22.0814   997.7798 0.0000e+00
      1.647      0.051     2.8992     47.691     40.722  38.309784     1.1515      8.022   180.3969 1.1817e+01     2.7524      1.616      2.343    22.0804   997.7802 0.0000e+00
      1.665      0.051     2.8960     47.425     40.745  38.335259     1.1509      8.017   181.2264 1.1625e+01     2.6630      1.636      2.372    22.0934   997.7772 0.0000e+00
      1.676      0.052     2.9057     46.910     40.751  38.354818     1.1446      8.011   181.9401 1.1508e+01     2.5760      1.646      2.387    22.0723   997.7821 0.0000e+00
      1.684      0.054     2.9172     46.334     40.744  38.355857     1.1440      8.004   182.1435 1.1382e+01     2.5530      1.650      2.395    22.0383   997.7899 0.0000e+00
      1.694      0.055     2.9227     45.851     40.750  38.347838     1.1436      7.996   181.2764 1.1199e+01     2.5483      1.659      2.406    22.0269   997.7925 0.0000e+00
      1.709      0.058     2.9063     45.525     40.752  38.321313     1.0795      7.990   179.9736 1.0958e+01     2.3887      1.674      2.428    22.0315   997.7915 0.0000e+00
      1.728      0.061     2.8669     45.267     40.745  38.289022     0.9491      7.986   179.8997 1.0723e+01     2.0984      1.695      2.459    22.0563   997.7860 0.0000e+00
      1.748      0.064     2.8280     44.865     40.748  38.274770     0.8686      7.981   180.3827 1.0553e+01     1.9545      1.716      2.489    22.0788   997.7810 0.0000e+00
      1.765      0.065     2.7980     44.228     40.765  38.275917     0.8518      7.976   180.8234 1.0431e+01     1.9599      1.732      2.512    22.0555   997.7864 0.0000e+00
      1.779      0.064     2.7815     43.391     40.815  38.302871     0.8408      7.970   180.6692 1.0329e+01     1.8686      1.744      2.529    22.0079   997.7972 0.0000e+00
      1.793      0.063     2.7751     42.391     40.892  38.346722     0.8130      7.963   179.2918 1.0213e+01     1.6376      1.758      2.549    21.9751   997.8048 0.0000e+00
      1.809      0.062     2.7523     41.287     40.945  38.361730     0.7847      7.957   178.3661 1.0083e+01     1.4935      1.774      2.573    21.9590   997.8084 0.0000e+00
      1.827      0.060     2.7123     40.084     40.975  38.357334     0.7762      7.952   178.4242 9.9591e+00     1.5020      1.792      2.599    21.9453   997.8116 0.0000e+00
      1.844      0.056     2.6624     38.678     40.997  38.356998     0.7628      7.947   179.0480 9.8421e+00     1.5442      1.809      2.623    21.9206   997.8173 0.0000e+00
      1.860      0.049     2.6009     37.000     41.011  38.357641     0.7356      7.942   180.0574 9.7550e+00     1.5452      1.825      2.647    21.8859   997.8253 0.0000e+00
      1.872      0.041     2.5346     35.112     41.025  38.365089     0.7251      7.938   180.3039 9.7084e+00     1.5145      1.838      2.667    21.8381   997.8361 0.0000e+00
      1.880      0.037     2.4666     33.185     41.045  38.383564     0.7304      7.934   179.7923 9.6883e+00     1.5007      1.847      2.677    21.7940   997.8460 0.0000e+00
      1.884      0.039     2.3833     31.476     41.055  38.390590     0.7313      7.930   179.5497 9.6877e+00     1.5090      1.849      2.681    21.7712   997.8512 0.0000e+00
      1.888      0.044     2.2785     30.146     41.060  38.386551     0.7349      7.925   179.6075 9.6627e+00     1.5171      1.849      2.682    21.7561   997.8546 0.0000e+00
      1.896      0.049     2.1603     29.160     41.086  38.398198     0.7389      7.919   179.7175 9.5662e+00     1.5006      1.855      2.690    21.7512   997.8557 0.0000e+00
      1.914      0.053     2.0341     28.387     41.103  38.404443     0.7365      7.913   180.5351 9.4235e+00     1.4727      1.874      2.719    21.7548   997.8550 0.0000e+00
      1.938      0.053     1.9254     27.727     41.095  38.398564     0.7315      7.909   181.8357 9.2982e+00     1.4094      1.903      2.760    21.7514   997.8559 0.0000e+00
      1.959      0.051     1.8457     27.152     41.076  38.390597     0.7306      7.906   182.3651 9.2256e+00     1.3246      1.926      2.794    21.7417   997.8581 0.0000e+00
      1.969      0.047     1.7888     26.638     41.046  38.371609     0.7350      7.904   182.1179 9.2089e+00     1.2997      1.934      2.805    21.7225   997.8625 0.0000e+00
      1.972      0.042     1.7450     26.188     41.025  38.359434     0.7335      7.901   181.6005 9.2174e+00     1.3042      1.934      2.805    21.7056   997.8663 0.0000e+00
      1.976      0.038     1.7033     25.862     41.025  38.370350     0.7290      7.896   181.3576 9.2032e+00     1.2811      1.936      2.808    21.7098   997.8654 0.0000e+00
      1.985      0.037     1.6686     25.747     41.025  38.376651     0.7146      7.891   182.6225 9.1450e+00     1.2501      1.944      2.819    21.7285   997.8612 0.0000e+00
      2.000      0.041     1.6369     25.995     41.018  38.372147     0.6900      7.887   184.8479 9.0866e+00     1.2575      1.962      2.845    21.7382   997.8591 0.0000e+00
      2.014      0.051     1.6068     26.689     41.029  38.379382     0.6828      7.883   185.8084 9.0681e+00     1.3043      1.978      2.869    21.7440   997.8578 0.0000e+00
      2.024      0.061     1.5858     27.683     41.072  38.400632     0.6885      7.877   185.2883 9.0597e+00     1.3245      1.985      2.878    21.7616   997.8539 0.0000e+00
      2.035      0.068     1.5739     28.676     41.152  38.438621     0.6979      7.870   184.4964 9.0204e+00     1.3058      1.992      2.889    21.7702   997.8521 0.0000e+00
      2.053      0.071     1.5861     29.333     41.216  38.457786     0.7193      7.863   185.0955 8.9196e+00     1.2745      2.009      2.914    21.7701   997.8522 0.0000e+00
      2.079      0.071     1.6328     29.328     41.230  38.441858     0.7301      7.857   186.9394 8.7832e+00     1.2416      2.037      2.955    21.7723   997.8518 0.0000e+00
      2.106      0.068     1.7015     28.396     41.238  38.436428     0.7246      7.853   187.9480 8.6966e+00     1.2352      2.069      3.001    21.7518   997.8565 0.0000e+00
      2.125      0.063     1.7718     26.523     41.264  38.455597     0.7222      7.849   188.0840 8.6723e+00     1.2293      2.088      3.027    21.6998   997.8683 0.0000e+00
      2.135      0.055     1.8209     24.035     41.299  38.483185     0.7177      7.845   187.8957 8.6468e+00     1.2354      2.093      3.036    21.6418   997.8814 0.0000e+00
      2.143      0.048     1.8287     21.337     41.352  38.516071     0.7141      7.842   187.4784 8.6040e+00     1.2765      2.102      3.048    21.6067   997.8893 0.0000e+00
      2.152      0.046     1.7734     18.777     41.402  38.535806     0.7225      7.839   187.5984 8.5679e+00     1.3001      2.111      3.062    21.5945   997.8920 0.0000e+00
      2.161      0.051     1.6483     16.619     41.422  38.531318     0.7320      7.835   188.1423 8.5134e+00     1.2914      2.117      3.071    21.5918   997.8927 0.0000e+00
      2.173      0.058     1.4856     14.843     41.431  38.525250     0.7251      7.830   188.3749 8.4409e+00     1.2702      2.129      3.088    21.5907   997.8930 0.0000e+00
      2.189      0.063     1.3140     13.255     41.444  38.525896     0.7166      7.825   188.6042 8.3715e+00     1.2729      2.145      3.111    21.5714   997.8973 0.0000e+00
      2.210      0.063     1.1479     11.770     41.468  38.539114     0.7248      7.821   189.0221 8.2781e+00     1.2920      2.166      3.142    21.5317   997.9062 0.0000e+00
      2.234      0.060     1.0171     10.346     41.490  38.558101     0.7117      7.817   188.4371 8.1885e+00     1.3041      2.193      3.181    21.4998   997.9135 0.0000e+00
      2.251      0.053     0.9148      9.031     41.487  38.565022     0.6624      7.814   187.0384 8.1521e+00     1.3206      2.211      3.207    21.4877   997.9163 0.0000e+00
      2.261      0.043     0.8166      7.986     41.465  38.559339     0.6312      7.810   186.7370 8.1471e+00     1.2949      2.217      3.217    21.4742   997.9193 0.0000e+00
      2.267      0.033     0.7267      7.321     41.454  38.552885     0.6294      7.806   187.8044 8.1474e+00     1.2556      2.223      3.224    21.4597   997.9225 0.0000e+00
      2.272      0.027     0.6388      7.114     41.460  38.550474     0.6236      7.803   189.1886 8.1597e+00     1.2717      2.230      3.234    21.4554   997.9235 0.0000e+00
      2.277      0.028     0.5508      7.349     41.449  38.530174     0.6036      7.799   188.9338 8.1770e+00     1.2602      2.234      3.239    21.4698   997.9204 0.0000e+00
      2.281      0.034     0.4857      7.825     41.428  38.497854     0.5787      7.793   187.1322 8.1687e+00     1.2149      2.235      3.242    21.4983   997.9140 0.0000e+00
      2.287      0.042     0.4419      8.270     41.426  38.477080     0.5661      7.786   186.2482 8.1183e+00     1.2149      2.241      3.250    21.5020   997.9131 0.0000e+00
      2.299      0.051     0.4287      8.469     41.445  38.469405     0.5633      7.781   186.6774 8.0359e+00     1.2280      2.253      3.267    21.4849   997.9170 0.0000e+00
      2.317      0.060     0.4489      8.327     41.470  38.468499     0.5620      7.777   187.5901 7.9468e+00     1.2415      2.271      3.294    21.4741   997.9195 0.0000e+00
      2.337      0.067     0.4844      7.805     41.490  38.466093     0.5683      7.773   188.2491 7.8698e+00     1.2471      2.292      3.324    21.4629   997.9221 0.0000e+00
      2.357      0.072     0.5179      6.947     41.480  38.440290     0.5694      7.769   188.1917 7.7948e+00     1.2304      2.312      3.354    21.4385   997.9276 0.0000e+00
      2.374      0.075     0.5311      5.892     41.395  38.346920     0.5585      7.765   187.4986 7.7165e+00     1.2361      2.328      3.377    21.4039   997.9354 0.0000e+00
      2.390      0.075     0.5245      4.793     41.279  38.225839     0.5582      7.760   186.8378 7.6449e+00     1.2180      2.342      3.397    21.3738   997.9420 0.0000e+00
      2.409      0.074     0.4912      3.782     41.248  38.182374     0.5653      7.756   186.8274 7.5751e+00     1.1099      2.362      3.425    21.3492   997.9475 0.0000e+00
      2.432      0.072     0.4348      2.962     41.283  38.202247     0.5573      7.752   187.2006 7.5052e+00     1.0113      2.386      3.460    21.3282   997.9522 0.0000e+00
      2.454      0.071     0.3658      2.377     41.308  38.212190     0.5478      7.748   187.8229 7.4514e+00     1.0086      2.409      3.493    21.3119   997.9559 0.0000e+00
      2.470      0.068     0.2955      2.035     41.286  38.175617     0.5803      7.744   188.5004 7.4120e+00     1.0766      2.423      3.514    21.2968   997.9592 0.0000e+00
      2.484      0.065     0.2298      1.943     41.270  38.140893     0.6469      7.741   188.6809 7.3566e+00     1.1776      2.434      3.529    21.2795   997.9631 0.0000e+00
      2.499      0.064     0.1786      2.038     41.325  38.173191     0.6867      7.739   188.3713 7.2895e+00     1.2469      2.452      3.556    21.2620   997.9671 0.0000e+00
      2.515      0.064     0.1428      2.258     41.360  38.185227     0.6972      7.735   188.0268 7.2138e+00     1.2590      2.468      3.579    21.2502   997.9697 0.0000e+00
      2.530      0.068     0.1200      2.573     41.360  38.159441     0.7649      7.731   189.0755 7.1129e+00     1.2590      2.481      3.598    21.2309   997.9740 0.0000e+00
      2.546      0.071     0.1172      2.952     41.413  38.178764     0.8898      7.727   191.2415 7.0139e+00     1.2797      2.496      3.620    21.2028   997.9802 0.0000e+00
      2.566      0.073     0.1241      3.329     41.498  38.228388     0.9589      7.725   192.1906 6.9321e+00     1.2794      2.516      3.648    21.1818   997.9850 0.0000e+00
      2.588      0.075     0.1383      3.636     41.620  38.315057     0.9763      7.722   192.2050 6.8428e+00     1.2556      2.539      3.682    21.1598   997.9898 0.0000e+00
      2.609      0.077     0.1584      3.856     41.806  38.464895     0.9963      7.719   191.9320 6.7572e+00     1.2536      2.559      3.711    21.1271   997.9970 0.0000e+00
      2.628      0.078     0.1837      3.993     42.021  38.643514     1.0439      7.715   191.2980 6.7000e+00     1.2558      2.577      3.738    21.0887   998.0055 0.0000e+00
      2.646      0.080     0.2095      4.055     42.240  38.824229     1.1179      7.710   191.9391 6.6436e+00     1.2823      2.594      3.763    21.0529   998.0133 0.0000e+00
      2.665      0.081     0.2284      4.056     42.460  38.999409     1.1546      7.705   193.7474 6.5699e+00     1.3443      2.611      3.787    21.0231   998.0200 0.0000e+00
      2.685      0.083     0.2425      4.010     42.683  39.174558     1.1845      7.700   194.7493 6.4932e+00     1.3502      2.633      3.818    20.9975   998.0257 0.0000e+00
      2.709      0.084     0.2508      3.920     42.912  39.354882     1.5487      7.696   194.7609 6.4107e+00     1.2880      2.656      3.853    20.9776   998.0301 0.0000e+00
      2.733      0.086     0.2544      3.819     43.134  39.529134     2.2202      7.691   194.4034 6.3367e+00     1.2483      2.680      3.887    20.9546   998.0353 0.0000e+00
      2.755      0.086     0.2542      3.735     43.350  39.694331     2.5928      7.685   194.1269 6.2822e+00     1.2630      2.704      3.922    20.9198   998.0431 0.0000e+00
      2.775      0.085     0.2517      3.628     43.537  39.828639     2.6808      7.678   194.3432 6.2191e+00     1.3018      2.720      3.947    20.8836   998.0511 0.0000e+00
      2.795      0.084     0.2458      3.474     43.707  39.946819     3.2936      7.673   194.9535 6.1496e+00     1.2922      2.739      3.973    20.8504   998.0583 0.0000e+00
      2.817      0.084     0.2378      3.303     43.923  40.107451     4.4103      7.668   195.7410 6.0879e+00     1.2448      2.764      4.008    20.8171   998.0656 0.0000e+00
      2.839      0.085     0.2348      3.128     44.118  40.247168     5.0163      7.662   196.5521 6.0268e+00     1.2536      2.785      4.040    20.7799   998.0738 0.0000e+00
      2.859      0.088     0.2289      2.933     44.293  40.366396     5.0539      7.656   196.0706 5.9622e+00     1.2998      2.803      4.065    20.7358   998.0834 0.0000e+00
      2.881      0.090     0.2182      2.712     44.522  40.533201     4.8397      7.649   194.8234 5.8859e+00     1.3114      2.824      4.097    20.6924   998.0927 0.0000e+00
      2.906      0.090     0.2073      2.481     44.659  40.613321     4.4371      7.644   195.0659 5.8123e+00     1.2952      2.850      4.135    20.6539   998.1012 0.0000e+00
      2.931      0.087     0.1970      2.239     44.659  40.573243     4.2174      7.639   195.9055 5.7581e+00     1.2682      2.874      4.169    20.6096   998.1108 0.0000e+00
      2.956      0.081     0.1855      1.994     44.662  40.556452     4.2205      7.634   196.6287 5.7013e+00     1.2465      2.898      4.204    20.5612   998.1212 0.0000e+00
      2.979      0.074     0.1705      1.764     44.711  40.600729     4.4749      7.629   197.4437 5.6443e+00     1.2631      2.923      4.240    20.5182   998.1306 0.0000e+00
      2.997      0.065     0.1569      1.547     44.779  40.664188     4.9266      7.624   196.6392 5.6141e+00     1.3047      2.941      4.266    20.4655   998.1418 0.0000e+00
      3.009      0.059     0.1415      1.363     44.884  40.752371     5.1641      7.620   194.6444 5.5985e+00     1.3235      2.952      4.281    20.4091   998.1537 0.0000e+00
      3.019      0.057     0.1253      1.244     45.072  40.905099     5.1966      7.615   193.8894 5.5739e+00     1.2940      2.959      4.293    20.3894   998.1580 0.0000e+00
      3.030      0.058     0.1114      1.188     45.409  41.177566     5.3379      7.609   194.5659 5.5378e+00     1.2763      2.971      4.309    20.3996   998.1558 0.0000e+00
      3.044      0.062     0.0970      1.157     45.890  41.570693     5.5889      7.601   195.6821 5.4899e+00     1.3056      2.985      4.328    20.4034   998.1551 0.0000e+00
      3.060      0.066     0.0842      1.145     46.248  41.849014     5.7255      7.593   196.1137 5.4361e+00     1.3208      2.999      4.349    20.3963   998.1567 0.0000e+00
      3.081      0.067     0.0769      1.164     46.328  41.876126     5.7419      7.587   195.6548 5.3739e+00     1.2963      3.020      4.382    20.3811   998.1601 0.0000e+00
      3.104      0.065     0.0748      1.188     46.394  41.898456     5.7775      7.582   195.2108 5.2896e+00     1.2705      3.046      4.418    20.3402   998.1689 0.0000e+00
      3.124      0.061     0.0731      1.208     46.605  42.055453     6.1645      7.578   195.1327 5.2173e+00     1.2710      3.066      4.447    20.2885   998.1800 0.0000e+00
      3.136      0.055     0.0711      1.229     46.857  42.250561     6.8760      7.573   195.3983 5.1847e+00     1.2703      3.077      4.463    20.2401   998.1903 0.0000e+00
      3.145      0.050     0.0741      1.232     47.217  42.543198     7.2708      7.569   196.4431 5.1557e+00     1.2293      3.083      4.471    20.1867   998.2014 0.0000e+00
      3.155      0.046     0.0758      1.222     47.697  42.927008     7.3572      7.565   197.6987 5.1110e+00     1.2011      3.093      4.486    20.1493   998.2093 0.0000e+00
      3.166      0.046     0.0761      1.222     48.093  43.208550     7.9378      7.561   197.5885 5.0771e+00     1.2896      3.105      4.504    20.1166   998.2163 0.0000e+00
      3.177      0.050     0.0789      1.232     48.408  43.407472     9.0191      7.557   196.7447 5.0446e+00     1.4477      3.115      4.518    20.0780   998.2243 0.0000e+00
      3.189      0.056     0.0788      1.245     48.725  43.617697     9.6292      7.552   196.5314 4.9890e+00     1.5397      3.127      4.533    20.0504   998.2302 0.0000e+00
      3.204      0.063     0.0772      1.260     49.061  43.845422     9.7563      7.545   197.9350 4.9334e+00     1.5825      3.142      4.557    20.0101   998.2388 0.0000e+00
      3.220      0.071     0.0777      1.266     49.464  44.128914    10.5389      7.536   200.2071 4.8756e+00     1.8344      3.158      4.580    19.9191   998.2577 0.0000e+00
      3.238      0.080     0.0788      1.279     50.053  44.568905    11.9734      7.526   200.8580 4.7879e+00     2.2914      3.174      4.603    19.8232   998.2776 0.0000e+00
      3.261      0.087     0.0792      1.307     50.915  45.228328    12.7611      7.518   200.3843 4.6785e+00     2.5520      3.196      4.636    19.7565   998.2914 0.0000e+00
      3.286      0.090     0.0812      1.328     52.006  46.069330    12.7894      7.511   200.5885 4.5753e+00     2.6259      3.223      4.673    19.6805   998.3070 0.0000e+00
      3.314      0.091     0.0810      1.343     53.272  47.053483    12.1769      7.504   202.2093 4.4858e+00     3.0205      3.251      4.713    19.6030   998.3229 0.0000e+00
      3.339      0.088     0.0814      1.360     54.411  47.919247    11.0332      7.496   204.3219 4.4043e+00     3.7185      3.277      4.752    19.5270   998.3386 0.0000e+00
      3.361      0.083     0.0847      1.370     55.112  48.408118    10.4053      7.488   205.5682 4.3304e+00     4.0852      3.297      4.783    19.4209   998.3603 0.0000e+00
      3.380      0.076     0.0859      1.376     55.784  48.899634    10.4033      7.481   206.0064 4.2591e+00     4.1109      3.315      4.808    19.2892   998.3869 0.0000e+00
      3.399      0.070     0.0864      1.380     57.036  49.924250    11.0689      7.475   205.7487 4.1962e+00     4.0952      3.333      4.834    19.1616   998.4128 0.0000e+00
      3.415      0.066     0.0887      1.371     58.376  51.015281    12.2892      7.469   205.4636 4.1520e+00     4.0257      3.350      4.859    19.0298   998.4392 0.0000e+00
      3.429      0.064     0.0891      1.371     59.394  51.801447    12.9505      7.461   205.5701 4.1097e+00     3.9602      3.363      4.878    18.9021   998.4644 0.0000e+00
      3.444      0.062     0.0892      1.373     60.460  52.632937    13.0126      7.453   205.3163 4.0497e+00     3.9260      3.376      4.896    18.8121   998.4820 0.0000e+00
      3.460      0.059     0.0910      1.364     61.416  53.382377    12.9961      7.446   203.0833 3.9759e+00     3.9075      3.392      4.920    18.7678   998.4912 0.0000e+00
      3.478      0.058     0.0888      1.362     62.711  54.446827    12.6741      7.439   197.4993 3.9110e+00     4.1285      3.411      4.947    18.7047   998.5040 0.0000e+00
      3.494      0.058     0.0895      1.358     64.374  55.846465    12.0838      7.433   191.0592 3.8644e+00     4.5660      3.428      4.972    18.5962   998.5249 0.0000e+00
      3.505      0.060     0.0909      1.330     66.826  57.916647    11.7637      7.423   187.6809 3.8184e+00     4.8058      3.439      4.988    18.5219   998.5398 0.0000e+00
      3.515      0.065     0.0888      1.287     71.584  61.939724    11.6382      7.411   185.5623 3.7642e+00     4.9302      3.446      4.997    18.4482   998.5540 0.0000e+00
      3.530      0.070     0.0896      1.251     76.880  66.359127    10.4623      7.398   181.7905 3.6896e+00     5.9065      3.458      5.017    18.3983   998.5639 0.0000e+00
      3.550      0.074     0.0900      1.231     80.627  69.403127     8.3143      7.385   178.4715 3.5927e+00     7.6645      3.481      5.049    18.3788   998.5685 0.0000e+00
      3.575      0.076     0.0880      1.224     83.671  71.854158     7.1511      7.374   176.4062 3.4892e+00     8.6527      3.506      5.085    18.3362   998.5768 0.0000e+00
      3.600      0.075     0.0844      1.234     86.297  73.931412     6.9922      7.363   172.3068 3.3775e+00     8.8420      3.531      5.121    18.2846   998.5887 0.0000e+00
      3.622      0.069     0.0822      1.255     88.394  75.506388     6.2459      7.352   164.2680 3.2749e+00     9.6908      3.553      5.155    18.1655   998.6134 0.0000e+00
      3.637      0.061     0.0813      1.280     91.340  77.796663     4.8904      7.342   154.6661 3.2151e+00    11.2145      3.568      5.175    18.0231   998.6408 0.0000e+00
      3.648      0.056     0.0807      1.300     95.290  80.951873     4.1543      7.330   147.4126 3.1887e+00    12.0250      3.579      5.191    17.9373   998.6578 0.0000e+00
      3.658      0.055     0.0816      1.304     98.777  83.696032     4.0735      7.316   142.9887 3.1632e+00    12.1498      3.589      5.205    17.8485   998.6753 0.0000e+00
      3.666      0.057     0.0837      1.295    101.297  85.593013     4.0091      7.301   139.0347 3.1160e+00    12.8876      3.594      5.212    17.7042   998.7019 0.0000e+00
      3.680      0.060     0.0857      1.290    102.992  86.772972     3.9307      7.286   136.4301 3.0225e+00    14.2274      3.606      5.230    17.5764   998.7260 0.0000e+00
      3.701      0.065     0.0874      1.300    104.202  87.527402     3.8972      7.270   135.5881 2.9055e+00    14.9782      3.630      5.266    17.4794   998.7453 0.0000e+00
      3.723      0.070     0.0880      1.312    105.277  88.160265     3.9062      7.253   133.1555 2.8160e+00    15.0828      3.653      5.299    17.3667   998.7667 0.0000e+00
      3.741      0.072     0.0869      1.318    106.007  88.506485     3.9532      7.237   129.5605 2.7505e+00    15.1638      3.669      5.321    17.2473   998.7888 0.0000e+00
      3.757      0.071     0.0864      1.323    106.197  88.404114     4.0320      7.222   126.2780 2.6904e+00    15.2378      3.685      5.344    17.1248   998.8110 0.0000e+00
      3.775      0.067     0.0879      1.337    106.160  88.131284     4.0786      7.208   121.9459 2.6248e+00    15.2559      3.702      5.369    16.9961   998.8340 0.0000e+00
      3.794      0.061     0.0890      1.357    106.096  87.880154     4.0751      7.196   117.1901 2.5477e+00    15.3176      3.721      5.396    16.8655   998.8571 0.0000e+00
      3.811      0.055     0.0896      1.367    105.860  87.531091     4.0061      7.186   113.2585 2.4865e+00    15.9840      3.739      5.423    16.7420   998.8786 0.0000e+00
      3.825      0.050     0.0898      1.352    105.182  86.837788     3.8961      7.176   109.7711 2.4579e+00    17.1846      3.753      5.444    16.6167   998.8999 0.0000e+00
      3.835      0.048     0.0910      1.314    104.146  85.860533     3.8456      7.166   105.0521 2.4307e+00    17.8386      3.762      5.456    16.4960   998.9204 0.0000e+00
      3.842      0.050     0.0934      1.296    103.139  84.941440     3.8457      7.155    99.3940 2.3907e+00    17.9279      3.768      5.464    16.4031   998.9360 0.0000e+00
      3.850      0.054     0.0942      1.303    102.379  84.251124     3.8371      7.143    96.0796 2.3478e+00    18.1984      3.774      5.473    16.3360   998.9471 0.0000e+00
      3.863      0.059     0.0940      1.288    101.871  83.749164     3.7676      7.132    93.6291 2.2846e+00    21.1090      3.785      5.490    16.2765   998.9568 0.0000e+00
      3.884      0.064     0.0895      1.266    101.005  82.944082     3.6552      7.123    89.7264 2.1976e+00    26.4756      3.808      5.524    16.2100   998.9674 0.0000e+00
      3.908      0.069     0.0879      1.251     99.493  81.578647     3.5968      7.114    87.0079 2.1177e+00    29.4380      3.836      5.564    16.1655   998.9745 0.0000e+00
      3.927      0.073     0.0911      1.233     97.783  79.963078     3.5904      7.106    84.7647 2.0612e+00    29.7260      3.853      5.588    16.1536   998.9762 0.0000e+00
      3.941      0.075     0.0888      1.239     96.655  78.740765     3.6204      7.098    80.4999 2.0072e+00    29.7939      3.862      5.602    16.1000   998.9850 0.0000e+00
      3.958      0.075     0.0864      1.252     96.532  78.312700     3.6831      7.090    75.1068 1.9257e+00    29.8990      3.880      5.627    16.0559   998.9920 0.0000e+00
      3.978      0.075     0.0874      1.222     96.516  78.031009     3.7243      7.084    69.9768 1.8253e+00    29.9480      3.900      5.657    16.0158   998.9981 0.0000e+00
      4.000      0.075     0.0841      1.180     96.066  77.497062     3.7366      7.078    65.6226 1.7314e+00    29.7967      3.921      5.687    15.8970   999.0167 0.0000e+00
      4.022      0.072     0.0853      1.175     95.531  76.944880     3.8488      7.072    60.8346 1.6417e+00    28.1024      3.945      5.721    15.7378   999.0418 0.0000e+00
      4.042      0.067     0.0896      1.198     94.508  75.997456     4.0666      7.068    56.5668 1.5521e+00    24.9963      3.965      5.750    15.5467   999.0723 0.0000e+00
      4.058      0.062     0.0857      1.221     92.201  73.991463     4.1856      7.064    54.0296 1.4794e+00    23.2761      3.980      5.773    15.3957   999.0960 0.0000e+00
      4.070      0.062     0.0813      1.219     88.902  71.132403     4.2033      7.060    51.0652 1.4283e+00    22.9689      3.993      5.793    15.3245   999.1069 0.0000e+00
      4.079      0.066     0.0817      1.215     85.746  68.325769     4.2545      7.056    47.3970 1.3794e+00    21.4459      3.999      5.802    15.2714   999.1150 0.0000e+00
      4.091      0.073     0.0842      1.248     83.375  66.123851     4.3367      7.051    44.2643 1.3082e+00    18.6580      4.009      5.815    15.2063   999.1249 0.0000e+00
      4.111      0.080     0.0866      1.292     81.425  64.279603     4.3747      7.048    41.4956 1.1880e+00    17.0850      4.028      5.842    15.1336   999.1352 0.0000e+00
      4.139      0.085     0.0865      1.313     78.424  61.663652     4.3671      7.046    37.7532 1.0177e+00    16.7158      4.057      5.886    15.0182   999.1514 0.0000e+00
      4.169      0.090     0.0840      1.315     72.892  57.119818     4.2875      7.044    33.6901 8.6066e-01    14.4560      4.092      5.935    14.8406   999.1771 0.0000e+00
      4.194      0.090     0.0887      1.310     66.157  51.659535     4.1320      7.043    30.9136 7.6237e-01    10.3421      4.116      5.970    14.6463   999.2051 0.0000e+00
      4.213      0.085     0.0933      1.331     61.303  47.675479     4.0394      7.043    29.0484 6.8697e-01     8.0720      4.130      5.991    14.4559   999.2323 0.0000e+00
      4.232      0.079     0.0939      1.367     59.114  45.790021     4.0178      7.043    27.5717 6.1158e-01     7.7533      4.149      6.017    14.2941   999.2548 0.0000e+00
      4.252      0.073     0.0955      1.372     58.442  45.120615     3.9220      7.044    26.3088 5.5440e-01     6.9151      4.171      6.050    14.1707   999.2704 0.0000e+00
      4.271      0.069     0.0930      1.365     58.316  44.915863     3.7560      7.047    24.9644 5.1119e-01     5.4742      4.189      6.076    14.0399   999.2858 0.0000e+00
      4.288      0.067     0.0954      1.374     58.316  44.838282     3.6666      7.050    22.5874 4.6416e-01     4.7184      4.205      6.099    13.8746   999.3071 0.0000e+00
      4.305      0.064     0.1009      1.414     58.367  44.817514     3.6561      7.054    19.7670 4.1834e-01     4.6584      4.221      6.123    13.7134   999.3286 0.0000e+00
      4.320      0.060     0.0998      1.504     58.477  44.855196     3.6476      7.058    18.8263 3.7369e-01     4.6181      4.236      6.144    13.5873   999.3456 0.0000e+00
      4.335      0.057     0.0988      1.659     58.845  45.103332     3.5981      7.063    19.0432 3.2739e-01     4.3621      4.251      6.166    13.4975   999.3576 0.0000e+00
      4.349      0.055     0.1000      1.932     59.844  45.849127     3.5170      7.067    17.6577 2.9128e-01     3.9236      4.265      6.186    13.4364   999.3657 0.0000e+00
      4.363      0.053     0.1017      2.390     61.275  46.950620     3.4824      7.070    15.3233 2.5793e-01     3.7070      4.278      6.205    13.3870   999.3724 0.0000e+00
      4.375      0.051     0.1089      3.055     62.107  47.625458     3.4827      7.073    14.5651 2.2224e-01     3.7095      4.291      6.223    13.3456   999.3779 0.0000e+00
      4.388      0.049     0.1185      3.890     61.830  47.467351     3.3988      7.075    15.0293 2.0204e-01     3.6929      4.304      6.240    13.3172   999.3817 0.0000e+00
      4.401      0.049     0.1362      4.777     61.252  47.071311     3.2400      7.076    15.4297 1.9264e-01     3.6043      4.317      6.260    13.2972   999.3847 0.0000e+00
      4.412      0.049     0.1698      5.601     60.757  46.711046     3.1576      7.078    14.5887 1.8708e-01     3.4896      4.327      6.275    13.2976   999.3853 0.0000e+00
      4.423      0.050     0.2180      6.276     59.971  46.096239     3.1399      7.078    12.3458 1.7665e-01     3.4211      4.337      6.288    13.3319   999.3813 0.0000e+00
      4.436      0.050     0.2834      6.719     59.308  45.543687     3.0176      7.078    10.7673 1.4981e-01     3.2013      4.351      6.310    13.3851   999.3741 0.0000e+00
      4.451      0.049     0.3509      6.951     59.076  45.300998     2.8053      7.077    10.3878 1.2893e-01     2.7333      4.366      6.332    13.4309   999.3679 0.0000e+00
      4.465      0.048     0.4119      7.092     58.927  45.130415     2.6892      7.077    10.5969 1.2404e-01     2.4165      4.379      6.350    13.4453   999.3661 0.0000e+00
      4.478      0.048     0.4651      7.269     58.734  44.941649     2.6621      7.077    11.9187 1.2353e-01     2.3528      4.393      6.371    13.4390   999.3665 0.0000e+00
      4.488      0.053     0.4972      7.618     58.600  44.796624     2.5564      7.077    13.8941 1.2345e-01     2.3892      4.402      6.385    13.4013   999.3712 0.0000e+00
      4.496      0.063     0.5103      8.244     58.553  44.710409     2.3730      7.078    15.1220 1.2344e-01     2.4966      4.407      6.392    13.3325   999.3804 0.0000e+00
      4.507      0.074     0.5191      9.175     58.553  44.661169     2.2655      7.080    15.5808 1.2344e-01     2.5696      4.415      6.404    13.2839   999.3866 0.0000e+00
      4.528      0.084     0.5280     10.375     58.586  44.645710     2.2276      7.080    15.9996 1.2344e-01     2.6494      4.435      6.434    13.2570   999.3902 0.0000e+00
      4.558      0.092     0.5513     11.802     58.632  44.650451     2.0535      7.079    18.1199 1.2350e-01     3.5922      4.469      6.482    13.2233   999.3947 0.0000e+00
      4.591      0.096     0.5972     13.404     58.667  44.654960     1.7563      7.078    21.6872 1.2355e-01     5.3817      4.505      6.534    13.1752   999.4009 0.0000e+00
      4.620      0.094     0.6674     15.068     58.662  44.636690     1.5986      7.077    23.8553 1.2357e-01     6.3933      4.534      6.576    13.1312   999.4068 0.0000e+00
      4.640      0.089     0.7578     16.676     58.653  44.620045     1.5861      7.077    24.2866 1.2358e-01     6.5154      4.551      6.601    13.0975   999.4112 0.0000e+00
      4.658      0.080     0.8631     18.163     58.693  44.644187     1.5704      7.075    24.4071 1.2356e-01     6.8589      4.566      6.623    13.0703   999.4147 0.0000e+00
      4.676      0.072     0.9857     19.489     58.739  44.674582     1.5223      7.072    26.0861 1.2357e-01     7.4654      4.585      6.650    13.0526   999.4171 0.0000e+00
      4.695      0.066     1.1115     20.588     58.739  44.670055     1.4727      7.070    29.1004 1.2357e-01     7.7534      4.604      6.678    13.0412   999.4186 0.0000e+00
      4.713      0.060     1.2318     21.411     58.723  44.652941     1.4561      7.068    31.0832 1.2352e-01     7.7844      4.622      6.705    13.0335   999.4196 0.0000e+00
      4.728      0.054     1.3418     21.975     58.738  44.658156     1.4597      7.066    32.0780 1.2352e-01     7.8079      4.638      6.726    13.0283   999.4205 0.0000e+00
      4.741      0.049     1.4416     22.292     58.759  44.669598     1.4729      7.063    33.1268 1.2357e-01     7.9387      4.651      6.744    13.0246   999.4210 0.0000e+00
      4.752      0.047     1.5251     22.422     58.756  44.664280     1.4943      7.061    34.1279 1.2353e-01     8.2513      4.662      6.762    13.0217   999.4214 0.0000e+00
      4.760      0.049     1.5836     22.457     58.749  44.657354     1.5105      7.060    35.4059 1.2350e-01     8.4748      4.668      6.771    13.0174   999.4220 0.0000e+00
      4.767      0.055     1.6264     22.411     58.740  44.649343     1.5039      7.058    37.3084 1.2355e-01     8.6090      4.673      6.778    13.0116   999.4228 0.0000e+00
      4.779      0.063     1.6487     22.308     58.720  44.630920     1.3289      7.055    39.0622 1.2354e-01     9.3495      4.685      6.795    13.0080   999.4233 0.0000e+00
      4.798      0.073     1.6536     22.237     58.717  44.625100     0.9975      7.053    39.5746 1.2352e-01    10.6445      4.704      6.822    13.0052   999.4237 0.0000e+00
      4.823      0.083     1.6580     22.227     58.743  44.642471     0.8091      7.050    39.6323 1.2354e-01    11.3537      4.728      6.858    13.0033   999.4241 0.0000e+00
      4.848      0.093     1.6542     22.237     58.755  44.650449     0.7759      7.048    40.9647 1.2356e-01    11.5010      4.755      6.897    13.0032   999.4242 0.0000e+00
      4.872      0.098     1.6432     22.268     58.764  44.658057     0.7000      7.046    42.9507 1.2355e-01    11.9340      4.777      6.929    13.0001   999.4247 0.0000e+00
      4.897      0.097     1.6369     22.333     58.778  44.670955     0.5764      7.044    45.1464 1.2350e-01    12.6241      4.800      6.961    12.9964   999.4253 0.0000e+00
      4.925      0.093     1.6390     22.384     58.780  44.679405     0.5038      7.041    46.6047 1.2349e-01    12.9954      4.830      7.005    12.9947   999.4256 0.0000e+00
      4.952      0.088     1.6393     22.385     58.785  44.696728     0.4893      7.039    46.5597 1.2356e-01    13.0150      4.860      7.048    12.9933   999.4259 0.0000e+00
      4.973      0.082     1.6398     22.375     58.757  44.689928     0.4710      7.037    47.2693 1.2360e-01    13.0578      4.878      7.075    12.9938   999.4260 0.0000e+00
      4.991      0.075     1.6472     22.380     58.711  44.660696     0.4307      7.035    49.4195 1.2359e-01    13.1850      4.894      7.099    12.9955   999.4259 0.0000e+00
      5.008      0.068     1.6520     22.376     58.715  44.660801     0.4002      7.032    51.7359 1.2360e-01    13.2430      4.912      7.124    12.9997   999.4254 0.0000e+00
      5.024      0.062     1.6500     22.348     58.762  44.691186     0.3884      7.029    53.0789 1.2355e-01    13.2014      4.927      7.146    13.0135   999.4237 0.0000e+00
      5.040      0.058     1.6473     22.309     58.793  44.710572     0.4005      7.027    53.5258 1.2350e-01    13.1731      4.943      7.170    13.0300   999.4217 0.0000e+00
      5.055      0.056     1.6491     22.275     58.783  44.704688     0.4346      7.025    54.2148 1.2350e-01    13.1956      4.958      7.191    13.0334   999.4213 0.0000e+00
      5.067      0.054     1.6493     22.255     58.746  44.683555     0.4534      7.022    55.2995 1.2348e-01    13.2446      4.968      7.206    13.0288   999.4220 0.0000e+00
      5.079      0.053     1.6467     22.225     58.693  44.645560     0.4542      7.020    56.4883 1.2351e-01    13.2415      4.980      7.224    13.0235   999.4227 0.0000e+00
      5.092      0.053     1.6439     22.185     58.683  44.626295     0.4451      7.019    58.4365 1.2360e-01    13.1904      4.994      7.243    13.0187   999.4233 0.0000e+00
      5.107      0.053     1.6405     22.160     58.728  44.641102     0.4213      7.015    60.8723 1.2363e-01    13.2504      5.008      7.263    13.0194   999.4234 0.0000e+00
      5.121      0.052     1.6401     22.136     58.739  44.634076     0.3922      7.012    62.0206 1.2358e-01    13.3767      5.023      7.286    13.0288   999.4223 0.0000e+00
      5.135      0.049     1.6379     22.110     58.714  44.604826     0.3782      7.010    62.2539 1.2353e-01    13.4387      5.036      7.305    13.0360   999.4213 0.0000e+00
      5.149      0.048     1.6332     22.104     58.722  44.604930     0.3738      7.008    63.0911 1.2353e-01    13.4760      5.050      7.324    13.0226   999.4231 0.0000e+00
      5.160      0.051     1.6341     22.135     58.765  44.635315     0.3733      7.005    65.4321 1.2355e-01    13.4340      5.062      7.341    13.0016   999.4258 0.0000e+00
      5.168      0.058     1.6323     22.201     58.791  44.654712     0.3818      7.002    68.4456 1.2355e-01    13.2917      5.067      7.349    12.9882   999.4276 0.0000e+00
      5.178      0.069     1.6301     22.262     58.784  44.648952     0.3885      6.999    70.0156 1.2350e-01    13.2304      5.076      7.360    12.9799   999.4287 0.0000e+00
      5.195      0.082     1.6297     22.300     58.760  44.629175     0.3942      6.997    70.3048 1.2348e-01    13.2496      5.092      7.385    12.9755   999.4293 0.0000e+00
      5.221      0.093     1.6310     22.335     58.732  44.606086     0.3639      6.995    70.3938 1.2348e-01    13.1635      5.118      7.422    12.9743   999.4296 0.0000e+00
      5.251      0.099     1.6382     22.381     58.757  44.623782     0.2913      6.992    71.6938 1.2348e-01    13.0089      5.149      7.468    12.9744   999.4298 0.0000e+00
      5.284      0.100     1.6430     22.428     58.797  44.652632     0.2532      6.990    74.3213 1.2352e-01    12.9531      5.182      7.516    12.9743   999.4299 0.0000e+00
      5.314      0.095     1.6449     22.455     58.777  44.637408     0.2589      6.987    76.1797 1.2357e-01    12.9811      5.214      7.562    12.9735   999.4301 0.0000e+00
      5.338      0.088     1.6472     22.456     58.767  44.630206     0.2645      6.984    76.7834 1.2358e-01    13.0520      5.239      7.597    12.9717   999.4305 0.0000e+00
      5.353      0.079     1.6508     22.452     58.765  44.629060     0.2606      6.982    77.0608 1.2359e-01    13.1551      5.249      7.613    12.9698   999.4308 0.0000e+00
      5.367      0.070     1.6552     22.476     58.758  44.623551     0.2554      6.980    77.4686 1.2358e-01    13.2118      5.260      7.629    12.9685   999.4310 0.0000e+00
      5.385      0.064     1.6574     22.516     58.764  44.627098     0.2528      6.977    78.1001 1.2363e-01    13.2125      5.282      7.660    12.9682   999.4311 0.0000e+00
      5.405      0.062     1.6567     22.531     58.741  44.608439     0.2555      6.975    79.0174 1.2370e-01    13.1639      5.302      7.690    12.9692   999.4311 0.0000e+00
      5.420      0.064     1.6553     22.534     58.716  44.588454     0.2625      6.973    80.1278 1.2360e-01    13.0832      5.316      7.710    12.9704   999.4310 0.0000e+00
      5.432      0.068     1.6570     22.546     58.701  44.575954     0.2595      6.970    81.2008 1.2346e-01    13.0226      5.327      7.726    12.9699   999.4311 0.0000e+00
      5.445      0.072     1.6624     22.570     58.711  44.584289     0.2537      6.968    81.2364 1.2345e-01    12.9889      5.338      7.742    12.9681   999.4314 0.0000e+00
      5.464      0.078     1.6624     22.605     58.765  44.625738     0.2619      6.965    80.3861 1.2353e-01    12.9699      5.356      7.767    12.9670   999.4316 0.0000e+00
      5.488      0.083     1.6617     22.636     58.775  44.632612     0.2887      6.962    80.9011 1.2360e-01    12.9248      5.384      7.808    12.9663   999.4318 0.0000e+00
      5.513      0.086     1.6635     22.666     58.738  44.603901     0.3177      6.960    82.5586 1.2358e-01    12.8697      5.408      7.843    12.9657   999.4320 0.0000e+00
      5.537      0.087     1.6642     22.706     58.729  44.596095     0.3264      6.959    82.8743 1.2350e-01    12.8605      5.428      7.873    12.9658   999.4321 0.0000e+00
      5.561      0.086     1.6683     22.746     58.737  44.601721     0.3249      6.957    82.0515 1.2351e-01    12.8460      5.455      7.912    12.9664   999.4322 0.0000e+00
      5.582      0.084     1.6698     22.769     58.746  44.608432     0.3258      6.954    82.0743 1.2358e-01    12.8263      5.475      7.941    12.9660   999.4323 0.0000e+00
      5.599      0.081     1.6718     22.787     58.754  44.613732     0.3279      6.952    82.8926 1.2358e-01    12.8837      5.489      7.962    12.9649   999.4325 0.0000e+00
      5.619      0.076     1.6749     22.808     58.739  44.602298     0.3245      6.950    83.7716 1.2357e-01    12.9826      5.509      7.991    12.9643   999.4327 0.0000e+00
      5.642      0.071     1.6790     22.809     58.733  44.597198     0.3190      6.947    84.7856 1.2357e-01    13.0394      5.533      8.025    12.9642   999.4328 0.0000e+00
      5.662      0.067     1.6802     22.799     58.757  44.615562     0.3045      6.945    85.5174 1.2352e-01    12.9811      5.555      8.056    12.9641   999.4329 0.0000e+00
      5.677      0.067     1.6802     22.784     58.781  44.633840     0.2717      6.944    85.8224 1.2352e-01    12.8348      5.569      8.077    12.9637   999.4331 0.0000e+00
      5.688      0.071     1.6841     22.772     58.772  44.627699     0.2516      6.942    86.3221 1.2359e-01    12.7782      5.578      8.090    12.9632   999.4331 0.0000e+00
      5.701      0.078     1.6827     22.772     58.741  44.604809     0.2609      6.939    87.1711 1.2359e-01    12.8198      5.589      8.107    12.9628   999.4332 0.0000e+00
      5.720      0.087     1.6825     22.792     58.749  44.611064     0.2712      6.937    88.5159 1.2356e-01    12.8468      5.607      8.131    12.9630   999.4333 0.0000e+00
      5.746      0.093     1.6807     22.814     58.786  44.639829     0.2637      6.935    90.0206 1.2356e-01    12.8432      5.633      8.170    12.9637   999.4334 0.0000e+00
      5.779      0.096     1.6797     22.795     58.780  44.635102     0.2570      6.933    90.9093 1.2355e-01    12.8085      5.668      8.221    12.9638   999.4335 0.0000e+00
      5.811      0.094     1.6797     22.756     58.757  44.617416     0.2587      6.930    91.2593 1.2356e-01    12.7870      5.701      8.268    12.9639   999.4336 0.0000e+00
      5.836      0.089     1.6806     22.741     58.755  44.616479     0.2587      6.929    91.4138 1.2357e-01    12.8134      5.726      8.305    12.9642   999.4337 0.0000e+00
      5.854      0.082     1.6853     22.746     58.764  44.623774     0.2571      6.926    92.5186 1.2354e-01    12.8329      5.744      8.331    12.9648   999.4338 0.0000e+00
      5.868      0.073     1.6820     22.746     58.788  44.642120     0.2563      6.924    94.5511 1.2349e-01    12.8261      5.753      8.344    12.9651   999.4337 0.0000e+00
      5.883      0.067     1.6779     22.721     58.793  44.647800     0.2493      6.924    95.8555 1.2349e-01    12.8293      5.767      8.364    12.9645   999.4338 0.0000e+00
      5.903      0.063     1.6772     22.696     58.765  44.628959     0.2414      6.923    96.1585 1.2349e-01    12.9368      5.790      8.397    12.9650   999.4339 0.0000e+00
      5.922      0.061     1.6782     22.701     58.729  44.604819     0.2480      6.921    96.1496 1.2355e-01    13.1430      5.809      8.426    12.9654   999.4339 0.0000e+00
      5.936      0.060     1.6792     22.726     58.729  44.609928     0.2592      6.920    96.6946 1.2366e-01    13.2578      5.822      8.445    12.9652   999.4341 0.0000e+00
      5.949      0.056     1.6763     22.737     58.745  44.627233     0.2642      6.918    97.8441 1.2366e-01    13.2436      5.833      8.461    12.9674   999.4338 0.0000e+00
      5.962      0.051     1.6730     22.736     58.735  44.623554     0.2570      6.916    98.7769 1.2360e-01    13.2008      5.847      8.481    12.9693   999.4337 0.0000e+00
      5.976      0.048     1.6739     22.740     58.737  44.628947     0.2503      6.914    99.3688 1.2353e-01    13.1008      5.862      8.501    12.9711   999.4335 0.0000e+00
      5.989      0.046     1.6770     22.750     58.729  44.628956     0.2611      6.912    99.8381 1.2349e-01    12.9513      5.873      8.518    12.9764   999.4328 0.0000e+00
      6.000      0.043     1.6773     22.750     58.716  44.623666     0.2750      6.910    99.9773 1.2356e-01    12.8683      5.884      8.535    12.9817   999.4322 0.0000e+00
      6.009      0.039     1.6763     22.733     58.725  44.628491     0.2787      6.909   100.1060 1.2359e-01    12.8183      5.893      8.546    12.9840   999.4320 0.0000e+00
      6.019      0.037     1.6767     22.723     58.728  44.623781     0.2722      6.907   100.7054 1.2354e-01    12.7723      5.903      8.562    12.9857   999.4319 0.0000e+00
      6.028      0.035     1.6776     22.732     58.743  44.630218     0.2655      6.905   101.3737 1.2356e-01    12.7708      5.913      8.576    12.9924   999.4310 0.0000e+00
      6.036      0.035     1.6779     22.730     58.760  44.642803     0.2672      6.903   101.9062 1.2354e-01    12.7678      5.919      8.584    12.9993   999.4302 0.0000e+00
      6.044      0.036     1.6760     22.725     58.760  44.648953     0.2663      6.902   102.0666 1.2351e-01    12.7690      5.927      8.596    12.9963   999.4307 0.0000e+00
      6.054      0.040     1.6739     22.729     58.741  44.641085     0.2548      6.900   101.8505 1.2356e-01    12.8501      5.937      8.609    12.9882   999.4317 0.0000e+00
      6.064      0.046     1.6778     22.748     58.700  44.611174     0.2494      6.900   101.9615 1.2363e-01    12.9625      5.946      8.623    12.9829   999.4324 0.0000e+00
      6.074      0.053     1.6761     22.791     58.697  44.604806     0.2615      6.899   102.5479 1.2362e-01    13.0137      5.955      8.638    12.9828   999.4324 0.0000e+00
      6.087      0.060     1.6753     22.830     58.738  44.627584     0.2714      6.897   103.3487 1.2353e-01    13.0430      5.968      8.656    12.9891   999.4317 0.0000e+00
      6.105      0.066     1.6759     22.853     58.757  44.632570     0.2736      6.896   103.6422 1.2350e-01    13.1200      5.987      8.683    12.9966   999.4309 0.0000e+00
      6.125      0.072     1.6754     22.862     58.727  44.601585     0.2708      6.895   103.3425 1.2351e-01    13.2240      6.008      8.715    12.9984   999.4307 0.0000e+00
      6.145      0.077     1.6812     22.855     58.693  44.570427     0.2630      6.892   103.5110 1.2352e-01    13.2518      6.027      8.742    12.9934   999.4314 0.0000e+00
      6.164      0.081     1.6835     22.820     58.700  44.573333     0.2661      6.890   104.2166 1.2353e-01    13.2272      6.045      8.767    12.9857   999.4325 0.0000e+00
      6.184      0.082     1.6862     22.791     58.701  44.573219     0.2742      6.889   104.9906 1.2352e-01    13.1885      6.063      8.795    12.9774   999.4337 0.0000e+00
      6.207      0.081     1.6863     22.781     58.697  44.569054     0.2742      6.888   105.6418 1.2354e-01    13.1125      6.086      8.827    12.9699   999.4347 0.0000e+00
      6.231      0.076     1.6875     22.771     58.722  44.586476     0.2658      6.885   106.0681 1.2358e-01    13.0614      6.112      8.864    12.9655   999.4353 0.0000e+00
      6.251      0.068     1.6834     22.786     58.732  44.593360     0.2603      6.882   106.4446 1.2355e-01    13.0293      6.132      8.894    12.9638   999.4357 0.0000e+00
      6.269      0.056     1.6799     22.812     58.727  44.588790     0.2595      6.880   106.8387 1.2348e-01    12.9859      6.148      8.917    12.9632   999.4358 0.0000e+00
      6.284      0.042     1.6824     22.812     58.733  44.594724     0.2642      6.879   107.4782 1.2348e-01    12.9308      6.165      8.941    12.9623   999.4360 0.0000e+00
      6.293      0.030     1.6782     22.801     58.733  44.601599     0.2735      6.878   108.2390 1.2358e-01    12.8538      6.174      8.954    12.9613   999.4362 0.0000e+00
      6.294      0.020     1.6810     22.813     58.731  44.608422     0.2676      6.877   108.6383 1.2360e-01    12.8095      6.174      8.954    12.9599   999.4363 0.0000e+00
      6.294      0.015     1.6843     22.856     58.735  44.613731     0.2545      6.876   108.8657 1.2355e-01    12.7883      6.172      8.951    12.9597   999.4364 0.0000e+00
      6.294      0.015     1.6836     22.907     58.726  44.602291     0.2542      6.873   109.1810 1.2358e-01    12.7618      6.171      8.950    12.9598   999.4363 0.0000e+00
      6.297      0.020     1.6812     22.933     58.726  44.597097     0.2633      6.871   109.8688 1.2363e-01    12.7838      6.174      8.955    12.9648   999.4358 0.0000e+00
      6.304      0.029     1.6817     22.939     58.754  44.614420     0.2690      6.871   110.7291 1.2363e-01    12.8245      6.182      8.967    12.9764   999.4343 0.0000e+00
      6.312      0.039     1.6853     22.966     58.765  44.621248     0.2708      6.870   111.2376 1.2362e-01    12.8277      6.190      8.977    12.9783   999.4340 0.0000e+00
      6.322      0.044     1.6905     22.996     58.760  44.616157     0.2684      6.869   111.6293 1.2352e-01    12.7893      6.197      8.988    12.9715   999.4350 0.0000e+00
      6.337      0.044     1.6931     22.997     58.760  44.616356     0.2657      6.867   112.0232 1.2345e-01    12.7542      6.213      9.011    12.9665   999.4357 0.0000e+00
      6.356      0.043     1.6909     22.977     58.766  44.623651     0.2643      6.866   112.5590 1.2348e-01    12.7627      6.236      9.045    12.9634   999.4363 0.0000e+00
      6.370      0.043     1.6944     22.960     58.783  44.640861     0.2600      6.864   113.2034 1.2350e-01    12.7943      6.251      9.067    12.9621   999.4365 0.0000e+00
      6.375      0.045     1.6980     22.966     58.770  44.633947     0.2577      6.862   113.6195 1.2352e-01    12.8747      6.252      9.067    12.9613   999.4365 0.0000e+00
      6.377      0.050     1.6972     22.988     58.730  44.603561     0.2536      6.860   113.9756 1.2359e-01    12.9810      6.251      9.067    12.9614   999.4366 0.0000e+00
      6.386      0.057     1.6953     22.994     58.715  44.590956     0.2531      6.860   114.3259 1.2363e-01    13.0305      6.259      9.077    12.9640   999.4362 0.0000e+00
      6.404      0.068     1.6930     22.983     58.739  44.608548     0.2611      6.860   114.6718 1.2360e-01    13.0145      6.278      9.106    12.9679   999.4359 0.0000e+00
      6.429      0.080     1.6933     22.968     58.763  44.625759     0.2805      6.858   115.0605 1.2354e-01    12.9835      6.305      9.145    12.9715   999.4355 0.0000e+00
      6.453      0.089     1.6965     22.955     58.742  44.608548     0.3052      6.855   115.4115 1.2349e-01    12.9849      6.330      9.180    12.9710   999.4357 0.0000e+00
      6.478      0.092     1.6967     22.940     58.718  44.590957     0.3173      6.855   115.8187 1.2348e-01    12.9986      6.352      9.212    12.9685   999.4361 0.0000e+00
      6.503      0.091     1.6954     22.921     58.731  44.603562     0.3232      6.854   116.1975 1.2348e-01    13.0180      6.376      9.247    12.9689   999.4362 0.0000e+00
      6.528      0.087     1.6943     22.913     58.766  44.633957     0.3159      6.851   116.4638 1.2345e-01    13.1537      6.402      9.286    12.9688   999.4363 0.0000e+00
      6.550      0.083     1.6933     22.912     58.770  44.640965     0.2897      6.849   116.8018 1.2343e-01    13.3608      6.425      9.318    12.9662   999.4367 0.0000e+00
      6.569      0.082     1.6931     22.917     58.745  44.624796     0.2660      6.849   117.2724 1.2343e-01    13.4570      6.442      9.344    12.9660   999.4369 0.0000e+00
      6.588      0.084     1.6900     22.940     58.754  44.628961     0.2554      6.847   117.6796 1.2343e-01    13.4654      6.460      9.370    12.9693   999.4365 0.0000e+00
      6.606      0.087     1.6902     22.969     58.760  44.627816     0.2559      6.844   118.0263 1.2347e-01    13.4622      6.478      9.395    12.9719   999.4363 0.0000e+00
      6.626      0.088     1.6903     23.006     58.744  44.610953     0.2559      6.842   118.4527 1.2350e-01    13.4179      6.495      9.420    12.9763   999.4358 0.0000e+00
      6.653      0.087     1.6888     23.039     58.754  44.615567     0.2545      6.841   118.8776 1.2350e-01    13.3229      6.521      9.459    12.9810   999.4353 0.0000e+00
      6.683      0.084     1.6927     23.054     58.762  44.620094     0.2570      6.839   119.2917 1.2345e-01    13.2653      6.558      9.511    12.9779   999.4359 0.0000e+00
      6.708      0.081     1.6936     23.066     58.739  44.602190     0.2509      6.837   119.6743 1.2338e-01    13.2456      6.582      9.548    12.9710   999.4369 0.0000e+00
      6.722      0.077     1.6971     23.061     58.722  44.589585     0.2497      6.835   119.9761 1.2338e-01    13.1824      6.592      9.562    12.9667   999.4375 0.0000e+00
      6.734      0.070     1.7011     23.037     58.731  44.594685     0.2602      6.834   120.2727 1.2348e-01    13.0911      6.601      9.574    12.9643   999.4379 0.0000e+00
      6.750      0.064     1.7000     23.021     58.742  44.600350     0.2654      6.832   120.5940 1.2356e-01    13.0266      6.617      9.597    12.9632   999.4381 0.0000e+00
      6.771      0.061     1.7027     23.008     58.737  44.594582     0.2691      6.829   120.9346 1.2356e-01    12.9923      6.640      9.631    12.9635   999.4381 0.0000e+00
      6.791      0.061     1.7020     22.967     58.729  44.588440     0.2699      6.829   121.2942 1.2350e-01    12.9392      6.664      9.664    12.9636   999.4382 0.0000e+00
      6.803      0.063     1.6993     22.910     58.730  44.589585     0.2660      6.828   121.5870 1.2347e-01    12.8760      6.674      9.679    12.9622   999.4384 0.0000e+00
      6.813      0.066     1.6980     22.859     58.755  44.608425     0.2568      6.827   121.7209 1.2349e-01    12.8831      6.678      9.686    12.9599   999.4387 0.0000e+00
      6.826      0.070     1.6988     22.788     58.778  44.625744     0.2453      6.825   121.7945 1.2353e-01    12.8937      6.691      9.705    12.9582   999.4390 0.0000e+00
      6.846      0.075     1.6956     22.708     58.756  44.608477     0.2487      6.824   122.0468 1.2354e-01    12.8412      6.712      9.736    12.9578   999.4392 0.0000e+00
      6.870      0.082     1.6890     22.628     58.731  44.590157     0.2547      6.823   122.5338 1.2346e-01    12.8048      6.737      9.772    12.9579   999.4393 0.0000e+00
      6.894      0.086     1.6885     22.539     58.737  44.594736     0.2482      6.822   122.9516 1.2345e-01    12.7815      6.761      9.806    12.9581   999.4394 0.0000e+00
      6.917      0.085     1.6814     22.472     58.744  44.600344     0.2487      6.822   123.0540 1.2351e-01    12.7563      6.784      9.839    12.9579   999.4395 0.0000e+00
      6.941      0.082     1.6752     22.441     58.736  44.594458     0.2603      6.820   123.1695 1.2352e-01    12.7615      6.807      9.873    12.9582   999.4396 0.0000e+00
      6.962      0.079     1.6707     22.441     58.727  44.587067     0.2678      6.817   123.6602 1.2351e-01    12.7795      6.828      9.905    12.9587   999.4396 0.0000e+00
      6.979      0.079     1.6619     22.466     58.711  44.574473     0.2695      6.815   124.2554 1.2349e-01    12.7773      6.844      9.928    12.9587   999.4397 0.0000e+00
      6.994      0.080     1.6571     22.515     58.704  44.569183     0.2631      6.814   124.5147 1.2351e-01    12.7682      6.858      9.946    12.9587   999.4397 0.0000e+00
      7.013      0.083     1.6549     22.583     58.728  44.586612     0.2513      6.814   124.5579 1.2357e-01    12.7673      6.876      9.972    12.9584   999.4399 0.0000e+00
      7.036      0.087     1.6553     22.657     58.738  44.594697     0.2572      6.813   124.6922 1.2358e-01    12.7663      6.899     10.006    12.9582   999.4400 0.0000e+00
      7.062      0.091     1.6571     22.716     58.749  44.603440     0.2745      6.811   124.8477 1.2356e-01    12.7566      6.925     10.044    12.9579   999.4402 0.0000e+00
      7.088      0.093     1.6607     22.743     58.781  44.628830     0.2777      6.809   125.0614 1.2351e-01    12.7477      6.951     10.083    12.9577   999.4403 0.0000e+00
      7.113      0.089     1.6664     22.773     58.805  44.647680     0.2698      6.808   125.5556 1.2349e-01    12.7572      6.977     10.119    12.9579   999.4404 0.0000e+00
      7.137      0.081     1.6719     22.817     58.795  44.640854     0.2566      6.807   126.0908 1.2347e-01    12.7736      6.999     10.152    12.9578   999.4405 0.0000e+00
      7.158      0.071     1.6776     22.796     58.751  44.609800     0.2482      6.805   126.3702 1.2348e-01    12.7821      7.021     10.184    12.9582   999.4406 0.0000e+00
      7.176      0.062     1.6782     22.691     58.721  44.589710     0.2559      6.803   126.5245 1.2354e-01    12.7610      7.040     10.210    12.9582   999.4407 0.0000e+00
      7.187      0.055     1.6784     22.540     58.715  44.588452     0.2624      6.802   126.5804 1.2355e-01    12.7479      7.049     10.223    12.9584   999.4407 0.0000e+00
      7.196      0.052     1.6863     22.362     58.717  44.594591     0.2584      6.801   126.9590 1.2355e-01    12.8202      7.056     10.234    12.9600   999.4405 0.0000e+00
      7.205      0.054     1.6844     22.186     58.718  44.600444     0.2590      6.800   127.8325 1.2357e-01    12.9466      7.065     10.247    12.9612   999.4404 0.0000e+00
      7.218      0.061     1.6746     22.033     58.708  44.595715     0.2691      6.799   128.5389 1.2357e-01    13.0314      7.078     10.265    12.9637   999.4401 0.0000e+00
      7.234      0.072     1.6640     21.913     58.717  44.600920     0.2762      6.798   128.8753 1.2357e-01    13.0594      7.095     10.290    12.9672   999.4398 0.0000e+00
      7.253      0.083     1.6492     21.833     58.723  44.599871     0.2676      6.797   128.9739 1.2354e-01    13.0555      7.110     10.313    12.9705   999.4395 0.0000e+00
      7.277      0.093     1.6358     21.797     58.709  44.583026     0.2520      6.796   129.3012 1.2351e-01    13.0166      7.133     10.346    12.9757   999.4389 0.0000e+00
      7.306      0.098     1.6239     21.797     58.722  44.587746     0.2435      6.794   129.9928 1.2350e-01    12.9830      7.166     10.394    12.9794   999.4385 0.0000e+00
      7.336      0.099     1.6153     21.817     58.735  44.593427     0.2425      6.792   130.5390 1.2349e-01    13.0094      7.195     10.435    12.9772   999.4390 0.0000e+00
      7.362      0.094     1.6094     21.851     58.731  44.588213     0.2483      6.791   130.8291 1.2350e-01    13.0405      7.220     10.472    12.9718   999.4398 0.0000e+00
      7.387      0.084     1.6069     21.886     58.734  44.588203     0.2533      6.789   130.9192 1.2358e-01    12.9982      7.245     10.508    12.9663   999.4406 0.0000e+00
      7.409      0.072     1.6079     21.916     58.743  44.593303     0.2513      6.786   130.9399 1.2361e-01    12.9568      7.268     10.541    12.9616   999.4413 0.0000e+00
      7.425      0.061     1.6093     21.937     58.735  44.586373     0.2503      6.785   131.0796 1.2351e-01    12.9671      7.284     10.565    12.9579   999.4419 0.0000e+00
      7.436      0.054     1.6125     21.952     58.710  44.567914     0.2574      6.785   131.3171 1.2343e-01    12.9921      7.293     10.577    12.9559   999.4421 0.0000e+00
      7.445      0.052     1.6151     21.966     58.699  44.560619     0.2683      6.785   131.5748 1.2343e-01    13.0296      7.300     10.588    12.9544   999.4424 0.0000e+00
      7.454      0.054     1.6175     21.963     58.699  44.561669     0.2698      6.784   131.8726 1.2342e-01    13.0587      7.308     10.600    12.9530   999.4426 0.0000e+00
      7.467      0.061     1.6193     21.938     58.723  44.580605     0.2670      6.783   131.9065 1.2344e-01    13.0489      7.320     10.618    12.9529   999.4426 0.0000e+00
      7.483      0.071     1.6196     21.924     58.748  44.599072     0.2685      6.781   131.7265 1.2353e-01    13.0098      7.338     10.642    12.9530   999.4427 0.0000e+00
      7.503      0.080     1.6214     21.931     58.743  44.594458     0.2799      6.780   132.1052 1.2357e-01    12.9463      7.357     10.671    12.9538   999.4427 0.0000e+00
      7.528      0.085     1.6218     21.935     58.736  44.588308     0.3089      6.780   132.7855 1.2352e-01    12.8717      7.381     10.706    12.9549   999.4427 0.0000e+00
      7.554      0.088     1.6182     21.935     58.737  44.588214     0.3324      6.780   133.0694 1.2351e-01    12.8287      7.409     10.746    12.9550   999.4428 0.0000e+00
      7.579      0.090     1.6167     21.930     58.745  44.593315     0.3299      6.779   133.0427 1.2354e-01    12.8189      7.434     10.782    12.9544   999.4430 0.0000e+00
      7.599      0.091     1.6191     21.932     58.736  44.586489     0.3052      6.776   132.9791 1.2354e-01    12.9177      7.453     10.810    12.9540   999.4431 0.0000e+00
      7.619      0.090     1.6184     21.926     58.712  44.569175     0.2847      6.775   133.0736 1.2349e-01    13.1385      7.470     10.834    12.9537   999.4432 0.0000e+00
      7.642      0.089     1.6192     21.895     58.717  44.574475     0.2819      6.774   133.4117 1.2341e-01    13.2927      7.492     10.866    12.9526   999.4435 0.0000e+00
      7.668      0.088     1.6177     21.873     58.732  44.587070     0.2714      6.772   133.8836 1.2343e-01    13.3074      7.520     10.908    12.9522   999.4437 0.0000e+00
      7.694      0.087     1.6183     21.854     58.742  44.594460     0.2534      6.772   134.1328 1.2348e-01    13.2837      7.548     10.947    12.9521   999.4438 0.0000e+00
      7.715      0.084     1.6199     21.828     58.750  44.600336     0.2463      6.771   134.1023 1.2344e-01    13.3005      7.567     10.975    12.9527   999.4438 0.0000e+00
      7.734      0.080     1.6145     21.816     58.743  44.594615     0.2544      6.769   134.0313 1.2341e-01    13.3137      7.583     10.999    12.9539   999.4438 0.0000e+00
      7.753      0.073     1.6142     21.814     58.735  44.588787     0.2650      6.767   134.1348 1.2346e-01    13.2793      7.603     11.027    12.9552   999.4437 0.0000e+00
      7.773      0.067     1.6133     21.810     58.742  44.593368     0.2709      6.765   134.6649 1.2354e-01    13.1470      7.624     11.057    12.9555   999.4437 0.0000e+00
      7.791      0.065     1.6099     21.828     58.732  44.586494     0.2737      6.765   135.2788 1.2356e-01    12.9269      7.641     11.083    12.9544   999.4440 0.0000e+00
      7.806      0.068     1.6095     21.854     58.708  44.569175     0.2642      6.764   135.6206 1.2356e-01    12.7810      7.656     11.104    12.9543   999.4441 0.0000e+00
      7.817      0.074     1.6105     21.866     58.715  44.574475     0.2595      6.762   135.7856 1.2356e-01    12.7595      7.666     11.119    12.9548   999.4440 0.0000e+00
      7.830      0.082     1.6082     21.887     58.733  44.587069     0.2687      6.761   135.8107 1.2356e-01    12.7984      7.674     11.131    12.9540   999.4442 0.0000e+00
      7.852      0.089     1.6104     21.907     58.744  44.594449     0.2720      6.761   136.2683 1.2351e-01    12.9234      7.696     11.162    12.9537   999.4443 0.0000e+00
      7.884      0.095     1.6139     21.908     58.752  44.600209     0.2643      6.759   137.1890 1.2347e-01    13.1243      7.732     11.214    12.9554   999.4442 0.0000e+00
      7.916      0.098     1.6123     21.906     58.742  44.593201     0.2537      6.757   137.7365 1.2345e-01    13.2274      7.766     11.263    12.9555   999.4444 0.0000e+00
      7.943      0.098     1.6151     21.916     58.714  44.573216     0.2567      6.756   137.8116 1.2346e-01    13.2197      7.791     11.300    12.9542   999.4447 0.0000e+00
      7.965      0.094     1.6174     21.926     58.682  44.549075     0.2563      6.755   137.7532 1.2350e-01    13.0962      7.812     11.331    12.9537   999.4449 0.0000e+00
      7.985      0.091     1.6169     21.925     58.691  44.555311     0.2319      6.753   138.0625 1.2354e-01    12.8818      7.831     11.358    12.9530   999.4451 0.0000e+00
      8.004      0.093     1.6159     21.917     58.731  44.585106     0.2051      6.752   138.7986 1.2355e-01    12.7909      7.848     11.383    12.9534   999.4451 0.0000e+00
      8.025      0.099     1.6171     21.902     58.741  44.591829     0.1920      6.752   139.3396 1.2347e-01    12.7836      7.868     11.412    12.9551   999.4449 0.0000e+00
      8.050      0.105     1.6187     21.882     58.717  44.573092     0.2128      6.751   139.6135 1.2341e-01    12.8262      7.893     11.448    12.9552   999.4450 0.0000e+00
      8.081      0.106     1.6178     21.866     58.687  44.549066     0.2572      6.750   139.8740 1.2348e-01    12.9455      7.922     11.489    12.9541   999.4453 0.0000e+00
      8.116      0.102     1.6177     21.868     58.696  44.555323     0.2778      6.748   139.9073 1.2361e-01    13.0130      7.959     11.544    12.9537   999.4456 0.0000e+00
      8.150      0.094     1.6163     21.890     58.736  44.585243     0.2710      6.747   139.8436 1.2361e-01    13.0196      7.998     11.599    12.9533   999.4458 0.0000e+00
      8.172      0.085     1.6147     21.894     58.745  44.593319     0.2449      6.745   140.2230 1.2354e-01    13.1569      8.019     11.630    12.9524   999.4460 0.0000e+00
      8.185      0.078     1.6135     21.882     58.734  44.589476     0.2132      6.743   140.7088 1.2352e-01    13.4601      8.027     11.642    12.9516   999.4461 0.0000e+00
      8.195      0.073     1.6124     21.883     58.745  44.602289     0.2080      6.741   140.8993 1.2349e-01    13.6711      8.036     11.655    12.9510   999.4462 0.0000e+00
      8.210      0.073     1.6168     21.899     58.770  44.621246     0.2172      6.741   140.7193 1.2349e-01    13.7088      8.048     11.673    12.9506   999.4464 0.0000e+00
      8.231      0.077     1.6163     21.915     58.785  44.628179     0.2112      6.741   140.3396 1.2353e-01    13.4899      8.068     11.703    12.9503   999.4465 0.0000e+00
      8.257      0.081     1.6139     21.903     58.781  44.622612     0.1965      6.740   140.3524 1.2353e-01    13.0561      8.098     11.744    12.9550   999.4461 0.0000e+00
      8.282      0.083     1.6144     21.873     58.776  44.617426     0.1955      6.739   140.8736 1.2349e-01    12.8224      8.124     11.783    12.9618   999.4452 0.0000e+00
      8.303      0.082     1.6152     21.844     58.791  44.628971     0.2079      6.739   141.5651 1.2350e-01    12.8268      8.143     11.810    12.9605   999.4455 0.0000e+00
      8.322      0.082     1.6187     21.811     58.801  44.635207     0.2157      6.738   141.5720 1.2353e-01    12.9125      8.162     11.838    12.9551   999.4464 0.0000e+00
      8.340      0.084     1.6168     21.776     58.795  44.629325     0.2126      6.738   140.9567 1.2353e-01    13.0074      8.178     11.862    12.9524   999.4467 0.0000e+00
      8.357      0.090     1.6137     21.732     58.786  44.621354     0.2048      6.738   140.8370 1.2355e-01    12.9906      8.193     11.883    12.9528   999.4468 0.0000e+00
      8.379      0.098     1.6125     21.684     58.762  44.602323     0.2081      6.739   141.2425 1.2360e-01    12.9716      8.215     11.914    12.9531   999.4469 0.0000e+00
      8.406      0.108     1.6094     21.663     58.745  44.589720     0.2182      6.736   141.7297 1.2364e-01    13.0077      8.241     11.953    12.9515   999.4472 0.0000e+00
      8.438      0.119     1.6073     21.662     58.753  44.595965     0.2141      6.731   142.0819 1.2358e-01    13.0337      8.273     12.000    12.9501   999.4475 0.0000e+00
      8.472      0.129     1.6046     21.653     58.777  44.614328     0.2019      6.729   142.1458 1.2347e-01    13.0558      8.310     12.052    12.9492   999.4478 0.0000e+00
      8.505      0.137     1.5990     21.639     58.786  44.621241     0.2008      6.728   141.9862 1.2349e-01    13.0455      8.341     12.098    12.9485   999.4480 0.0000e+00
      8.538      0.140     1.5981     21.638     58.779  44.616054     0.2083      6.728   141.8728 1.2355e-01    13.0413      8.370     12.141    12.9481   999.4482 0.0000e+00
      8.576      0.139     1.5993     21.655     58.777  44.615108     0.2243      6.731   142.0662 1.2354e-01    13.0702      8.408     12.195    12.9483   999.4484 0.0000e+00
      8.618      0.135     1.5980     21.680     58.767  44.609808     0.2554      6.737   142.7755 1.2351e-01    13.0668      8.453     12.260    12.9493   999.4485 0.0000e+00
      8.657      0.128     1.5967     21.699     58.770  44.615473     0.2723      6.742   143.5655 1.2351e-01    13.0338      8.493     12.318    12.9496   999.4486 0.0000e+00
      8.687      0.118     1.5962     21.708     58.772  44.620106     0.2642      6.744   143.7011 1.2354e-01    13.0309      8.521     12.359    12.9491   999.4488 0.0000e+00
      8.713      0.107     1.5981     21.710     58.747  44.602324     0.2617      6.744   143.5554 1.2356e-01    13.0973      8.544     12.393    12.9493   999.4489 0.0000e+00
      8.737      0.097     1.6002     21.701     58.732  44.590978     0.2680      6.742   143.5244 1.2356e-01    13.2142      8.569     12.428    12.9515   999.4487 0.0000e+00
      8.759      0.091     1.6017     21.687     58.758  44.609922     0.2703      6.736   143.9284 1.2356e-01    13.2974      8.589     12.458    12.9551   999.4484 0.0000e+00
      8.780      0.089     1.6018     21.678     58.801  44.640876     0.2635      6.716   144.9131 1.2357e-01    13.2834      8.610     12.488    12.9571   999.4482 0.0000e+00
      8.802      0.089     1.6022     21.663     58.813  44.647741     0.2385      6.693   145.7076 1.2359e-01    13.1767      8.632     12.519    12.9582   999.4482 0.0000e+00
      8.824      0.089     1.6017     21.643     58.792  44.629421     0.2098      6.690   145.8771 1.2357e-01    13.0557      8.653     12.550    12.9585   999.4482 0.0000e+00
      8.848      0.089     1.5995     21.633     58.768  44.609862     0.2032      6.700   146.1027 1.2355e-01    13.0006      8.676     12.584    12.9574   999.4485 0.0000e+00
      8.872      0.094     1.6002     21.623     58.758  44.601748     0.2020      6.707   146.8868 1.2352e-01    13.0025      8.702     12.620    12.9565   999.4487 0.0000e+00
      8.894      0.101     1.5987     21.608     58.750  44.594821     0.1951      6.710   147.4420 1.2345e-01    13.0128      8.723     12.651    12.9544   999.4491 0.0000e+00
      8.915      0.110     1.5967     21.596     58.745  44.589607     0.1973      6.711   147.4802 1.2343e-01    13.0265      8.740     12.676    12.9519   999.4495 0.0000e+00
      8.941      0.116     1.5964     21.584     58.762  44.602202     0.2036      6.711   147.4356 1.2346e-01    13.0698      8.765     12.713    12.9511   999.4497 0.0000e+00
      8.977      0.121     1.5960     21.567     58.786  44.620097     0.2012      6.711   147.2463 1.2349e-01    13.1100      8.803     12.768    12.9511   999.4499 0.0000e+00
      9.017      0.123     1.5945     21.572     58.781  44.615476     0.1949      6.712   147.0838 1.2349e-01    13.0872      8.844     12.828    12.9504   999.4502 0.0000e+00
      9.052      0.121     1.5936     21.592     58.774  44.609822     0.2054      6.712   147.2775 1.2348e-01    12.9907      8.880     12.879    12.9491   999.4505 0.0000e+00
      9.082      0.116     1.5937     21.590     58.781  44.615236     0.2324      6.710   147.6100 1.2347e-01    12.8928      8.908     12.919    12.9484   999.4507 0.0000e+00
      9.107      0.108     1.5906     21.582     58.784  44.617441     0.2528      6.707   147.8348 1.2351e-01    12.8539      8.931     12.953    12.9480   999.4509 0.0000e+00
      9.131      0.099     1.5912     21.582     58.809  44.636481     0.2615      6.706   147.5008 1.2355e-01    12.8479      8.955     12.987    12.9477   999.4510 0.0000e+00
      9.156      0.091     1.5951     21.585     58.834  44.654948     0.2681      6.706   146.7550 1.2353e-01    12.8855      8.978     13.021    12.9475   999.4511 0.0000e+00
      9.180      0.084     1.5932     21.595     58.829  44.650221     0.2720      6.706   146.6465 1.2351e-01    12.9493      9.004     13.058    12.9474   999.4513 0.0000e+00
      9.202      0.076     1.5926     21.607     58.820  44.642821     0.2651      6.704   147.1356 1.2350e-01    12.9633      9.026     13.091    12.9472   999.4514 0.0000e+00
      9.221      0.067     1.5932     21.623     58.803  44.628978     0.2624      6.701   147.5924 1.2346e-01    12.9900      9.043     13.116    12.9470   999.4516 0.0000e+00
      9.237      0.059     1.5927     21.634     58.778  44.609838     0.2565      6.700   147.6099 1.2345e-01    13.0424      9.060     13.140    12.9467   999.4517 0.0000e+00
      9.249      0.053     1.5941     21.618     58.768  44.601912     0.2294      6.700   147.2604 1.2346e-01    13.0404      9.073     13.158    12.9462   999.4518 0.0000e+00
      9.257      0.048     1.5945     21.580     58.761  44.596636     0.2033      6.699   147.0665 1.2350e-01    13.0306      9.077     13.166    12.9456   999.4519 0.0000e+00
      9.267      0.046     1.5960     21.547     58.778  44.609546     0.1918      6.698   147.0720 1.2354e-01    13.0217      9.086     13.178    12.9446   999.4521 0.0000e+00
      9.281      0.050     1.5977     21.512     59.058  44.821516     0.2121      6.698   146.9825 1.2356e-01    13.0642      9.103     13.202    12.9439   999.4521 0.0000e+00
      9.294      0.059     1.5966     21.489     60.717  46.080031     0.2490      6.697   146.4155 1.2353e-01    13.1837      9.116     13.221    12.9440   999.4525 0.0000e+00
      9.305      0.071     1.5919     21.494     67.287  51.062519     0.2654      6.696   145.3783 1.2349e-01    13.2874      9.123     13.231    12.9442   999.4519 0.0000e+00
      9.320      0.084     1.5909     21.492    115.512  87.663474     0.2799      6.694   144.2500 1.2345e-01    13.3346      9.136     13.250    12.9439   999.4528 0.0000e+00
      9.345      0.094     1.5878     21.467    227.478 172.719408     0.3468      6.690   143.2697 1.2345e-01    13.3615      9.162     13.287    12.9441   999.4516 0.0000e+00
      9.377      0.099     1.5843     21.383    334.846 254.516082     0.4590      6.685   142.5600 1.2348e-01    13.4489      9.194     13.335    12.9441   999.4542 0.0000e+00
      9.411      0.098     1.5874     21.065    386.883 294.577961     0.5178      6.680   142.3806 1.2350e-01    13.5064      9.229     13.386    12.9413   999.4524 0.0000e+00
      9.441      0.090     1.5872     20.265    407.006 310.539551     0.5114      6.674   142.9068 1.2352e-01    13.4993      9.261     13.433    12.9360   999.4596 0.0000e+00
      9.462      0.075     1.5836     18.755    418.952 320.323127     0.4419      6.662   143.7608 1.2357e-01    13.4618      9.283     13.464    12.9395   999.5173 0.0000e+00
      9.476      0.060     1.5814     16.410    429.497 329.028066     0.3198      6.632   144.1888 1.2359e-01    13.3471      9.294     13.480    12.9815   999.5602 0.0000e+00
      9.486      0.046     1.5617     13.280    436.824 335.191927     0.2573      6.572   143.7791 1.2350e-01    13.2599      9.303     13.493    13.0616   999.5609 0.0000e+00
      9.493      0.036     1.5060      9.579    434.603 333.935848     0.2587      6.499   142.9368 1.2345e-01    13.2597      9.309     13.503    13.1446   999.5565 0.0000e+00
      9.499      0.031     1.3970      5.708    428.291 329.478937     0.2676      6.443   142.0925 1.2350e-01    13.3120      9.315     13.510    13.2254   999.5494 0.0000e+00
      9.506      0.029     1.2205      2.163    428.158 329.728100     0.2773      6.413   141.0564 1.2355e-01    13.3999      9.322     13.521    13.3044   999.5436 0.0000e+00
      9.514      0.028     0.9859     -0.699    427.542 329.553978     0.2807      6.403   139.9596 1.2354e-01    13.4709      9.330     13.532    13.3678   999.5394 0.0000e+00
      9.523      0.027     0.7038     -2.763    422.561 325.963732     0.2743      6.403   139.2415 1.2355e-01    13.5152      9.339     13.545    13.4177   999.5322 0.0000e+00
      9.531      0.025     0.4069     -3.985    402.586 310.723802     0.2697      6.410   138.3967 1.2358e-01    13.5091      9.347     13.557    13.4631   999.5191 0.0000e+00
      9.537      0.022     0.1378     -4.409    371.453 286.799821     0.2772      6.420   137.3165 1.2357e-01    13.4296      9.353     13.566    13.5037   999.5184 0.0000e+00
      9.541      0.018    -0.0707     -4.249    363.384 280.643747     0.2864      6.431   136.7636 1.2354e-01    13.3402      9.357     13.571    13.5394   999.5112 0.0000e+00
      9.544      0.015    -0.2222     -3.743    382.389 295.381987     0.2773      6.441   136.6161 1.2354e-01    13.2805      9.360     13.575    13.5701   999.5075 0.0000e+00
      9.547      0.013    -0.3118     -3.102    406.257 313.879890     0.2450      6.451   136.2218 1.2350e-01    13.2980      9.362     13.580    13.5915   999.5001 0.0000e+00
      9.551      0.011    -0.3343     -2.471    417.747 322.819982     0.2164      6.461   135.6091 1.2347e-01    13.3883      9.366     13.585    13.6039   999.4758 0.0000e+00
      9.553      0.010    -0.3177     -1.886    418.585 323.527457     0.2090      6.471   134.9732 1.2351e-01    13.4552      9.368     13.587    13.6125   999.4742 0.0000e+00
      9.555      0.009    -0.2749     -1.351    418.440 323.463920     0.2070      6.481   134.2115 1.2356e-01    13.4835      9.370     13.590    13.6197   999.4832 0.0000e+00
      9.558      0.008    -0.2239     -0.886    418.733 323.725496     0.2095      6.489   133.9709 1.2358e-01    13.4024      9.373     13.594    13.6270   999.4946 0.0000e+00
      9.560      0.007    -0.1783     -0.496    419.278 324.179638     0.2140      6.496   134.2150 1.2357e-01    13.2283      9.375     13.597    13.6351   999.4971 0.0000e+00
      9.561      0.006    -0.1358     -0.186    419.407 324.320085     0.2093      6.504   133.7218 1.2352e-01    13.1159      9.377     13.600    13.6425   999.4939 0.0000e+00
      9.563      0.006    -0.0961      0.069    419.366 324.329357     0.2046      6.513   132.7394 1.2349e-01    13.0596      9.378     13.602    13.6486   999.4941 0.0000e+00
      9.564      0.006    -0.0625      0.303    419.612 324.549297     0.2004      6.523   132.6613 1.2348e-01    13.0382      9.379     13.602    13.6521   999.4929 0.0000e+00
      9.565      0.006    -0.0338      0.486    419.734 324.661896     0.1931      6.532   133.2941 1.2345e-01    13.0871      9.380     13.605    13.6553   999.4934 0.0000e+00
      9.566      0.007    -0.0115      0.602    419.216 324.274536     0.1942      6.542   133.1637 1.2344e-01    13.1919      9.381     13.606    13.6608   999.4924 0.0000e+00
      9.567      0.008     0.0044      0.687    418.406 323.663851     0.2059      6.551   132.4614 1.2348e-01    13.2896      9.382     13.608    13.6664   999.4917 0.0000e+00
      9.570      0.008     0.0237      0.755    417.946 323.329266     0.2393      6.561   132.2877 1.2351e-01    13.4819      9.385     13.612    13.6699   999.4913 0.0000e+00
      9.573      0.007     0.0375      0.800    418.150 323.512102     0.2935      6.569   132.6112 1.2353e-01    13.7797      9.388     13.616    13.6715   999.4913 0.0000e+00
      9.576      0.007     0.0439      0.820    419.086 324.265221     0.3236      6.576   132.5015 1.2354e-01    13.9410      9.391     13.620    13.6728   999.4908 0.0000e+00
      9.578      0.006     0.0503      0.825    419.868 324.903461     0.3260      6.585   131.4777 1.2356e-01    13.9569      9.393     13.623    13.6746   999.4902 0.0000e+00
      9.578      0.006     0.0553      0.848    415.841 321.830256     0.3223      6.595   130.2131 1.2355e-01    13.9723      9.393     13.623    13.6772   999.4898 0.0000e+00
      9.578      0.006     0.0585      0.899    395.109 305.835971     0.3141      6.605   129.4291 1.2349e-01    14.1278      9.392     13.622    13.6804   999.4892 0.0000e+00
      9.579      0.006     0.0602      0.925    359.007 277.941316     0.3127      6.614   129.5701 1.2351e-01    14.4275      9.394     13.624    13.6838   999.4894 0.0000e+00
      9.581      0.007     0.0596      0.927    335.775 260.003171     0.3320      6.624   130.1972 1.2359e-01    14.7772      9.396     13.628    13.6875   999.4892 0.0000e+00
      9.584      0.009     0.0597      0.943    347.330 268.997372     0.4441      6.634   130.0419 1.2360e-01    16.7503      9.399     13.633    13.6925   999.4893 0.0000e+00
      9.587      0.011     0.0666      0.950    376.407 291.560567     0.6278      6.644   128.6386 1.2359e-01    20.3256      9.402     13.636    13.6997   999.4818 0.0000e+00
      9.589      0.012     0.0683      0.945    375.162 290.636004     0.7149      6.653   126.4803 1.2354e-01    22.2510      9.404     13.639    13.7073   999.4611 0.0000e+00
      9.592      0.012     0.0656      0.938    336.993 261.104727     0.7160      6.662   124.0790 1.2347e-01    22.3332      9.406     13.642    13.7139   999.4482 0.0000e+00
      9.596      0.011     0.0692      0.920    308.096 238.753337     0.6855      6.669   114.7483 1.2343e-01    21.6142      9.410     13.648    13.7202   999.4530 0.0000e+00
      9.601      0.010     0.0693      0.909    302.702 234.609277     0.6142      6.676    95.9172 1.2342e-01    20.3089      9.416     13.657    13.7259   999.4732 0.0000e+00
      9.604      0.010     0.0680      0.913    303.391 235.175407     0.5732      6.682    81.3779 1.2347e-01    19.6259      9.419     13.661    13.7318   999.4748 0.0000e+00
      9.605      0.010     0.0689      0.917    303.671 235.407775     0.5712      6.685    77.5638 1.2355e-01    19.5829      9.420     13.662    13.7375   999.4470 0.0000e+00
      9.605 -9.990e-29     0.0663 -9.990e-29 -9.990e-29 -9.990e-29 -9.990e-29 -9.990e-29 -9.990e-29 1.2354e-01 -9.990e-29      9.418     13.660    13.7436   999.4354 0.0000e+00
      9.607 -9.990e-29     0.0653 -9.990e-29 -9.990e-29 -9.990e-29 -9.990e-29 -9.990e-29 -9.990e-29 1.2353e-01 -9.990e-29      9.421     13.664    13.7490   999.4372 0.0000e+00
      9.611 -9.990e-29     0.0664 -9.990e-29 -9.990e-29 -9.990e-29 -9.990e-29 -9.990e-29 -9.990e-29 1.2358e-01 -9.990e-29      9.426     13.670    13.7552   999.4359 0.0000e+00
      9.612 -9.990e-29     0.0666 -9.990e-29 -9.990e-29 -9.990e-29 -9.990e-29 -9.990e-29 -9.990e-29 1.2360e-01 -9.990e-29      9.427     13.672    13.7596   999.4361 0.0000e+00
