* Sea-Bird SBE19plus  Data File:
* FileName = C:\DATA\101619_fcr50_0002.hex
* Software version 2.8.0.119 SB_Terminal.dll
* Temperature SN = 7809
* Conductivity SN = 7809
* System UpLoad Time = Oct 16 2019 16:52:49
* <ApplicationData>
* <Seaterm232>
* <SoftwareVersion>2.8.0.119</SoftwareVersion>
* <BuildDate>07-Nov-2018</BuildDate>
* </Seaterm232>
* </ApplicationData>
* cast   2 16 Oct 2019 11:42:42 samples 414 to 851, avg = 1, stop = mag switch
# nquan = 16
# nvalues = 372                         
# units = specified
# name 0 = depFM: Depth [fresh water, m]
# name 1 = dz/dtM: Descent Rate [m/s]
# name 2 = sbeox0ML/L: Oxygen, SBE 43 [ml/l]
# name 3 = sbeox0PS: Oxygen, SBE 43 [% saturation]
# name 4 = specc: Specific Conductance [uS/cm]
# name 5 = c0uS/cm: Conductivity [uS/cm]
# name 6 = flECO-AFL: Fluorescence, WET Labs ECO-AFL/FL [mg/m^3]
# name 7 = ph: pH
# name 8 = orp: Oxidation Reduction Potential [mV]
# name 9 = par/sat/log: PAR/Logarithmic, Satlantic
# name 10 = turbWETntu0: Turbidity, WET Labs ECO [NTU]
# name 11 = prdM: Pressure, Strain Gauge [db]
# name 12 = prdE: Pressure, Strain Gauge [psi]
# name 13 = tv290C: Temperature [ITS-90, deg C]
# name 14 = density00: Density [density, kg/m^3]
# name 15 = flag:  0.000e+00
# span 0 =     -0.387,      3.048       
# span 1 =     -0.096,      0.187       
# span 2 =     3.7898,     6.6718       
# span 3 =     56.192,     98.708       
# span 4 =     40.035,     40.788       
# span 5 =  33.777460,  34.244969       
# span 6 =     1.4892,     3.0716       
# span 7 =      7.080,      8.216       
# span 8 =   247.3644,   277.1245       
# span 9 = 2.3062e-01, 4.5625e+02       
# span 10 =     6.9415,    11.7033      
# span 11 =     -0.393,      2.990      
# span 12 =     -0.570,      4.337      
# span 13 =    16.7753,    17.3135      
# span 14 =   998.7390,   998.8469      
# span 15 = 0.0000e+00, 0.0000e+00      
# interval = seconds: 0.25
# start_time = Oct 16 2019 11:42:42 [Instrument's time stamp, header]
# bad_flag = -9.990e-29
# <Sensors count="9" >
#   <sensor Channel="1" >
#     <!-- Count, Temperature -->
#     <TemperatureSensor SensorID="58" >
#       <SerialNumber>7809</SerialNumber>
#       <CalibrationDate>24-Mar-19</CalibrationDate>
#       <A0>1.21792325e-003</A0>
#       <A1>2.81669265e-004</A1>
#       <A2>-1.60333336e-006</A2>
#       <A3>1.98414625e-007</A3>
#       <Slope>1.00000000</Slope>
#       <Offset>0.0000</Offset>
#     </TemperatureSensor>
#   </sensor>
#   <sensor Channel="2" >
#     <!-- Frequency 0, Conductivity -->
#     <ConductivitySensor SensorID="3" >
#       <SerialNumber>7809</SerialNumber>
#       <CalibrationDate>24-Mar-19</CalibrationDate>
#       <UseG_J>1</UseG_J>
#       <!-- Cell const and series R are applicable only for wide range sensors. -->
#       <SeriesR>0.0000</SeriesR>
#       <CellConst>2000.0000</CellConst>
#       <ConductivityType>0</ConductivityType>
#       <Coefficients equation="0" >
#         <A>0.00000000e+000</A>
#         <B>0.00000000e+000</B>
#         <C>0.00000000e+000</C>
#         <D>0.00000000e+000</D>
#         <M>0.0</M>
#         <CPcor>-9.57000000e-008</CPcor>
#       </Coefficients>
#       <Coefficients equation="1" >
#         <G>-1.00589325e+000</G>
#         <H>1.26816302e-001</H>
#         <I>-1.51560448e-004</I>
#         <J>2.67137274e-005</J>
#         <CPcor>-9.57000000e-008</CPcor>
#         <CTcor>3.2500e-006</CTcor>
#         <!-- WBOTC not applicable unless ConductivityType = 1. -->
#         <WBOTC>0.00000000e+000</WBOTC>
#       </Coefficients>
#       <Slope>1.00000000</Slope>
#       <Offset>0.00000</Offset>
#     </ConductivitySensor>
#   </sensor>
#   <sensor Channel="3" >
#     <!-- Count, Pressure, Strain Gauge -->
#     <PressureSensor SensorID="46" >
#       <SerialNumber>7809</SerialNumber>
#       <CalibrationDate>11-Mar-19</CalibrationDate>
#       <PA0>4.56561833e-002</PA0>
#       <PA1>4.85095118e-004</PA1>
#       <PA2>-2.88327090e-012</PA2>
#       <PTEMPA0>-5.48784562e+001</PTEMPA0>
#       <PTEMPA1>5.53756816e+001</PTEMPA1>
#       <PTEMPA2>-5.86727098e-001</PTEMPA2>
#       <PTCA0>5.25246745e+005</PTCA0>
#       <PTCA1>1.22304214e+001</PTCA1>
#       <PTCA2>-3.56745036e-001</PTCA2>
#       <PTCB0>2.51668750e+001</PTCB0>
#       <PTCB1>3.75000000e-004</PTCB1>
#       <PTCB2>0.00000000e+000</PTCB2>
#       <Offset>0.000000</Offset>
#     </PressureSensor>
#   </sensor>
#   <sensor Channel="4" >
#     <!-- A/D voltage 0, Oxygen, SBE 43 -->
#     <OxygenSensor SensorID="38" >
#       <SerialNumber>0434</SerialNumber>
#       <CalibrationDate>13-Apr-19</CalibrationDate>
#       <Use2007Equation>1</Use2007Equation>
#       <CalibrationCoefficients equation="0" >
#         <!-- Coefficients for Owens-Millard equation. -->
#         <Boc>0.0000</Boc>
#         <Soc>0.0000e+000</Soc>
#         <offset>0.0000</offset>
#         <Pcor>0.00e+000</Pcor>
#         <Tcor>0.0000</Tcor>
#         <Tau>0.0</Tau>
#       </CalibrationCoefficients>
#       <CalibrationCoefficients equation="1" >
#         <!-- Coefficients for Sea-Bird equation - SBE calibration in 2007 and later. -->
#         <Soc>4.2007e-001</Soc>
#         <offset>-0.6109</offset>
#         <A>-4.3656e-003</A>
#         <B> 1.7017e-004</B>
#         <C>-2.5341e-006</C>
#         <D0> 2.5826e+000</D0>
#         <D1> 1.92634e-004</D1>
#         <D2>-4.64803e-002</D2>
#         <E> 3.6000e-002</E>
#         <Tau20> 1.1800</Tau20>
#         <H1>-3.3000e-002</H1>
#         <H2> 5.0000e+003</H2>
#         <H3> 1.4500e+003</H3>
#       </CalibrationCoefficients>
#     </OxygenSensor>
#   </sensor>
#   <sensor Channel="5" >
#     <!-- A/D voltage 1, PAR/Logarithmic, Satlantic -->
#     <PARLog_SatlanticSensor SensorID="76" >
#       <SerialNumber>1122</SerialNumber>
#       <CalibrationDate>08-May-2019</CalibrationDate>
#       <a0>9.7456e-001</a0>
#       <a1>8.1640e-001</a1>
#       <Im>1.3589e+000</Im>
#       <Multiplier>1.0000e+000</Multiplier>
#     </PARLog_SatlanticSensor>
#   </sensor>
#   <sensor Channel="6" >
#     <!-- A/D voltage 2, pH -->
#     <pH_Sensor SensorID="43" >
#       <SerialNumber>0363</SerialNumber>
#       <CalibrationDate>15-Apr-19</CalibrationDate>
#       <Slope>4.5952</Slope>
#       <Offset>2.5370</Offset>
#     </pH_Sensor>
#   </sensor>
#   <sensor Channel="7" >
#     <!-- A/D voltage 3, Oxidation Reduction Potential -->
#     <OxidationReductionPotentialSensor SensorID="41" >
#       <SerialNumber>0363</SerialNumber>
#       <CalibrationDate>15-Apr-19</CalibrationDate>
#       <B>2.499480</B>
#       <M>-0.496195</M>
#       <Offset>0.0</Offset>
#     </OxidationReductionPotentialSensor>
#   </sensor>
#   <sensor Channel="8" >
#     <!-- A/D voltage 4, Fluorometer, WET Labs ECO-AFL/FL -->
#     <FluoroWetlabECO_AFL_FL_Sensor SensorID="20" >
#       <SerialNumber>FLNTURT-2496</SerialNumber>
#       <CalibrationDate>08-May-2019</CalibrationDate>
#       <ScaleFactor>5.00000000e+001</ScaleFactor>
#       <!-- Dark output -->
#       <Vblank>0.0550</Vblank>
#     </FluoroWetlabECO_AFL_FL_Sensor>
#   </sensor>
#   <sensor Channel="9" >
#     <!-- A/D voltage 5, Turbidity Meter, WET Labs, ECO-NTU -->
#     <TurbidityMeter SensorID="67" >
#       <SerialNumber>FLNTURT-2496</SerialNumber>
#       <CalibrationDate>08-May-2019</CalibrationDate>
#       <ScaleFactor>189.000000</ScaleFactor>
#       <!-- Dark output -->
#       <DarkVoltage>0.071000</DarkVoltage>
#     </TurbidityMeter>
#   </sensor>
# </Sensors>
# datcnv_date = Oct 16 2019 16:53:53, 7.26.7.129 [datcnv_vars = 15]
# datcnv_in = C:\DATA\101619_fcr50_0002.hex C:\DATA\SBE19plusV2_7809.xmlcon
# datcnv_skipover = 0
# datcnv_ox_hysteresis_correction = yes
# datcnv_ox_tau_correction = yes
# filter_date = Oct 16 2019 16:54:29, 7.26.7.129
# filter_in = C:\DATA\101619_fcr50_0002.cnv
# filter_low_pass_tc_A = 0.030
# filter_low_pass_tc_B = 0.150
# filter_low_pass_A_vars = sbeox0ML/L prdM prdE tv290C density00
# filter_low_pass_B_vars = depFM dz/dtM sbeox0PS specc c0uS/cm flECO-AFL ph orp par/sat/log turbWETntu0
# alignctd_date = Oct 16 2019 16:54:53, 7.26.7.129
# alignctd_in = C:\DATA\101619_fcr50_0002.cnv
# alignctd_adv = dz/dtM 1.000, sbeox0PS 1.000, specc 1.000, c0uS/cm 1.000, flECO-AFL 1.000, ph 1.000, orp 1.000, turbWETntu0 1.000                                                                                                   
# file_type = ascii
*END*
     -0.387      0.105     6.3956     95.114     40.477  34.244969     1.4892      8.216   277.1245 4.3936e+02     9.8672     -0.393     -0.570    17.1389   998.7684 0.0000e+00
     -0.348      0.141     6.3879     95.369     40.425  34.210759     1.4996      8.212   275.8400 4.5027e+02     9.7136     -0.341     -0.495    17.1892   998.7598 0.0000e+00
     -0.301      0.171     6.3845     95.717     40.389  34.182206     1.5096      8.201   274.7737 4.5625e+02     9.6556     -0.295     -0.427    17.2391   998.7511 0.0000e+00
     -0.249      0.187     6.3842     96.150     40.355  34.153600     1.6013      8.186   273.8683 4.1665e+02     9.6246     -0.252     -0.366    17.2747   998.7451 0.0000e+00
     -0.186      0.184     6.3875     96.663     40.317  34.118748     1.7853      8.171   272.9812 3.3090e+02     9.6331     -0.180     -0.261    17.3039   998.7402 0.0000e+00
     -0.126      0.163     6.4055     97.234     40.277  34.078142     1.8955      8.156   272.2211 2.6628e+02     9.6602     -0.116     -0.168    17.3124   998.7390 0.0000e+00
     -0.083      0.133     6.4287     97.909     40.248  34.043415     1.9199      8.141   271.4746 2.4240e+02     9.6578     -0.078     -0.112    17.3123   998.7392 0.0000e+00
     -0.056      0.098     6.4570     98.585     40.232  34.016184     1.9680      8.124   270.6666 2.3145e+02     9.5711     -0.051     -0.073    17.3135   998.7391 0.0000e+00
     -0.043      0.063     6.4939     98.708     40.229  34.002738     2.0435      8.108   269.8518 2.2755e+02     9.4969     -0.038     -0.055    17.3095   998.7399 0.0000e+00
     -0.041      0.035     6.5312     97.603     40.239  34.007758     2.0950      8.094   269.1080 2.3119e+02     9.5142     -0.038     -0.056    17.3035   998.7409 0.0000e+00
     -0.041      0.016     6.5764     95.065     40.244  34.013411     2.1140      8.081   268.5568 2.3661e+02     9.4855     -0.041     -0.060    17.2909   998.7431 0.0000e+00
     -0.038      0.003     6.6410     91.411     40.232  34.007631     2.0996      8.069   268.0910 2.3787e+02     9.2481     -0.038     -0.055    17.2692   998.7469 0.0000e+00
     -0.035     -0.003     6.6718     87.149     40.219  34.001340     2.0601      8.058   267.6066 2.3995e+02     8.9384     -0.032     -0.047    17.2537   998.7497 0.0000e+00
     -0.036     -0.006     6.6026     82.749     40.214  34.000820     2.0436      8.045   267.0885 2.4251e+02     8.8205     -0.033     -0.048    17.2494   998.7505 0.0000e+00
     -0.042     -0.007     6.4211     78.614     40.211  34.001340     2.0480      8.034   266.4723 2.4389e+02     8.8393     -0.042     -0.060    17.2538   998.7496 0.0000e+00
     -0.047     -0.008     6.1614     75.069     40.218  34.007639     2.0784      8.025   265.8347 2.4756e+02     8.9361     -0.048     -0.070    17.2607   998.7485 0.0000e+00
     -0.050     -0.008     5.8635     72.368     40.225  34.013522     2.1334      8.015   265.3162 2.4677e+02     9.1388     -0.049     -0.070    17.2660   998.7475 0.0000e+00
     -0.050     -0.006     5.5573     70.643     40.217  34.009002     2.1579      8.006   264.9348 2.4249e+02     9.2585     -0.050     -0.072    17.2709   998.7466 0.0000e+00
     -0.049     -0.002     5.2715     69.782     40.221  34.016455     2.1583      7.997   264.5783 2.4032e+02     9.2692     -0.048     -0.070    17.2757   998.7457 0.0000e+00
     -0.049      0.000     5.0273     69.466     40.245  34.040177     2.1729      7.989   264.1902 2.3759e+02     9.5302     -0.048     -0.069    17.2751   998.7458 0.0000e+00
     -0.049 3.6569e-07     4.8416     69.408     40.245  34.041955     2.2041      7.983   263.7690 2.3773e+02    10.0217     -0.049     -0.071    17.2732   998.7463 0.0000e+00
     -0.049      0.000     4.7274     69.401     40.239  34.037964     2.2235      7.977   263.2716 2.4183e+02    10.2960     -0.048     -0.070    17.2771   998.7455 0.0000e+00
     -0.049      0.000     4.6795     69.350     40.259  34.055386     2.2175      7.971   262.7359 2.4304e+02    10.3565     -0.048     -0.071    17.2827   998.7445 0.0000e+00
     -0.049      0.001     4.6635     69.293     40.266  34.062215     2.2000      7.964   262.1966 2.4339e+02    10.2610     -0.049     -0.070    17.2869   998.7438 0.0000e+00
     -0.049      0.001     4.6645     69.242     40.260  34.057062     2.1770      7.958   261.7408 2.4659e+02    10.0269     -0.048     -0.069    17.2896   998.7433 0.0000e+00
     -0.049      0.001     4.6674     69.207     40.260  34.056541     2.1657      7.953   261.3551 2.4874e+02     9.9177     -0.048     -0.070    17.2906   998.7431 0.0000e+00
     -0.048      0.001     4.6602     69.272     40.259  34.055916     2.1753      7.948   260.9756 2.4737e+02     9.9568     -0.048     -0.069    17.2913   998.7430 0.0000e+00
     -0.048      0.001     4.6572     69.501     40.252  34.049503     2.1808      7.943   260.6796 2.4410e+02     9.9757     -0.047     -0.068    17.2919   998.7429 0.0000e+00
     -0.047      0.001     4.6545     69.907     40.243  34.042474     2.1887      7.938   260.4422 2.4332e+02     9.8839     -0.046     -0.067    17.2919   998.7429 0.0000e+00
     -0.047      0.001     4.6487     70.435     40.233  34.034397     2.2187      7.933   260.1702 2.4476e+02     9.7317     -0.047     -0.067    17.2917   998.7429 0.0000e+00
     -0.047      0.002     4.6519     70.959     40.209  34.015311     2.2403      7.931   259.7999 2.4249e+02     9.6432     -0.046     -0.067    17.2914   998.7430 0.0000e+00
     -0.047      0.003     4.6671     71.407     40.193  34.002098     2.2423      7.927   259.4068 2.3836e+02     9.6652     -0.046     -0.066    17.2911   998.7431 0.0000e+00
     -0.047      0.005     4.6945     71.731     40.193  34.001577     2.2244      7.922   259.1174 2.3701e+02     9.7030     -0.047     -0.068    17.2914   998.7430 0.0000e+00
     -0.046      0.006     4.7350     71.856     40.202  34.009010     2.1886      7.919   258.8810 2.3663e+02     9.6743     -0.045     -0.066    17.2926   998.7427 0.0000e+00
     -0.043      0.005     4.7709     71.771     40.224  34.028503     2.1738      7.916   258.6137 2.3203e+02     9.6454     -0.043     -0.061    17.2939   998.7425 0.0000e+00
     -0.039      0.002     4.8014     71.527     40.244  34.046874     2.1761      7.911   258.2956 2.2486e+02     9.6490     -0.039     -0.056    17.2941   998.7425 0.0000e+00
     -0.037     -0.001     4.8262     71.163     40.236  34.040736     2.1722      7.905   258.1316 2.2772e+02     9.4550     -0.035     -0.050    17.2938   998.7426 0.0000e+00
     -0.038     -0.006     4.8348     70.741     40.214  34.017753     2.1704      7.900   258.1796 2.3773e+02     9.0374     -0.036     -0.051    17.2938   998.7426 0.0000e+00
     -0.043     -0.011     4.8267     70.320     40.229  34.022851     2.1715      7.894   258.0156 2.3955e+02     8.7948     -0.043     -0.062    17.2950   998.7424 0.0000e+00
     -0.047     -0.013     4.8099     69.861     40.254  34.038898     2.1685      7.885   257.6973 2.4186e+02     8.7826     -0.047     -0.068    17.2967   998.7420 0.0000e+00
     -0.051     -0.011     4.7842     69.351     40.236  34.021371     2.1768      7.871   257.6012 2.5572e+02     8.8566     -0.048     -0.069    17.2986   998.7417 0.0000e+00
     -0.057     -0.006     4.7529     68.835     40.218  34.001330     2.2116      7.851   257.6273 2.7309e+02     8.9686     -0.055     -0.079    17.2947   998.7424 0.0000e+00
     -0.062     -0.002     4.7289     68.327     40.209  33.986973     2.2345      7.829   257.4965 2.7216e+02     8.9898     -0.065     -0.093    17.2813   998.7446 0.0000e+00
     -0.059      0.001     4.6992     67.831     40.198  33.974705     2.2282      7.815   257.2249 2.4713e+02     8.9497     -0.061     -0.088    17.2725   998.7462 0.0000e+00
     -0.051      0.004     4.6623     67.334     40.200  33.979925     2.2219      7.810   257.0104 2.3254e+02     8.9089     -0.048     -0.069    17.2744   998.7460 0.0000e+00
     -0.046      0.007     4.6285     66.828     40.202  33.986629     2.2273      7.806   256.8828 2.4634e+02     8.8577     -0.042     -0.061    17.2695   998.7469 0.0000e+00
     -0.049      0.009     4.5956     66.405     40.205  33.992294     2.2331      7.802   256.8001 2.5988e+02     8.8222     -0.048     -0.070    17.2553   998.7494 0.0000e+00
     -0.052      0.008     4.5623     66.150     40.198  33.984965     2.2321      7.798   256.6995 2.4898e+02     8.7751     -0.054     -0.078    17.2512   998.7500 0.0000e+00
     -0.049      0.006     4.5302     66.002     40.173  33.961471     2.2316      7.793   256.6123 2.2938e+02     8.7135     -0.050     -0.072    17.2585   998.7487 0.0000e+00
     -0.044      0.005     4.4920     65.892     40.174  33.962096     2.2094      7.788   256.5193 2.1928e+02     8.6676     -0.041     -0.060    17.2672   998.7472 0.0000e+00
     -0.040      0.005     4.4596     65.807     40.208  33.992511     2.1632      7.782   256.2628 2.1880e+02     8.6459     -0.037     -0.054    17.2713   998.7466 0.0000e+00
     -0.040      0.004     4.4461     65.757     40.227  34.011898     2.1326      7.776   256.0068 2.2603e+02     8.6481     -0.038     -0.055    17.2683   998.7471 0.0000e+00
     -0.041      0.003     4.4382     65.763     40.217  34.006118     2.1168      7.771   255.9196 2.3458e+02     8.6290     -0.040     -0.058    17.2640   998.7479 0.0000e+00
     -0.041      0.002     4.4308     65.846     40.191  33.986095     2.1028      7.767   255.8109 2.3972e+02     8.6768     -0.042     -0.060    17.2635   998.7479 0.0000e+00
     -0.041      0.002     4.4244     65.982     40.160  33.960200     2.1013      7.763   255.7244 2.4364e+02     8.8662     -0.042     -0.061    17.2662   998.7475 0.0000e+00
     -0.039      0.002     4.4204     66.113     40.145  33.946884     2.1072      7.759   255.7348 2.4399e+02     9.0172     -0.039     -0.056    17.2710   998.7466 0.0000e+00
     -0.037      0.001     4.4193     66.198     40.151  33.952019     2.1050      7.755   255.5928 2.3890e+02     9.0285     -0.036     -0.052    17.2750   998.7459 0.0000e+00
     -0.036      0.000     4.4254     66.214     40.159  33.958817     2.0837      7.750   255.4690 2.3895e+02     8.9040     -0.035     -0.051    17.2765   998.7457 0.0000e+00
     -0.036     -0.002     4.4365     66.157     40.166  33.965616     2.0490      7.746   255.5287 2.4915e+02     8.6915     -0.035     -0.050    17.2770   998.7456 0.0000e+00
     -0.038     -0.005     4.4459     66.027     40.173  33.970761     2.0415      7.743   255.4551 2.5574e+02     8.5569     -0.037     -0.054    17.2764   998.7457 0.0000e+00
     -0.042     -0.007     4.4526     65.847     40.160  33.957557     2.0525      7.738   255.2666 2.5039e+02     8.5224     -0.042     -0.060    17.2752   998.7459 0.0000e+00
     -0.044     -0.009     4.4534     65.657     40.137  33.932901     2.0440      7.733   255.2289 2.4233e+02     8.5032     -0.044     -0.063    17.2754   998.7458 0.0000e+00
     -0.045     -0.010     4.4495     65.477     40.135  33.926498     2.0339      7.728   255.2578 2.3755e+02     8.4890     -0.044     -0.063    17.2774   998.7454 0.0000e+00
     -0.047     -0.011     4.4405     65.300     40.159  33.943599     2.0432      7.724   255.0983 2.3436e+02     8.5148     -0.046     -0.067    17.2782   998.7453 0.0000e+00
     -0.051     -0.011     4.4271     65.108     40.169  33.949264     2.0605      7.722   254.8489 2.3569e+02     8.5860     -0.051     -0.073    17.2746   998.7459 0.0000e+00
     -0.055     -0.010     4.4148     64.874     40.149  33.931530     2.0613      7.723   254.7389 2.4404e+02     8.6289     -0.053     -0.077    17.2676   998.7471 0.0000e+00
     -0.058     -0.007     4.4034     64.597     40.134  33.919574     2.0443      7.723   254.6288 2.4874e+02     8.6064     -0.057     -0.082    17.2613   998.7482 0.0000e+00
     -0.061     -0.003     4.3923     64.307     40.147  33.931632     2.0369      7.721   254.4633 2.4633e+02     8.5766     -0.061     -0.088    17.2571   998.7490 0.0000e+00
     -0.062      0.002     4.3805     64.001     40.168  33.950395     2.0414      7.717   254.3724 2.4596e+02     8.5965     -0.062     -0.090    17.2540   998.7495 0.0000e+00
     -0.060      0.006     4.3653     63.659     40.176  33.956040     2.0470      7.712   254.3044 2.4790e+02     8.6505     -0.060     -0.088    17.2527   998.7497 0.0000e+00
     -0.057      0.010     4.3450     63.347     40.155  33.936424     2.0781      7.707   254.3300 2.4972e+02     8.8029     -0.056     -0.082    17.2535   998.7495 0.0000e+00
     -0.052      0.012     4.3252     63.091     40.120  33.903614     2.1317      7.700   254.4236 2.4920e+02     9.0625     -0.051     -0.074    17.2552   998.7493 0.0000e+00
     -0.048      0.012     4.3070     62.843     40.092  33.876650     2.1660      7.693   254.4891 2.4401e+02     9.2337     -0.047     -0.067    17.2564   998.7492 0.0000e+00
     -0.045      0.011     4.2803     62.597     40.081  33.864269     2.1809      7.687   254.4346 2.3626e+02     9.2667     -0.044     -0.064    17.2561   998.7492 0.0000e+00
     -0.043      0.009     4.2589     62.332     40.104  33.880839     2.1984      7.682   254.1938 2.3126e+02     9.1994     -0.042     -0.061    17.2527   998.7498 0.0000e+00
     -0.041      0.007     4.2452     62.044     40.114  33.886588     2.2221      7.678   254.0732 2.3094e+02     9.0752     -0.040     -0.058    17.2479   998.7507 0.0000e+00
     -0.040      0.007     4.2273     61.761     40.097  33.870308     2.2330      7.674   254.0947 2.2929e+02     9.0104     -0.039     -0.057    17.2441   998.7513 0.0000e+00
     -0.039      0.008     4.2124     61.467     40.105  33.874403     2.2262      7.670   254.1105 2.2893e+02     9.0390     -0.039     -0.057    17.2408   998.7519 0.0000e+00
     -0.038      0.009     4.1954     61.145     40.105  33.872634     2.2001      7.668   254.0915 2.3026e+02     9.1910     -0.038     -0.054    17.2368   998.7526 0.0000e+00
     -0.035      0.011     4.1744     60.823     40.080  33.848914     2.1522      7.665   253.8656 2.2540e+02     9.4061     -0.034     -0.049    17.2332   998.7533 0.0000e+00
     -0.031      0.013     4.1566     60.506     40.074  33.841470     2.1150      7.662   253.6153 2.1975e+02     9.5101     -0.031     -0.045    17.2313   998.7536 0.0000e+00
     -0.028      0.013     4.1379     60.185     40.082  33.846095     2.1055      7.660   253.6469 2.1728e+02     9.4986     -0.027     -0.041    17.2291   998.7540 0.0000e+00
     -0.024      0.013     4.1151     59.883     40.080  33.841362     2.1497      7.658   253.7313 2.1540e+02     9.4636     -0.024     -0.035    17.2253   998.7547 0.0000e+00
     -0.020      0.012     4.0933     59.581     40.091  33.847698     2.2425      7.656   253.6897 2.1486e+02     9.4462     -0.019     -0.028    17.2219   998.7553 0.0000e+00
     -0.016      0.009     4.0738     59.251     40.109  33.859235     2.2916      7.652   253.6592 2.1459e+02     9.4528     -0.015     -0.022    17.2198   998.7557 0.0000e+00
     -0.013      0.005     4.0501     58.921     40.107  33.853929     2.2833      7.647   253.6209 2.1254e+02     9.4448     -0.013     -0.019    17.2172   998.7562 0.0000e+00
     -0.013      0.000     4.0312     58.573     40.101  33.847003     2.2373      7.643   253.5713 2.0944e+02     9.3835     -0.012     -0.018    17.2134   998.7569 0.0000e+00
     -0.014     -0.004     4.0131     58.210     40.092  33.838945     2.1613      7.640   253.4895 2.0649e+02     9.3342     -0.013     -0.020    17.2088   998.7577 0.0000e+00
     -0.016     -0.005     3.9884     57.847     40.071  33.819962     2.1184      7.639   253.3201 2.0574e+02     9.3071     -0.015     -0.021    17.2039   998.7585 0.0000e+00
     -0.019     -0.004     3.9689     57.477     40.061  33.807883     2.1089      7.637   253.1581 2.1095e+02     9.2513     -0.019     -0.027    17.1996   998.7593 0.0000e+00
     -0.023      0.000     3.9450     57.117     40.081  33.819828     2.0986      7.635   253.0792 2.1622e+02     9.2172     -0.022     -0.033    17.1970   998.7597 0.0000e+00
     -0.025      0.007     3.9195     56.793     40.105  33.837447     2.0286      7.630   253.0540 2.1017e+02     9.2222     -0.026     -0.038    17.1967   998.7598 0.0000e+00
     -0.023      0.014     3.8965     56.535     40.099  33.830514     1.8950      7.621   253.1113 1.9730e+02     9.2465     -0.024     -0.035    17.1968   998.7597 0.0000e+00
     -0.016      0.018     3.8705     56.366     40.064  33.799463     1.8182      7.610   253.3425 1.8957e+02     9.2488     -0.016     -0.023    17.1919   998.7606 0.0000e+00
     -0.006      0.016     3.8468     56.279     40.045  33.779336     1.8116      7.600   253.5264 1.8596e+02     9.1850     -0.007     -0.009    17.1841   998.7621 0.0000e+00
      0.004      0.006     3.8247     56.242     40.060  33.777560     1.8319      7.590   253.5281 1.7943e+02     8.9338      0.004      0.007    17.1794   998.7629 0.0000e+00
      0.010     -0.010     3.8062     56.218     40.093  33.777970     1.8643      7.580   253.5347 1.7571e+02     8.5715      0.014      0.020    17.1805   998.7627 0.0000e+00
      0.006     -0.034     3.7955     56.192     40.134  33.784253     1.8747      7.572   253.6064 1.8510e+02     8.4091      0.012      0.016    17.1791   998.7631 0.0000e+00
     -0.009     -0.059     3.7904     56.217     40.167  33.790023     1.8706      7.563   253.7932 2.0112e+02     8.3793     -0.009     -0.013    17.1769   998.7633 0.0000e+00
     -0.028     -0.079     3.7898     56.399     40.178  33.784256     1.8754      7.553   253.8995 2.1873e+02     8.4076     -0.028     -0.040    17.1639   998.7654 0.0000e+00
     -0.053     -0.091     3.7926     56.834     40.182  33.777970     1.8978      7.543   253.6867 2.4744e+02     8.5541     -0.045     -0.065    17.1200   998.7731 0.0000e+00
     -0.087     -0.096     3.7925     57.576     40.187  33.777460     1.9242      7.537   253.4583 2.7800e+02     8.6446     -0.086     -0.125    17.0802   998.7798 0.0000e+00
     -0.120     -0.091     3.7929     58.599     40.190  33.778094     1.9342      7.532   253.3746 2.9026e+02     8.6163     -0.125     -0.182    17.0560   998.7839 0.0000e+00
     -0.141     -0.078     3.8051     59.785     40.200  33.785632     1.9585      7.527   253.2771 2.9263e+02     8.7361     -0.138     -0.200    17.0353   998.7875 0.0000e+00
     -0.159     -0.055     3.8332     60.953     40.222  33.805135     2.0101      7.520   253.2257 2.9860e+02     9.0442     -0.154     -0.224    17.0248   998.7892 0.0000e+00
     -0.175     -0.022     3.8848     61.962     40.236  33.823501     2.0376      7.510   253.3561 3.0403e+02     9.2282     -0.175     -0.254    17.0203   998.7899 0.0000e+00
     -0.181      0.014     3.9567     62.755     40.208  33.817313     2.0400      7.499   253.4771 3.0609e+02     9.2902     -0.182     -0.263    17.0186   998.7901 0.0000e+00
     -0.176      0.046     4.0418     63.278     40.149  33.793808     2.0562      7.489   253.3980 3.0327e+02     9.4656     -0.177     -0.258    17.0176   998.7903 0.0000e+00
     -0.156      0.070     4.1252     63.532     40.115  33.793189     2.0861      7.480   253.2603 2.8665e+02     9.7434     -0.161     -0.233    17.0166   998.7907 0.0000e+00
     -0.120      0.084     4.1924     63.600     40.106  33.809870     2.0972      7.474   253.1885 2.5486e+02     9.8959     -0.118     -0.172    17.0211   998.7901 0.0000e+00
     -0.082      0.085     4.2464     63.578     40.081  33.805129     2.0952      7.470   253.1325 2.2529e+02     9.9003     -0.073     -0.107    17.0448   998.7861 0.0000e+00
     -0.056      0.076     4.2787     63.539     40.067  33.799349     2.0976      7.465   253.0134 2.1157e+02     9.8615     -0.051     -0.074    17.0809   998.7800 0.0000e+00
     -0.043      0.063     4.2896     63.524     40.078  33.803456     2.0910      7.461   252.9521 2.0835e+02     9.7223     -0.040     -0.058    17.1178   998.7735 0.0000e+00
     -0.038      0.052     4.2895     63.559     40.074  33.791315     2.0939      7.456   252.9083 2.0937e+02     9.5282     -0.035     -0.051    17.1489   998.7680 0.0000e+00
     -0.036      0.044     4.2839     63.664     40.068  33.779478     2.1067      7.451   252.6555 2.1399e+02     9.4488     -0.037     -0.053    17.1715   998.7641 0.0000e+00
     -0.028      0.042     4.2798     63.853     40.079  33.787256     2.1072      7.448   252.3907 2.1209e+02     9.4504     -0.033     -0.048    17.1809   998.7625 0.0000e+00
     -0.011      0.042     4.2795     64.099     40.119  33.821884     2.0738      7.445   252.2885 1.9684e+02     9.3839     -0.011     -0.017    17.1683   998.7648 0.0000e+00
      0.008      0.044     4.2822     64.359     40.181  33.880837     2.0146      7.440   252.2804 1.8070e+02     9.2667      0.012      0.017    17.1546   998.7673 0.0000e+00
      0.021      0.046     4.2899     64.717     40.218  33.928873     1.9899      7.435   252.2062 1.7377e+02     9.2127      0.024      0.035    17.1475   998.7686 0.0000e+00
      0.027      0.046     4.3029     65.466     40.220  33.958447     1.9920      7.429   251.2190 1.7329e+02     9.2559      0.026      0.038    17.1447   998.7691 0.0000e+00
      0.033      0.045     4.3216     66.946     40.219  33.984589     1.9786      7.425   249.4643 1.7267e+02     9.4612      0.027      0.040    17.1472   998.7687 0.0000e+00
      0.046      0.047     4.3378     69.264     40.204  33.991125     1.9673      7.420   248.4568 1.6813e+02     9.7616      0.044      0.064    17.1501   998.7683 0.0000e+00
      0.060      0.054     4.3517     72.099     40.171  33.974035     1.9766      7.415   248.2432 1.6241e+02     9.9052      0.062      0.090    17.1707   998.7647 0.0000e+00
      0.072      0.059     4.3894     74.949     40.157  33.968362     1.9869      7.410   248.0865 1.5719e+02     9.9194      0.068      0.100    17.2128   998.7574 0.0000e+00
      0.087      0.059     4.4805     77.473     40.174  33.986011     1.9874      7.406   247.9388 1.5141e+02     9.7042      0.082      0.119    17.2502   998.7509 0.0000e+00
      0.109      0.054     4.6439     79.469     40.185  33.997029     1.9918      7.402   247.8339 1.4758e+02     9.2370      0.110      0.158    17.2730   998.7469 0.0000e+00
      0.128      0.046     4.8481     80.819     40.158  33.974652     1.9965      7.399   247.7645 1.4777e+02     8.9892      0.131      0.189    17.2852   998.7449 0.0000e+00
      0.138      0.039     5.0455     81.503     40.151  33.969315     2.0008      7.398   247.6150 1.5044e+02     9.0022      0.137      0.200    17.2912   998.7438 0.0000e+00
      0.142      0.031     5.2191     81.579     40.182  33.995970     2.0277      7.398   247.4040 1.5339e+02     9.1642      0.139      0.202    17.2948   998.7431 0.0000e+00
      0.145      0.025     5.3566     81.193     40.162  33.979602     2.0780      7.397   247.3644 1.5510e+02     9.4738      0.142      0.206    17.2965   998.7429 0.0000e+00
      0.148      0.023     5.4469     80.568     40.140  33.961811     2.1145      7.395   247.4803 1.5501e+02     9.6318      0.144      0.209    17.2973   998.7428 0.0000e+00
      0.154      0.025     5.4918     79.934     40.151  33.971259     2.1227      7.393   247.6004 1.5301e+02     9.6338      0.149      0.217    17.2980   998.7427 0.0000e+00
      0.163      0.027     5.4937     79.443     40.146  33.966907     2.1338      7.391   247.6979 1.5025e+02     9.4971      0.159      0.232    17.2985   998.7427 0.0000e+00
      0.173      0.028     5.4616     79.073     40.153  33.972654     2.1622      7.389   247.8851 1.4752e+02     9.1916      0.169      0.246    17.2990   998.7426 0.0000e+00
      0.182      0.025     5.4144     78.764     40.158  33.977277     2.1797      7.387   248.0574 1.4482e+02     9.0205      0.179      0.260    17.3004   998.7424 0.0000e+00
      0.189      0.020     5.3665     78.516     40.137  33.959345     2.1720      7.386   248.0600 1.4261e+02     9.0018      0.186      0.270    17.3008   998.7424 0.0000e+00
      0.193      0.014     5.3354     78.305     40.121  33.946227     2.1640      7.385   248.0023 1.4109e+02     8.9983      0.191      0.276    17.3003   998.7425 0.0000e+00
      0.195      0.009     5.3134     78.115     40.121  33.945603     2.1789      7.384   247.9628 1.4070e+02     9.0106      0.193      0.280    17.2998   998.7426 0.0000e+00
      0.195      0.007     5.2905     77.946     40.128  33.951797     2.2130      7.382   248.0979 1.4104e+02     9.0191      0.192      0.278    17.2999   998.7426 0.0000e+00
      0.194      0.009     5.2758     77.787     40.136  33.957650     2.2384      7.380   248.3446 1.4059e+02     9.0027      0.189      0.274    17.3005   998.7424 0.0000e+00
      0.193      0.013     5.2616     77.641     40.132  33.952911     2.2341      7.377   248.4504 1.3898e+02     8.9767      0.188      0.273    17.3008   998.7424 0.0000e+00
      0.196      0.018     5.2484     77.515     40.140  33.957962     2.2226      7.375   248.6028 1.3623e+02     9.0981      0.191      0.276    17.3003   998.7425 0.0000e+00
      0.204      0.023     5.2382     77.419     40.137  33.955248     2.2281      7.373   248.8967 1.3243e+02     9.3558      0.200      0.290    17.2997   998.7426 0.0000e+00
      0.214      0.028     5.2268     77.362     40.095  33.920103     2.2317      7.369   249.0787 1.2909e+02     9.4709      0.211      0.306    17.2989   998.7428 0.0000e+00
      0.223      0.029     5.2174     77.341     40.087  33.913815     2.2234      7.365   249.2554 1.2664e+02     9.4413      0.219      0.318    17.2972   998.7432 0.0000e+00
      0.230      0.029     5.2087     77.337     40.122  33.942680     2.2058      7.362   249.5706 1.2432e+02     9.4242      0.226      0.328    17.2957   998.7435 0.0000e+00
      0.237      0.028     5.2020     77.332     40.132  33.951786     2.1832      7.360   249.7924 1.2255e+02     9.4287      0.234      0.339    17.2953   998.7436 0.0000e+00
      0.243      0.027     5.1983     77.331     40.143  33.960459     2.1762      7.358   249.9574 1.2118e+02     9.4621      0.239      0.347    17.2953   998.7436 0.0000e+00
      0.249      0.027     5.1974     77.346     40.171  33.984076     2.1722      7.355   250.1890 1.1903e+02     9.5002      0.242      0.352    17.2957   998.7435 0.0000e+00
      0.256      0.030     5.1977     77.357     40.171  33.983472     2.1705      7.350   250.3560 1.1627e+02     9.5291      0.251      0.364    17.2961   998.7435 0.0000e+00
      0.263      0.034     5.1971     77.351     40.136  33.953152     2.1819      7.342   250.4279 1.1385e+02     9.6146      0.259      0.377    17.2962   998.7435 0.0000e+00
      0.270      0.036     5.1963     77.334     40.114  33.934803     2.1885      7.334   250.5414 1.1084e+02     9.7142      0.262      0.380    17.2953   998.7437 0.0000e+00
      0.281      0.036     5.1985     77.311     40.135  33.952017     2.1890      7.329   250.6973 1.0655e+02     9.7180      0.273      0.396    17.2946   998.7439 0.0000e+00
      0.297      0.032     5.1997     77.278     40.158  33.970887     2.1798      7.326   250.7638 1.0289e+02     9.6934      0.294      0.427    17.2942   998.7441 0.0000e+00
      0.309      0.026     5.1986     77.225     40.161  33.972558     2.1804      7.323   250.8283 1.0100e+02     9.8097      0.307      0.444    17.2941   998.7441 0.0000e+00
      0.313      0.019     5.1978     77.169     40.163  33.972228     2.2140      7.320   250.9614 9.9826e+01    10.0104      0.308      0.445    17.2942   998.7441 0.0000e+00
      0.313      0.011     5.1959     77.139     40.158  33.966883     2.2400      7.320   251.1685 9.8770e+01    10.1202      0.307      0.445    17.2936   998.7442 0.0000e+00
      0.313      0.005     5.1947     77.149     40.164  33.971405     2.2426      7.320   251.3533 9.8274e+01    10.1222      0.308      0.447    17.2928   998.7444 0.0000e+00
      0.312      0.003     5.1906     77.184     40.156  33.963433     2.2371      7.319   251.3902 9.7845e+01    10.0010      0.306      0.444    17.2912   998.7446 0.0000e+00
      0.311      0.003     5.1861     77.237     40.121  33.933960     2.2251      7.319   251.4421 9.6584e+01     9.8346      0.303      0.440    17.2890   998.7450 0.0000e+00
      0.312      0.008     5.1839     77.296     40.119  33.932372     2.2192      7.319   251.6370 9.5127e+01     9.7496      0.305      0.443    17.2876   998.7453 0.0000e+00
      0.314      0.018     5.1854     77.361     40.133  33.944231     2.2259      7.316   251.9397 9.3972e+01     9.7264      0.309      0.448    17.2865   998.7455 0.0000e+00
      0.317      0.032     5.1878     77.423     40.141  33.950415     2.2463      7.306   252.1757 9.2412e+01     9.9801      0.310      0.451    17.2858   998.7456 0.0000e+00
      0.322      0.045     5.1918     77.453     40.134  33.943680     2.2753      7.291   252.2542 9.0036e+01    10.4900      0.313      0.455    17.2856   998.7456 0.0000e+00
      0.334      0.053     5.1958     77.447     40.115  33.926267     2.2896      7.280   252.3724 8.5591e+01    10.7791      0.322      0.467    17.2857   998.7457 0.0000e+00
      0.358      0.058     5.1997     77.398     40.120  33.930270     2.2890      7.275   252.5722 7.9194e+01    10.8213      0.350      0.507    17.2858   998.7458 0.0000e+00
      0.384      0.058     5.2059     77.331     40.119  33.928605     2.3027      7.275   252.6907 7.4583e+01    10.7057      0.383      0.554    17.2853   998.7460 0.0000e+00
      0.401      0.054     5.2068     77.283     40.092  33.906143     2.3346      7.275   252.6868 7.2774e+01    10.4628      0.397      0.576    17.2838   998.7464 0.0000e+00
      0.408      0.046     5.2077     77.240     40.100  33.912536     2.3624      7.275   252.6979 7.1614e+01    10.3416      0.401      0.582    17.2819   998.7467 0.0000e+00
      0.413      0.037     5.2041     77.205     40.135  33.942442     2.3698      7.276   252.8250 7.0367e+01    10.3556      0.404      0.587    17.2811   998.7469 0.0000e+00
      0.420      0.030     5.1971     77.213     40.144  33.950405     2.3458      7.277   253.0189 6.8740e+01    10.3036      0.411      0.597    17.2811   998.7469 0.0000e+00
      0.429      0.027     5.1959     77.254     40.138  33.945355     2.3071      7.279   253.1486 6.6998e+01    10.1724      0.421      0.610    17.2814   998.7469 0.0000e+00
      0.437      0.027     5.1925     77.289     40.138  33.944844     2.2916      7.281   253.1036 6.5893e+01    10.1122      0.429      0.622    17.2812   998.7469 0.0000e+00
      0.444      0.027     5.1888     77.314     40.137  33.944220     2.2964      7.282   253.0758 6.5016e+01    10.1330      0.434      0.631    17.2808   998.7471 0.0000e+00
      0.450      0.028     5.1898     77.337     40.131  33.937819     2.3144      7.282   253.2424 6.3873e+01    10.3261      0.440      0.638    17.2808   998.7471 0.0000e+00
      0.456      0.031     5.1940     77.341     40.124  33.930904     2.3439      7.282   253.3980 6.2838e+01    10.6450      0.448      0.650    17.2809   998.7471 0.0000e+00
      0.461      0.036     5.1963     77.322     40.117  33.924079     2.3574      7.282   253.4948 6.1816e+01    10.7773      0.452      0.656    17.2809   998.7471 0.0000e+00
      0.469      0.041     5.1970     77.277     40.110  33.918772     2.3568      7.281   253.5518 6.0246e+01    10.7782      0.457      0.664    17.2808   998.7472 0.0000e+00
      0.483      0.045     5.2002     77.207     40.124  33.930198     2.3540      7.281   253.4844 5.8085e+01    10.7872      0.473      0.685    17.2796   998.7474 0.0000e+00
      0.498      0.048     5.2001     77.160     40.130  33.935295     2.3237      7.280   253.4548 5.5815e+01    10.7867      0.490      0.711    17.2784   998.7477 0.0000e+00
      0.513      0.050     5.1989     77.164     40.110  33.916942     2.2678      7.280   253.5385 5.3937e+01    10.7729      0.504      0.731    17.2777   998.7479 0.0000e+00
      0.526      0.051     5.1966     77.195     40.090  33.898680     2.2338      7.279   253.6353 5.2532e+01    10.7511      0.516      0.749    17.2779   998.7480 0.0000e+00
      0.536      0.050     5.1898     77.235     40.098  33.904884     2.2323      7.278   253.6787 5.1159e+01    10.7856      0.525      0.762    17.2785   998.7479 0.0000e+00
      0.548      0.049     5.1861     77.305     40.126  33.928493     2.2669      7.277   253.7191 4.9451e+01    10.7304      0.536      0.776    17.2772   998.7482 0.0000e+00
      0.562      0.049     5.1875     77.394     40.128  33.930270     2.3231      7.277   253.7806 4.7719e+01    10.5094      0.551      0.799    17.2752   998.7486 0.0000e+00
      0.576      0.048     5.1907     77.469     40.123  33.926374     2.3483      7.275   253.8200 4.6242e+01    10.3756      0.565      0.819    17.2736   998.7489 0.0000e+00
      0.588      0.047     5.1920     77.515     40.145  33.944847     2.3549      7.271   253.9367 4.4893e+01    10.3911      0.577      0.836    17.2728   998.7491 0.0000e+00
      0.600      0.045     5.1971     77.528     40.168  33.963224     2.3947      7.268   254.0735 4.3656e+01    10.6962      0.588      0.854    17.2733   998.7491 0.0000e+00
      0.610      0.042     5.2044     77.523     40.163  33.958174     2.4562      7.266   254.1840 4.2595e+01    11.2468      0.599      0.869    17.2737   998.7491 0.0000e+00
      0.620      0.039     5.2091     77.495     40.150  33.947259     2.4833      7.263   254.2398 4.1643e+01    11.5095      0.609      0.883    17.2736   998.7491 0.0000e+00
      0.629      0.036     5.2132     77.456     40.164  33.958175     2.4713      7.259   254.2316 4.0678e+01    11.4796      0.617      0.895    17.2732   998.7492 0.0000e+00
      0.639      0.033     5.2129     77.431     40.170  33.963225     2.4153      7.256   254.3435 3.9640e+01    11.3121      0.626      0.909    17.2717   998.7496 0.0000e+00
      0.649      0.031     5.2134     77.416     40.148  33.944858     2.3263      7.253   254.4745 3.8786e+01    11.0246      0.637      0.924    17.2709   998.7498 0.0000e+00
      0.656      0.028     5.2115     77.426     40.127  33.926500     2.2798      7.250   254.5236 3.8276e+01    10.8877      0.645      0.935    17.2711   998.7497 0.0000e+00
      0.661      0.026     5.2070     77.463     40.133  33.931655     2.2776      7.248   254.5933 3.7934e+01    10.8687      0.648      0.939    17.2711   998.7498 0.0000e+00
      0.667      0.023     5.2069     77.510     40.148  33.943715     2.2728      7.248   254.7158 3.7536e+01    10.7625      0.653      0.948    17.2710   998.7498 0.0000e+00
      0.673      0.021     5.2046     77.539     40.150  33.945378     2.2734      7.248   254.8861 3.7087e+01    10.5861      0.661      0.959    17.2709   998.7499 0.0000e+00
      0.679      0.020     5.2054     77.514     40.157  33.951771     2.2852      7.248   255.0180 3.6784e+01    10.4405      0.666      0.966    17.2707   998.7499 0.0000e+00
      0.683      0.020     5.2086     77.449     40.164  33.957548     2.2951      7.248   254.9339 3.6588e+01    10.3782      0.670      0.971    17.2702   998.7500 0.0000e+00
      0.687      0.020     5.2119     77.399     40.157  33.951761     2.2976      7.247   254.8149 3.6291e+01    10.3576      0.673      0.976    17.2698   998.7501 0.0000e+00
      0.692      0.019     5.2158     77.354     40.150  33.945263     2.2889      7.246   254.8708 3.5773e+01    10.3221      0.678      0.983    17.2695   998.7502 0.0000e+00
      0.698      0.018     5.2136     77.295     40.147  33.942443     2.2857      7.246   254.9212 3.5247e+01    10.3098      0.685      0.993    17.2694   998.7502 0.0000e+00
      0.704      0.018     5.2068     77.260     40.118  33.917674     2.2928      7.246   254.9080 3.4942e+01    10.3394      0.692      1.003    17.2695   998.7503 0.0000e+00
      0.708      0.018     5.2042     77.255     40.098  33.899636     2.2973      7.245   254.8832 3.4727e+01    10.3528      0.695      1.009    17.2694   998.7503 0.0000e+00
      0.711      0.018     5.2029     77.260     40.115  33.914741     2.3056      7.245   254.8796 3.4437e+01    10.3733      0.698      1.012    17.2691   998.7504 0.0000e+00
      0.714      0.018     5.1963     77.275     40.109  33.909917     2.3239      7.244   254.9496 3.4048e+01    10.3908      0.700      1.015    17.2685   998.7505 0.0000e+00
      0.719      0.019     5.1944     77.285     40.104  33.904772     2.3441      7.243   255.0417 3.3536e+01    10.3678      0.704      1.021    17.2679   998.7506 0.0000e+00
      0.726      0.022     5.1953     77.275     40.118  33.915999     2.3592      7.243   255.1335 3.3010e+01    10.3569      0.712      1.032    17.2677   998.7506 0.0000e+00
      0.733      0.026     5.1944     77.259     40.122  33.918730     2.3516      7.242   255.2848 3.2643e+01    10.4556      0.719      1.043    17.2677   998.7507 0.0000e+00
      0.738      0.028     5.1968     77.271     40.145  33.937800     2.3207      7.241   255.4080 3.2256e+01    10.6444      0.724      1.050    17.2675   998.7507 0.0000e+00
      0.745      0.029     5.1976     77.316     40.168  33.956166     2.2976      7.239   255.5045 3.1697e+01    10.7718      0.730      1.058    17.2669   998.7509 0.0000e+00
      0.754      0.029     5.1970     77.377     40.161  33.950397     2.2972      7.238   255.5905 3.1103e+01    10.8148      0.739      1.072    17.2658   998.7511 0.0000e+00
      0.763      0.030     5.1948     77.450     40.140  33.931511     2.3419      7.238   255.5881 3.0562e+01    10.8693      0.749      1.086    17.2649   998.7513 0.0000e+00
      0.771      0.030     5.1953     77.492     40.125  33.918212     2.4224      7.237   255.5614 3.0101e+01    10.9728      0.756      1.096    17.2642   998.7516 0.0000e+00
      0.777      0.030     5.2000     77.490     40.123  33.916529     2.4732      7.236   255.5263 2.9689e+01    11.0832      0.761      1.105    17.2633   998.7517 0.0000e+00
      0.784      0.030     5.2024     77.462     40.117  33.911165     2.4878      7.236   255.4209 2.9249e+01    11.1551      0.768      1.114    17.2631   998.7517 0.0000e+00
      0.792      0.030     5.2099     77.415     40.124  33.916821     2.4780      7.234   255.3204 2.8757e+01    11.0886      0.777      1.127    17.2626   998.7519 0.0000e+00
      0.800      0.031     5.2130     77.363     40.130  33.921451     2.4412      7.232   255.3425 2.8197e+01    10.9018      0.784      1.137    17.2617   998.7520 0.0000e+00
      0.809      0.031     5.2117     77.331     40.109  33.903679     2.4154      7.232   255.3450 2.7634e+01    10.7980      0.794      1.150    17.2611   998.7522 0.0000e+00
      0.818      0.031     5.2104     77.324     40.096  33.892330     2.4170      7.232   255.3500 2.7144e+01    10.8169      0.803      1.164    17.2609   998.7523 0.0000e+00
      0.825      0.032     5.2066     77.314     40.119  33.911169     2.4269      7.231   255.4890 2.6680e+01    10.8347      0.809      1.173    17.2608   998.7523 0.0000e+00
      0.832      0.035     5.2028     77.314     40.155  33.941062     2.4565      7.229   255.5638 2.6238e+01    10.9805      0.816      1.183    17.2606   998.7524 0.0000e+00
      0.838      0.039     5.1996     77.342     40.150  33.936427     2.5065      7.227   255.5660 2.5772e+01    11.3020      0.822      1.192    17.2603   998.7525 0.0000e+00
      0.848      0.041     5.2015     77.363     40.129  33.918598     2.5281      7.224   255.6011 2.5052e+01    11.4760      0.830      1.204    17.2596   998.7526 0.0000e+00
      0.862      0.043     5.1998     77.349     40.126  33.915885     2.5273      7.220   255.6442 2.4199e+01    11.4786      0.845      1.225    17.2587   998.7529 0.0000e+00
      0.877      0.043     5.1988     77.301     40.111  33.903627     2.5231      7.218   255.6569 2.3489e+01    11.3669      0.861      1.249    17.2582   998.7531 0.0000e+00
      0.889      0.044     5.2023     77.239     40.104  33.897319     2.5023      7.215   255.6688 2.2939e+01    11.1739      0.872      1.265    17.2580   998.7531 0.0000e+00
      0.898      0.044     5.2042     77.191     40.112  33.903088     2.4845      7.211   255.7878 2.2545e+01    11.0793      0.881      1.278    17.2581   998.7531 0.0000e+00
      0.906      0.044     5.2033     77.183     40.120  33.909907     2.4813      7.209   255.8908 2.2113e+01    11.0421      0.888      1.288    17.2583   998.7531 0.0000e+00
      0.916      0.045     5.1994     77.186     40.129  33.916292     2.5423      7.207   255.7961 2.1509e+01    11.1826      0.896      1.300    17.2581   998.7532 0.0000e+00
      0.929      0.046     5.1949     77.172     40.133  33.916830     2.6658      7.203   255.6750 2.0860e+01    11.5327      0.911      1.321    17.2579   998.7533 0.0000e+00
      0.944      0.049     5.1903     77.145     40.137  33.916405     2.7265      7.199   255.7173 2.0229e+01    11.7033      0.925      1.343    17.2571   998.7536 0.0000e+00
      0.958      0.051     5.1913     77.093     40.134  33.911155     2.7131      7.196   255.7056 1.9669e+01    11.6728      0.939      1.362    17.2561   998.7538 0.0000e+00
      0.970      0.052     5.1925     76.997     40.143  33.916811     2.6343      7.193   255.6198 1.9109e+01    11.4249      0.951      1.378    17.2552   998.7539 0.0000e+00
      0.982      0.053     5.1912     76.867     40.150  33.921322     2.5016      7.190   255.7976 1.8468e+01    10.9352      0.962      1.395    17.2515   998.7547 0.0000e+00
      0.996      0.055     5.1905     76.726     40.129  33.902235     2.4351      7.185   256.1348 1.7898e+01    10.6352      0.977      1.417    17.2459   998.7557 0.0000e+00
      1.009      0.060     5.1882     76.587     40.100  33.876425     2.4373      7.179   256.2554 1.7398e+01    10.6159      0.990      1.436    17.2423   998.7564 0.0000e+00
      1.023      0.064     5.1815     76.465     40.086  33.863108     2.5367      7.174   256.1371 1.6799e+01    10.7669      1.002      1.453    17.2404   998.7568 0.0000e+00
      1.040      0.067     5.1720     76.362     40.094  33.868140     2.7266      7.172   255.9954 1.6070e+01    10.9859      1.018      1.478    17.2388   998.7572 0.0000e+00
      1.061      0.069     5.1630     76.295     40.104  33.873795     2.8254      7.172   256.0044 1.5326e+01    11.0689      1.041      1.510    17.2376   998.7575 0.0000e+00
      1.082      0.070     5.1528     76.295     40.100  33.868015     2.8387      7.171   256.1603 1.4741e+01    11.0820      1.064      1.542    17.2361   998.7579 0.0000e+00
      1.100      0.072     5.1451     76.324     40.094  33.861724     2.8437      7.168   256.2454 1.4327e+01    11.0790      1.081      1.568    17.2338   998.7584 0.0000e+00
      1.114      0.074     5.1384     76.319     40.095  33.861195     2.7646      7.166   256.2591 1.3897e+01    11.0979      1.092      1.585    17.2313   998.7587 0.0000e+00
      1.130      0.074     5.1324     76.270     40.096  33.861611     2.6200      7.164   256.3265 1.3367e+01    11.2128      1.106      1.604    17.2281   998.7594 0.0000e+00
      1.150      0.072     5.1340     76.195     40.102  33.866756     2.5516      7.162   256.3705 1.2752e+01    11.2881      1.127      1.634    17.2248   998.7602 0.0000e+00
      1.174      0.067     5.1389     76.096     40.094  33.859937     2.5615      7.158   256.3614 1.2135e+01    11.2541      1.151      1.669    17.2230   998.7605 0.0000e+00
      1.196      0.059     5.1377     75.968     40.074  33.842630     2.6792      7.157   256.3026 1.1700e+01    10.8011      1.176      1.705    17.2221   998.7608 0.0000e+00
      1.212      0.049     5.1347     75.855     40.080  33.847890     2.8997      7.155   256.2630 1.1461e+01     9.9740      1.192      1.729    17.2214   998.7610 0.0000e+00
      1.221      0.035     5.1284     75.770     40.094  33.860072     3.0244      7.155   256.3120 1.1328e+01     9.5447      1.199      1.739    17.2209   998.7611 0.0000e+00
      1.225      0.023     5.1238     75.741     40.097  33.862994     3.0426      7.158   256.2926 1.1245e+01     9.5099      1.202      1.743    17.2208   998.7612 0.0000e+00
      1.227      0.014     5.1124     75.827     40.121  33.883214     3.0511      7.162   256.2004 1.1178e+01     9.4883      1.203      1.745    17.2210   998.7611 0.0000e+00
      1.227      0.011     5.1047     75.946     40.158  33.914160     3.0586      7.166   256.2302 1.1158e+01     9.4799      1.205      1.747    17.2212   998.7611 0.0000e+00
      1.227      0.013     5.1005     76.037     40.164  33.919825     3.0716      7.169   256.3092 1.1149e+01     9.4741      1.203      1.745    17.2214   998.7611 0.0000e+00
      1.228      0.021     5.0927     76.126     40.126  33.888255     3.0697      7.172   256.2947 1.1062e+01     9.4841      1.204      1.746    17.2217   998.7610 0.0000e+00
      1.232      0.031     5.1041     76.200     40.081  33.849770     2.9321      7.175   256.3122 1.0888e+01     9.6332      1.208      1.751    17.2222   998.7610 0.0000e+00
      1.241      0.045     5.1132     76.235     40.064  33.835310     2.6817      7.175   256.4352 1.0611e+01     9.9328      1.215      1.762    17.2224   998.7610 0.0000e+00
      1.255      0.058     5.1171     76.222     40.070  33.840342     2.5478      7.174   256.4914 1.0261e+01    10.1250      1.230      1.784    17.2226   998.7610 0.0000e+00
      1.273      0.068     5.1244     76.180     40.079  33.847142     2.5443      7.172   256.5618 9.8611e+00    10.1541      1.247      1.809    17.2227   998.7611 0.0000e+00
      1.295      0.075     5.1299     76.158     40.087  33.854065     2.6051      7.169   256.6839 9.3776e+00    10.2193      1.268      1.840    17.2225   998.7612 0.0000e+00
      1.319      0.076     5.1322     76.166     40.095  33.860572     2.7096      7.167   256.6765 8.9443e+00    10.3237      1.295      1.880    17.2222   998.7614 0.0000e+00
      1.341      0.074     5.1319     76.190     40.098  33.862359     2.7678      7.167   256.6448 8.6235e+00    10.3674      1.316      1.908    17.2218   998.7615 0.0000e+00
      1.360      0.069     5.1263     76.181     40.113  33.875667     2.7803      7.166   256.7317 8.3167e+00    10.3876      1.334      1.934    17.2212   998.7617 0.0000e+00
      1.376      0.065     5.1258     76.138     40.136  33.894554     2.7828      7.164   256.8662 8.0812e+00    10.4045      1.351      1.959    17.2207   998.7619 0.0000e+00
      1.388      0.063     5.1259     76.153     40.143  33.900325     2.7805      7.163   256.8938 7.9125e+00    10.4073      1.361      1.974    17.2212   998.7619 0.0000e+00
      1.400      0.061     5.1290     76.211     40.122  33.881973     2.7788      7.163   256.8942 7.6692e+00    10.3888      1.370      1.988    17.2212   998.7619 0.0000e+00
      1.417      0.061     5.1304     76.246     40.100  33.863057     2.7704      7.164   256.8709 7.3563e+00    10.3446      1.388      2.014    17.2209   998.7620 0.0000e+00
      1.436      0.062     5.1218     76.268     40.099  33.862008     2.7659      7.164   256.7841 7.0805e+00    10.3320      1.409      2.043    17.2206   998.7622 0.0000e+00
      1.453      0.065     5.1248     76.293     40.108  33.869290     2.7513      7.163   256.8772 6.8712e+00    10.3016      1.426      2.069    17.2203   998.7623 0.0000e+00
      1.468      0.067     5.1313     76.321     40.131  33.887634     2.7054      7.161   257.0506 6.6766e+00    10.2062      1.439      2.087    17.2199   998.7624 0.0000e+00
      1.483      0.068     5.1324     76.361     40.139  33.893412     2.6624      7.160   257.0729 6.4506e+00    10.1290      1.453      2.107    17.2192   998.7627 0.0000e+00
      1.500      0.069     5.1334     76.382     40.120  33.875679     2.6479      7.158   257.0613 6.1936e+00    10.1211      1.471      2.133    17.2184   998.7629 0.0000e+00
      1.520      0.071     5.1361     76.351     40.108  33.863621     2.6860      7.156   257.0830 5.9474e+00    10.3081      1.491      2.163    17.2179   998.7630 0.0000e+00
      1.539      0.074     5.1368     76.280     40.122  33.874546     2.7586      7.154   257.1620 5.7442e+00    10.6522      1.510      2.190    17.2176   998.7632 0.0000e+00
      1.557      0.077     5.1407     76.150     40.131  33.880836     2.7881      7.152   257.3284 5.5599e+00    10.8092      1.527      2.214    17.2157   998.7635 0.0000e+00
      1.576      0.078     5.1441     75.934     40.127  33.876210     2.7744      7.147   257.3743 5.3445e+00    10.7635      1.544      2.239    17.2133   998.7641 0.0000e+00
      1.597      0.076     5.1406     75.672     40.134  33.882074     2.7234      7.142   257.2870 5.0989e+00    10.5918      1.565      2.270    17.2115   998.7645 0.0000e+00
      1.619      0.072     5.1366     75.436     40.141  33.888278     2.6481      7.137   257.2190 4.8695e+00    10.3061      1.588      2.304    17.2101   998.7648 0.0000e+00
      1.640      0.066     5.1298     75.263     40.141  33.887758     2.6092      7.135   257.2409 4.6731e+00    10.1602      1.610      2.334    17.2088   998.7653 0.0000e+00
      1.658      0.059     5.1137     75.138     40.126  33.875784     2.5992      7.135   257.2938 4.5263e+00    10.1390      1.629      2.362    17.2075   998.7655 0.0000e+00
      1.669      0.054     5.0941     75.027     40.120  33.870430     2.6052      7.137   257.3428 4.4431e+00    10.0160      1.638      2.376    17.2070   998.7656 0.0000e+00
      1.676      0.049     5.0773     74.928     40.139  33.886491     2.6310      7.138   257.4888 4.3661e+00     9.8205      1.642      2.381    17.2069   998.7657 0.0000e+00
      1.686      0.045     5.0659     74.876     40.132  33.879577     2.6509      7.136   257.5953 4.2577e+00     9.7080      1.652      2.397    17.2069   998.7657 0.0000e+00
      1.699      0.043     5.0590     74.889     40.097  33.850294     2.6550      7.134   257.5983 4.1281e+00     9.7051      1.666      2.417    17.2073   998.7657 0.0000e+00
      1.714      0.041     5.0516     74.949     40.097  33.849764     2.6465      7.134   257.5248 3.9977e+00     9.7198      1.681      2.438    17.2076   998.7657 0.0000e+00
      1.726      0.040     5.0435     75.024     40.125  33.873162     2.6515      7.135   257.4809 3.9141e+00     9.6565      1.695      2.459    17.2073   998.7659 0.0000e+00
      1.735      0.039     5.0396     75.084     40.133  33.879338     2.6885      7.138   257.5846 3.8688e+00     9.5305      1.702      2.469    17.2066   998.7660 0.0000e+00
      1.741      0.039     5.0414     75.135     40.111  33.860969     2.7223      7.141   257.6600 3.8191e+00     9.4739      1.707      2.475    17.2058   998.7661 0.0000e+00
      1.747      0.042     5.0461     75.197     40.088  33.841467     2.7299      7.144   257.6184 3.7626e+00     9.4968      1.713      2.484    17.2056   998.7662 0.0000e+00
      1.756      0.049     5.0521     75.237     40.079  33.833929     2.7372      7.145   257.5977 3.6947e+00     9.6108      1.721      2.496    17.2056   998.7663 0.0000e+00
      1.770      0.056     5.0563     75.236     40.079  33.833295     2.7588      7.145   257.5819 3.5878e+00     9.8027      1.734      2.515    17.2055   998.7663 0.0000e+00
      1.789      0.062     5.0580     75.211     40.081  33.833795     2.7742      7.143   257.5138 3.4507e+00     9.8833      1.754      2.544    17.2053   998.7665 0.0000e+00
      1.808      0.065     5.0641     75.152     40.090  33.839980     2.7757      7.140   257.4621 3.3214e+00     9.8982      1.773      2.572    17.2048   998.7666 0.0000e+00
      1.827      0.066     5.0677     75.097     40.097  33.844605     2.7247      7.140   257.5588 3.1967e+00     9.9824      1.793      2.599    17.2047   998.7667 0.0000e+00
      1.845      0.064     5.0655     75.089     40.077  33.826248     2.6351      7.139   257.7365 3.0909e+00    10.1154      1.812      2.627    17.2042   998.7669 0.0000e+00
      1.860      0.060     5.0661     75.122     40.058  33.808419     2.6034      7.138   257.7181 3.0193e+00    10.2277      1.825      2.647    17.2027   998.7672 0.0000e+00
      1.872      0.056     5.0604     75.192     40.073  33.819427     2.6096      7.136   257.6802 2.9433e+00    10.2258      1.835      2.662    17.2004   998.7677 0.0000e+00
      1.886      0.053     5.0553     75.266     40.090  33.832422     2.5799      7.134   257.7941 2.8526e+00    10.0590      1.850      2.683    17.1988   998.7681 0.0000e+00
      1.900      0.052     5.0564     75.306     40.098  33.838598     2.5224      7.133   257.8901 2.7675e+00     9.8177      1.864      2.704    17.1975   998.7683 0.0000e+00
      1.913      0.054     5.0578     75.320     40.090  33.830634     2.4868      7.133   257.9814 2.6948e+00     9.7002      1.877      2.722    17.1952   998.7688 0.0000e+00
      1.925      0.057     5.0641     75.339     40.055  33.799603     2.4873      7.133   258.0369 2.6235e+00     9.7199      1.888      2.738    17.1931   998.7692 0.0000e+00
      1.938      0.060     5.0703     75.373     40.035  33.780727     2.5885      7.130   257.9602 2.5410e+00     9.8921      1.899      2.754    17.1917   998.7695 0.0000e+00
      1.953      0.061     5.0727     75.396     40.052  33.792796     2.7833      7.125   257.9141 2.4469e+00    10.2095      1.914      2.776    17.1908   998.7697 0.0000e+00
      1.972      0.060     5.0730     75.414     40.086  33.818588     2.9008      7.122   257.9955 2.3474e+00    10.4106      1.934      2.805    17.1897   998.7700 0.0000e+00
      1.992      0.057     5.0734     75.434     40.112  33.838714     2.9156      7.121   258.0837 2.2562e+00    10.4233      1.954      2.834    17.1876   998.7705 0.0000e+00
      2.009      0.054     5.0782     75.454     40.121  33.845741     2.9021      7.122   258.1206 2.1997e+00    10.3623      1.972      2.860    17.1853   998.7710 0.0000e+00
      2.020      0.050     5.0787     75.469     40.115  33.840087     2.8594      7.124   258.0976 2.1799e+00    10.2311      1.982      2.876    17.1822   998.7716 0.0000e+00
      2.027      0.046     5.0805     75.451     40.107  33.833807     2.7979      7.126   258.0632 2.1628e+00    10.0492      1.986      2.881    17.1781   998.7723 0.0000e+00
      2.036      0.044     5.0827     75.411     40.107  33.833278     2.7731      7.127   258.0497 2.1204e+00     9.9328      1.996      2.895    17.1754   998.7728 0.0000e+00
      2.048      0.043     5.0832     75.376     40.108  33.833694     2.7851      7.129   258.0201 2.0564e+00     9.9382      2.008      2.913    17.1743   998.7731 0.0000e+00
      2.062      0.044     5.0865     75.364     40.114  33.838839     2.8048      7.129   258.0493 1.9923e+00     9.9173      2.022      2.932    17.1743   998.7732 0.0000e+00
      2.075      0.047     5.0838     75.382     40.107  33.832021     2.8292      7.130   258.1443 1.9479e+00     9.7793      2.036      2.953    17.1746   998.7732 0.0000e+00
      2.085      0.049     5.0808     75.404     40.087  33.814717     2.8463      7.130   258.2220 1.9188e+00     9.6785      2.044      2.964    17.1744   998.7733 0.0000e+00
      2.095      0.052     5.0780     75.415     40.095  33.820015     2.8553      7.129   258.3008 1.8681e+00     9.6824      2.053      2.976    17.1743   998.7733 0.0000e+00
      2.108      0.055     5.0766     75.443     40.110  33.832604     2.8426      7.127   258.3237 1.8012e+00     9.7934      2.067      2.998    17.1734   998.7736 0.0000e+00
      2.123      0.058     5.0790     75.473     40.120  33.839999     2.8143      7.124   258.2407 1.7473e+00    10.0038      2.082      3.019    17.1726   998.7738 0.0000e+00
      2.140      0.061     5.0816     75.469     40.128  33.845961     2.7998      7.124   258.1577 1.6946e+00    10.1287      2.097      3.042    17.1720   998.7739 0.0000e+00
      2.158      0.066     5.0806     75.444     40.123  33.841232     2.7873      7.123   258.0940 1.6393e+00    10.1238      2.116      3.071    17.1712   998.7741 0.0000e+00
      2.174      0.070     5.0829     75.376     40.129  33.846283     2.7758      7.122   258.0735 1.5943e+00    10.1085      2.134      3.094    17.1700   998.7744 0.0000e+00
      2.189      0.074     5.0876     75.263     40.126  33.843560     2.7748      7.120   258.0813 1.5418e+00    10.1076      2.145      3.111    17.1688   998.7747 0.0000e+00
      2.207      0.076     5.0849     75.159     40.086  33.808310     2.7746      7.118   258.1014 1.4638e+00    10.1127      2.162      3.136    17.1679   998.7749 0.0000e+00
      2.231      0.079     5.0852     75.072     40.078  33.800867     2.7726      7.116   258.2318 1.3882e+00    10.1053      2.189      3.174    17.1677   998.7751 0.0000e+00
      2.254      0.083     5.0810     74.992     40.100  33.817031     2.7766      7.113   258.3667 1.3397e+00    10.0505      2.213      3.209    17.1673   998.7753 0.0000e+00
      2.274      0.087     5.0707     74.951     40.101  33.813341     2.7888      7.111   258.4419 1.2980e+00     9.9748      2.231      3.235    17.1670   998.7754 0.0000e+00
      2.294      0.091     5.0642     74.959     40.115  33.819716     2.7903      7.109   258.5393 1.2471e+00     9.9441      2.247      3.260    17.1662   998.7756 0.0000e+00
      2.317      0.093     5.0595     74.998     40.133  33.830638     2.7776      7.106   258.5982 1.1947e+00     9.9420      2.270      3.292    17.1645   998.7760 0.0000e+00
      2.342      0.093     5.0526     75.063     40.121  33.818466     2.7733      7.103   258.5512 1.1295e+00     9.9163      2.297      3.331    17.1631   998.7764 0.0000e+00
      2.368      0.090     5.0500     75.110     40.101  33.799476     2.7828      7.102   258.5735 1.0495e+00     9.8628      2.322      3.368    17.1570   998.7775 0.0000e+00
      2.395      0.082     5.0533     75.084     40.093  33.791418     2.7881      7.102   258.6956 9.8600e-01     9.7857      2.350      3.408    17.1473   998.7793 0.0000e+00
      2.420      0.072     5.0552     74.994     40.085  33.784496     2.7853      7.103   258.6510 9.5261e-01     9.7058      2.377      3.447    17.1429   998.7803 0.0000e+00
      2.436      0.062     5.0611     74.884     40.078  33.779247     2.7831      7.105   258.5502 9.3541e-01     9.6837      2.392      3.469    17.1415   998.7807 0.0000e+00
      2.446      0.053     5.0667     74.765     40.093  33.791418     2.7532      7.107   258.5954 9.2786e-01     9.8780      2.399      3.479    17.1385   998.7812 0.0000e+00
      2.453      0.048     5.0644     74.650     40.109  33.804726     2.6931      7.107   258.6809 9.2221e-01    10.2195      2.405      3.488    17.1366   998.7815 0.0000e+00
      2.462      0.049     5.0569     74.556     40.121  33.813222     2.6628      7.106   258.8101 8.9831e-01    10.3720      2.413      3.499    17.1366   998.7816 0.0000e+00
      2.474      0.055     5.0495     74.489     40.144  33.830679     2.6638      7.104   258.9527 8.5812e-01    10.3127      2.425      3.517    17.1369   998.7816 0.0000e+00
      2.489      0.065     5.0414     74.458     40.142  33.825395     2.6615      7.101   259.0279 8.1948e-01    10.1252      2.440      3.539    17.1372   998.7816 0.0000e+00
      2.507      0.075     5.0326     74.429     40.132  33.812795     2.6614      7.097   259.1174 7.9528e-01     9.8750      2.456      3.563    17.1369   998.7817 0.0000e+00
      2.528      0.085     5.0272     74.364     40.204  33.868721     2.6632      7.094   259.2609 7.6932e-01     9.7453      2.477      3.592    17.1350   998.7822 0.0000e+00
      2.553      0.095     5.0218     74.263     40.362  33.993875     2.6563      7.091   259.3856 7.2952e-01     9.7038      2.502      3.629    17.1325   998.7828 0.0000e+00
      2.579      0.105     5.0212     74.106     40.535  34.120166     2.6217      7.089   259.5073 6.9507e-01     9.6682      2.529      3.669    17.1285   998.7835 0.0000e+00
      2.604      0.113     5.0216     73.854     40.660  34.189824     2.5665      7.088   259.6139 6.5827e-01     9.6752      2.553      3.703    17.1228   998.7847 0.0000e+00
      2.633      0.118     5.0165     73.493     40.726  34.201397     2.5431      7.087   259.6423 6.0936e-01     9.6903      2.579      3.740    17.1178   998.7857 0.0000e+00
      2.667      0.118     5.0114     73.015     40.763  34.196571     2.5476      7.087   259.6780 5.5919e-01     9.6541      2.614      3.792    17.1117   998.7869 0.0000e+00
      2.702      0.113     5.0037     72.404     40.788  34.194886     2.5159      7.087   259.7015 5.2154e-01     9.3028      2.651      3.846    17.0929   998.7905 0.0000e+00
      2.735      0.103     4.9924     71.685     40.783  34.181001     2.4545      7.087   259.6679 4.9983e-01     8.6879      2.685      3.893    17.0435   998.7994 0.0000e+00
      2.761      0.088     4.9740     70.919     40.758  34.155610     2.4302      7.086   259.6167 4.7774e-01     8.3804      2.710      3.930    16.9805   998.8104 0.0000e+00
      2.781      0.071     4.9478     70.179     40.746  34.141748     2.4299      7.086   259.5990 4.5519e-01     8.3706      2.728      3.957    16.9359   998.8182 0.0000e+00
      2.795      0.057     4.9080     69.554     40.747  34.140319     2.4244      7.086   259.6250 4.4388e-01     8.3723      2.742      3.978    16.9085   998.8230 0.0000e+00
      2.803      0.047     4.8585     69.103     40.744  34.138332     2.4684      7.087   259.5868 4.4647e-01     8.4666      2.751      3.990    16.8993   998.8246 0.0000e+00
      2.808      0.042     4.8058     68.867     40.718  34.117721     2.5628      7.088   259.5668 4.4784e-01     8.6594      2.753      3.993    16.8970   998.8250 0.0000e+00
      2.816      0.042     4.7529     68.828     40.677  34.081514     2.6213      7.088   259.6413 4.3275e-01     8.7698      2.758      4.001    16.8916   998.8260 0.0000e+00
      2.828      0.043     4.7107     68.939     40.685  34.081342     2.6285      7.089   259.6275 4.1159e-01     8.7853      2.773      4.022    16.8886   998.8266 0.0000e+00
      2.843      0.046     4.6779     69.156     40.738  34.115637     2.6594      7.089   259.4868 3.9119e-01     8.7488      2.789      4.044    16.8874   998.8269 0.0000e+00
      2.857      0.051     4.6626     69.438     40.750  34.115367     2.7342      7.089   259.3160 3.7870e-01     8.6232      2.803      4.065    16.8934   998.8259 0.0000e+00
      2.869      0.055     4.6613     69.739     40.715  34.078067     2.7791      7.088   259.1117 3.8483e-01     8.5445      2.815      4.083    16.8922   998.8262 0.0000e+00
      2.879      0.058     4.6706     69.990     40.685  34.045432     2.7766      7.087   258.9100 3.7725e-01     8.5842      2.823      4.094    16.8811   998.8281 0.0000e+00
      2.893      0.060     4.6879     70.153     40.685  34.038097     2.7211      7.087   258.7701 3.4364e-01     8.7093      2.834      4.109    16.8695   998.8302 0.0000e+00
      2.913      0.061     4.7087     70.249     40.705  34.052823     2.6124      7.087   258.7103 3.2400e-01     8.8774      2.856      4.143    16.8536   998.8330 0.0000e+00
      2.934      0.064     4.7327     70.316     40.683  34.033086     2.5460      7.087   258.7029 3.1048e-01     8.9450      2.880      4.178    16.8440   998.8347 0.0000e+00
      2.949      0.066     4.7513     70.376     40.638  33.989860     2.5339      7.087   258.6804 2.9369e-01     8.9360      2.893      4.196    16.8370   998.8360 0.0000e+00
      2.961      0.066     4.7628     70.443     40.633  33.974435     2.4741      7.086   258.5250 2.8247e-01     8.7364      2.903      4.210    16.8251   998.8380 0.0000e+00
      2.976      0.061     4.7683     70.528     40.646  33.973498     2.3597      7.085   258.2863 2.6812e-01     8.3022      2.918      4.232    16.8234   998.8385 0.0000e+00
      2.995      0.055     4.7722     70.647     40.661  33.978521     2.2957      7.084   258.2033 2.5286e-01     8.0443      2.937      4.260    16.8270   998.8379 0.0000e+00
      3.014      0.048     4.7767     70.806     40.655  33.971691     2.2900      7.082   258.2102 2.3764e-01     8.0106      2.958      4.289    16.8189   998.8393 0.0000e+00
      3.028      0.040     4.7827     70.992     40.631  33.954381     2.2210      7.080   258.1976 2.3636e-01     7.7635      2.973      4.312    16.8033   998.8421 0.0000e+00
      3.035      0.030     4.7896     71.171     40.633  33.959626     2.0767      7.080   258.1359 2.4431e-01     7.2529      2.978      4.320    16.7864   998.8450 0.0000e+00
      3.038      0.021     4.7987     71.325     40.642  33.971641     1.9933      7.081   257.9809 2.3873e-01     6.9490      2.979      4.320    16.7753   998.8469 0.0000e+00
      3.039      0.014     4.8095     71.449     40.637  33.972732     1.9850      7.081   257.8723 2.3203e-01     6.9415      2.980      4.322    16.7757   998.8469 0.0000e+00
      3.040      0.011     4.8230     71.500     40.634  33.972822     1.9843      7.080   257.8562 2.3512e-01     6.9653      2.981      4.324    16.7797   998.8462 0.0000e+00
      3.043 -9.990e-29     4.8352 -9.990e-29 -9.990e-29 -9.990e-29 -9.990e-29 -9.990e-29 -9.990e-29 2.4045e-01 -9.990e-29      2.984      4.328    16.7843   998.8454 0.0000e+00
      3.045 -9.990e-29     4.8443 -9.990e-29 -9.990e-29 -9.990e-29 -9.990e-29 -9.990e-29 -9.990e-29 2.3981e-01 -9.990e-29      2.987      4.332    16.7899   998.8445 0.0000e+00
      3.047 -9.990e-29     4.8538 -9.990e-29 -9.990e-29 -9.990e-29 -9.990e-29 -9.990e-29 -9.990e-29 2.3366e-01 -9.990e-29      2.988      4.335    16.7973   998.8433 0.0000e+00
      3.048 -9.990e-29     4.8578 -9.990e-29 -9.990e-29 -9.990e-29 -9.990e-29 -9.990e-29 -9.990e-29 2.3062e-01 -9.990e-29      2.990      4.337    16.8021   998.8424 0.0000e+00
