* Sea-Bird SBE19plus  Data File:
* FileName = C:\DATA\103019_fcr50_0001.hex
* Software version 2.8.0.119 SB_Terminal.dll
* Temperature SN = 7809
* Conductivity SN = 7809
* System UpLoad Time = Oct 30 2019 09:53:05
* <ApplicationData>
* <Seaterm232>
* <SoftwareVersion>2.8.0.119</SoftwareVersion>
* <BuildDate>07-Nov-2018</BuildDate>
* </Seaterm232>
* </ApplicationData>
* cast   1 30 Oct 2019 09:39:08 samples 1 to 1352, avg = 1, stop = mag switch
# nquan = 16
# nvalues = 976                         
# units = specified
# name 0 = depFM: Depth [fresh water, m]
# name 1 = dz/dtM: Descent Rate [m/s]
# name 2 = sbeox0ML/L: Oxygen, SBE 43 [ml/l]
# name 3 = sbeox0PS: Oxygen, SBE 43 [% saturation]
# name 4 = specc: Specific Conductance [uS/cm]
# name 5 = c0uS/cm: Conductivity [uS/cm]
# name 6 = flECO-AFL: Fluorescence, WET Labs ECO-AFL/FL [mg/m^3]
# name 7 = ph: pH
# name 8 = orp: Oxidation Reduction Potential [mV]
# name 9 = par/sat/log: PAR/Logarithmic, Satlantic
# name 10 = turbWETntu0: Turbidity, WET Labs ECO [NTU]
# name 11 = prdM: Pressure, Strain Gauge [db]
# name 12 = prdE: Pressure, Strain Gauge [psi]
# name 13 = tv290C: Temperature [ITS-90, deg C]
# name 14 = density00: Density [density, kg/m^3]
# name 15 = flag:  0.000e+00
# span 0 =     -0.517,      9.806       
# span 1 =     -0.115,      0.231       
# span 2 =     4.1967,     7.8517       
# span 3 =     58.302,    111.813       
# span 4 =      0.156,    139.569       
# span 5 =   0.128510, 108.176916       
# span 6 =    -0.1542,     5.7712       
# span 7 =      6.505,      8.592       
# span 8 =   124.3861,  1240.2295       
# span 9 = 1.2353e-01, 2.5570e+01       
# span 10 =    -0.5728,    14.9327      
# span 11 =     -0.507,      9.617      
# span 12 =     -0.735,     13.948      
# span 13 =    13.7465,    16.1986      
# span 14 =   998.9160,   999.3796      
# span 15 = 0.0000e+00, 0.0000e+00      
# interval = seconds: 0.25
# start_time = Oct 30 2019 09:39:08 [Instrument's time stamp, header]
# bad_flag = -9.990e-29
# <Sensors count="9" >
#   <sensor Channel="1" >
#     <!-- Count, Temperature -->
#     <TemperatureSensor SensorID="58" >
#       <SerialNumber>7809</SerialNumber>
#       <CalibrationDate>24-Mar-19</CalibrationDate>
#       <A0>1.21792325e-003</A0>
#       <A1>2.81669265e-004</A1>
#       <A2>-1.60333336e-006</A2>
#       <A3>1.98414625e-007</A3>
#       <Slope>1.00000000</Slope>
#       <Offset>0.0000</Offset>
#     </TemperatureSensor>
#   </sensor>
#   <sensor Channel="2" >
#     <!-- Frequency 0, Conductivity -->
#     <ConductivitySensor SensorID="3" >
#       <SerialNumber>7809</SerialNumber>
#       <CalibrationDate>24-Mar-19</CalibrationDate>
#       <UseG_J>1</UseG_J>
#       <!-- Cell const and series R are applicable only for wide range sensors. -->
#       <SeriesR>0.0000</SeriesR>
#       <CellConst>2000.0000</CellConst>
#       <ConductivityType>0</ConductivityType>
#       <Coefficients equation="0" >
#         <A>0.00000000e+000</A>
#         <B>0.00000000e+000</B>
#         <C>0.00000000e+000</C>
#         <D>0.00000000e+000</D>
#         <M>0.0</M>
#         <CPcor>-9.57000000e-008</CPcor>
#       </Coefficients>
#       <Coefficients equation="1" >
#         <G>-1.00589325e+000</G>
#         <H>1.26816302e-001</H>
#         <I>-1.51560448e-004</I>
#         <J>2.67137274e-005</J>
#         <CPcor>-9.57000000e-008</CPcor>
#         <CTcor>3.2500e-006</CTcor>
#         <!-- WBOTC not applicable unless ConductivityType = 1. -->
#         <WBOTC>0.00000000e+000</WBOTC>
#       </Coefficients>
#       <Slope>1.00000000</Slope>
#       <Offset>0.00000</Offset>
#     </ConductivitySensor>
#   </sensor>
#   <sensor Channel="3" >
#     <!-- Count, Pressure, Strain Gauge -->
#     <PressureSensor SensorID="46" >
#       <SerialNumber>7809</SerialNumber>
#       <CalibrationDate>11-Mar-19</CalibrationDate>
#       <PA0>4.56561833e-002</PA0>
#       <PA1>4.85095118e-004</PA1>
#       <PA2>-2.88327090e-012</PA2>
#       <PTEMPA0>-5.48784562e+001</PTEMPA0>
#       <PTEMPA1>5.53756816e+001</PTEMPA1>
#       <PTEMPA2>-5.86727098e-001</PTEMPA2>
#       <PTCA0>5.25246745e+005</PTCA0>
#       <PTCA1>1.22304214e+001</PTCA1>
#       <PTCA2>-3.56745036e-001</PTCA2>
#       <PTCB0>2.51668750e+001</PTCB0>
#       <PTCB1>3.75000000e-004</PTCB1>
#       <PTCB2>0.00000000e+000</PTCB2>
#       <Offset>0.000000</Offset>
#     </PressureSensor>
#   </sensor>
#   <sensor Channel="4" >
#     <!-- A/D voltage 0, Oxygen, SBE 43 -->
#     <OxygenSensor SensorID="38" >
#       <SerialNumber>0434</SerialNumber>
#       <CalibrationDate>13-Apr-19</CalibrationDate>
#       <Use2007Equation>1</Use2007Equation>
#       <CalibrationCoefficients equation="0" >
#         <!-- Coefficients for Owens-Millard equation. -->
#         <Boc>0.0000</Boc>
#         <Soc>0.0000e+000</Soc>
#         <offset>0.0000</offset>
#         <Pcor>0.00e+000</Pcor>
#         <Tcor>0.0000</Tcor>
#         <Tau>0.0</Tau>
#       </CalibrationCoefficients>
#       <CalibrationCoefficients equation="1" >
#         <!-- Coefficients for Sea-Bird equation - SBE calibration in 2007 and later. -->
#         <Soc>4.2007e-001</Soc>
#         <offset>-0.6109</offset>
#         <A>-4.3656e-003</A>
#         <B> 1.7017e-004</B>
#         <C>-2.5341e-006</C>
#         <D0> 2.5826e+000</D0>
#         <D1> 1.92634e-004</D1>
#         <D2>-4.64803e-002</D2>
#         <E> 3.6000e-002</E>
#         <Tau20> 1.1800</Tau20>
#         <H1>-3.3000e-002</H1>
#         <H2> 5.0000e+003</H2>
#         <H3> 1.4500e+003</H3>
#       </CalibrationCoefficients>
#     </OxygenSensor>
#   </sensor>
#   <sensor Channel="5" >
#     <!-- A/D voltage 1, PAR/Logarithmic, Satlantic -->
#     <PARLog_SatlanticSensor SensorID="76" >
#       <SerialNumber>1122</SerialNumber>
#       <CalibrationDate>08-May-2019</CalibrationDate>
#       <a0>9.7456e-001</a0>
#       <a1>8.1640e-001</a1>
#       <Im>1.3589e+000</Im>
#       <Multiplier>1.0000e+000</Multiplier>
#     </PARLog_SatlanticSensor>
#   </sensor>
#   <sensor Channel="6" >
#     <!-- A/D voltage 2, pH -->
#     <pH_Sensor SensorID="43" >
#       <SerialNumber>0363</SerialNumber>
#       <CalibrationDate>15-Apr-19</CalibrationDate>
#       <Slope>4.5952</Slope>
#       <Offset>2.5370</Offset>
#     </pH_Sensor>
#   </sensor>
#   <sensor Channel="7" >
#     <!-- A/D voltage 3, Oxidation Reduction Potential -->
#     <OxidationReductionPotentialSensor SensorID="41" >
#       <SerialNumber>0363</SerialNumber>
#       <CalibrationDate>15-Apr-19</CalibrationDate>
#       <B>2.499480</B>
#       <M>-0.496195</M>
#       <Offset>0.0</Offset>
#     </OxidationReductionPotentialSensor>
#   </sensor>
#   <sensor Channel="8" >
#     <!-- A/D voltage 4, Fluorometer, WET Labs ECO-AFL/FL -->
#     <FluoroWetlabECO_AFL_FL_Sensor SensorID="20" >
#       <SerialNumber>FLNTURT-2496</SerialNumber>
#       <CalibrationDate>08-May-2019</CalibrationDate>
#       <ScaleFactor>5.00000000e+001</ScaleFactor>
#       <!-- Dark output -->
#       <Vblank>0.0550</Vblank>
#     </FluoroWetlabECO_AFL_FL_Sensor>
#   </sensor>
#   <sensor Channel="9" >
#     <!-- A/D voltage 5, Turbidity Meter, WET Labs, ECO-NTU -->
#     <TurbidityMeter SensorID="67" >
#       <SerialNumber>FLNTURT-2496</SerialNumber>
#       <CalibrationDate>08-May-2019</CalibrationDate>
#       <ScaleFactor>189.000000</ScaleFactor>
#       <!-- Dark output -->
#       <DarkVoltage>0.071000</DarkVoltage>
#     </TurbidityMeter>
#   </sensor>
# </Sensors>
# datcnv_date = Oct 30 2019 09:53:39, 7.26.7.129 [datcnv_vars = 15]
# datcnv_in = C:\DATA\103019_fcr50_0001.hex C:\DATA\SBE19plusV2_7809.xmlcon
# datcnv_skipover = 0
# datcnv_ox_hysteresis_correction = yes
# datcnv_ox_tau_correction = yes
# filter_date = Oct 30 2019 09:53:58, 7.26.7.129
# filter_in = C:\DATA\103019_fcr50_0001.cnv
# filter_low_pass_tc_A = 0.030
# filter_low_pass_tc_B = 0.150
# filter_low_pass_A_vars = sbeox0ML/L prdM prdE tv290C density00
# filter_low_pass_B_vars = depFM dz/dtM sbeox0PS specc c0uS/cm flECO-AFL ph orp par/sat/log turbWETntu0
# alignctd_date = Oct 30 2019 09:54:19, 7.26.7.129
# alignctd_in = C:\DATA\103019_fcr50_0001.cnv
# alignctd_adv = dz/dtM 1.000, sbeox0PS 1.000, specc 1.000, c0uS/cm 1.000, flECO-AFL 1.000, ph 1.000, orp 1.000, turbWETntu0 1.000                                                                                                   
# file_type = ascii
*END*
     -0.517 -3.773e-20     6.5881     95.787      0.156   0.128630    -0.1147      6.620  1240.2295 2.3057e+01    -0.2645     -0.507     -0.735    16.1986   998.9160 0.0000e+00
     -0.516 5.5432e-20     6.5875     95.773      0.156   0.128521    -0.1187      6.617  1240.2295 2.2648e+01    -0.2752     -0.506     -0.735    16.1984   998.9160 0.0000e+00
     -0.516 6.5253e-19     6.5894     95.767      0.156   0.128511    -0.1311      6.617  1240.2295 2.2663e+01    -0.2841     -0.506     -0.735    16.1983   998.9160 0.0000e+00
     -0.517 7.1817e-18     6.5911     95.757      0.156   0.128510    -0.1429      6.616  1240.2295 2.3487e+01    -0.3400     -0.507     -0.735    16.1981   998.9160 0.0000e+00
     -0.517 7.8999e-17     6.5869     95.768      0.156   0.128510    -0.1396      6.615  1240.2295 2.4322e+01    -0.4260     -0.507     -0.735    16.1978   998.9161 0.0000e+00
     -0.517 8.6899e-16     6.5866     95.785      0.156   0.128510    -0.1351      6.616  1240.2295 2.4637e+01    -0.4715     -0.507     -0.735    16.1977   998.9161 0.0000e+00
     -0.517 9.5589e-15     6.5873     95.789      0.156   0.128510    -0.1315      6.618  1240.2295 2.4798e+01    -0.4970     -0.507     -0.735    16.1975   998.9161 0.0000e+00
     -0.517 1.0515e-13     6.5846     95.798      0.156   0.128511    -0.1300      6.619  1240.2295 2.4904e+01    -0.5379     -0.507     -0.735    16.1973   998.9162 0.0000e+00
     -0.516 1.1566e-12     6.5864     95.814      0.156   0.128520    -0.1347      6.621  1240.2295 2.4484e+01    -0.5728     -0.506     -0.735    16.1972   998.9162 0.0000e+00
     -0.516 1.2723e-11     6.5887     95.827      0.156   0.128625    -0.1368      6.622  1240.2295 2.2929e+01    -0.5593     -0.506     -0.735    16.1971   998.9162 0.0000e+00
     -0.516 1.3995e-10     6.5877     95.840      0.158   0.129773    -0.1378      6.622  1240.2295 2.0018e+01    -0.5050     -0.506     -0.735    16.1971   998.9162 0.0000e+00
     -0.516 1.5395e-09     6.5883     95.835      0.173   0.142403    -0.1386      6.622  1240.2295 1.6824e+01    -0.4737     -0.506     -0.734    16.1968   998.9163 0.0000e+00
     -0.516 1.6934e-08     6.5905     95.817      0.188   0.154610    -0.1464      6.621  1240.2295 1.4762e+01    -0.4754     -0.506     -0.735    16.1965   998.9163 0.0000e+00
     -0.516 1.8628e-07     6.5903     95.806      0.183   0.150646    -0.1542      6.621  1240.2295 1.4032e+01    -0.4605     -0.506     -0.734    16.1963   998.9164 0.0000e+00
     -0.516 1.8629e-07     6.5926     95.792      0.192   0.157844    -0.1459      6.622  1240.2295 1.4118e+01    -0.4241     -0.506     -0.734    16.1960   998.9164 0.0000e+00
     -0.516 1.7136e-08     6.5920     95.794      0.217   0.178275    -0.1334      6.623  1240.2295 1.4287e+01    -0.4293     -0.506     -0.735    16.1958   998.9164 0.0000e+00
     -0.516 3.7567e-09     6.5894     95.815      0.252   0.207602    -0.1322      6.622  1240.2295 1.4272e+01    -0.4900     -0.506     -0.734    16.1959   998.9164 0.0000e+00
     -0.516 2.4530e-08     6.5901     95.819      0.315   0.258987    -0.1397      6.622  1240.2293 1.4584e+01    -0.5355     -0.506     -0.734    16.1959   998.9164 0.0000e+00
     -0.516 2.6830e-07     6.5880     95.815      0.355   0.292699    -0.1381      6.622  1240.2275 1.5194e+01    -0.5210     -0.506     -0.734    16.1957   998.9164 0.0000e+00
     -0.516      0.000     6.5875     95.818      0.362   0.298415    -0.1309      6.622  1240.2076 1.5593e+01    -0.5106     -0.506     -0.735    16.1953   998.9165 0.0000e+00
     -0.516      0.000     6.5914     95.812      0.398   0.328094    -0.1305      6.623  1239.9886 1.5627e+01    -0.4766     -0.506     -0.734    16.1953   998.9165 0.0000e+00
     -0.516      0.000     6.5907     95.803      0.637   0.524825    -0.1250      6.628  1237.5800 1.5300e+01    -0.3385     -0.506     -0.734    16.1950   998.9165 0.0000e+00
     -0.516      0.004     6.5893     95.807      2.944   2.423633    -0.1246      6.675  1211.0851 1.5168e+01    -0.2504     -0.506     -0.734    16.1953   998.9164 0.0000e+00
     -0.516      0.018     6.5913     95.812     12.681  10.422648    -0.1336      6.892   919.6415 1.5854e+01    -0.2964     -0.506     -0.734    16.1945   998.9167 0.0000e+00
     -0.516      0.050     6.5899     95.815     27.891  22.875950    -0.1381      7.319   394.1405 1.7046e+01    -0.3045     -0.506     -0.734    16.1954   998.9164 0.0000e+00
     -0.515      0.098     6.5890     95.844     37.517  30.675841    -0.1364      7.772   126.5143 1.8187e+01    -0.2501     -0.506     -0.734    16.1934   998.9169 0.0000e+00
     -0.503      0.150     6.5896     95.881     39.804  32.426059    -0.1216      8.106   124.3861 1.9307e+01    -0.2278     -0.505     -0.733    16.1956   998.9162 0.0000e+00
     -0.459      0.194     6.5917     95.913     40.087  32.552486    -0.0456      8.319   136.8761 2.0699e+01     0.0631     -0.468     -0.679    16.1862   998.9199 0.0000e+00
     -0.374      0.222     6.6047     95.973     40.140  32.521636     0.8081      8.444   146.0628 2.2243e+01     3.6935     -0.371     -0.539    16.0782   998.9450 0.0000e+00
     -0.279      0.231     6.6340     96.085     40.169  32.497199     2.3891      8.519   152.6911 2.3391e+01    10.4025     -0.263     -0.381    15.8908   998.9787 0.0000e+00
     -0.204      0.221     6.6622     96.278     40.222  32.510801     3.2557      8.562   158.0815 2.3891e+01    14.0637     -0.189     -0.274    15.7175   999.0065 0.0000e+00
     -0.158      0.192     6.6815     96.551     40.304  32.559139     3.3456      8.584   163.3144 2.4048e+01    14.3694     -0.150     -0.218    15.5837   999.0280 0.0000e+00
     -0.128      0.157     6.6985     96.871     40.414  32.637400     3.4668      8.592   168.2098 2.4199e+01    14.2632     -0.125     -0.182    15.4951   999.0420 0.0000e+00
     -0.103      0.127     6.7130     97.213     40.493  32.695501     3.6805      8.592   172.1866 2.4458e+01    14.0246     -0.101     -0.147    15.4399   999.0508 0.0000e+00
     -0.078      0.112     6.7316     97.573     40.488  32.690476     3.7971      8.588   175.2607 2.4786e+01    13.9417     -0.078     -0.113    15.4052   999.0563 0.0000e+00
     -0.051      0.108     6.7546     97.936     40.423  32.640088     3.8101      8.582   178.0186 2.5136e+01    13.9819     -0.051     -0.074    15.3852   999.0596 0.0000e+00
     -0.023      0.110     6.7796     98.279     40.364  32.593959     3.8116      8.572   180.7528 2.5466e+01    13.7573     -0.022     -0.032    15.3734   999.0616 0.0000e+00
      0.005      0.111     6.8043     98.590     40.345  32.576978     3.8070      8.558   183.4538 2.5570e+01    13.3239      0.005      0.008    15.3658   999.0629 0.0000e+00
      0.035      0.111     6.8299     98.881     40.330  32.561683     3.8064      8.541   186.1546 2.3186e+01    13.0996      0.033      0.048    15.3648   999.0632 0.0000e+00
      0.065      0.106     6.8555     99.156     40.302  32.535950     3.8121      8.524   188.7154 1.8716e+01    13.0772      0.065      0.094    15.3711   999.0624 0.0000e+00
      0.095      0.097     6.8792     99.348     40.287  32.519690     3.8238      8.507   191.0138 1.6568e+01    13.0864      0.095      0.138    15.3730   999.0622 0.0000e+00
      0.120      0.084     6.9015     99.403     40.257  32.491997     3.8968      8.491   192.9503 1.6372e+01    13.0795      0.119      0.173    15.3700   999.0628 0.0000e+00
      0.140      0.069     6.9213     99.416     40.216  32.454960     4.0268      8.480   194.5774 1.5950e+01    13.0597      0.140      0.202    15.3660   999.0635 0.0000e+00
      0.156      0.053     6.9434     99.532     40.216  32.452643     4.1034      8.474   196.1468 1.5461e+01    13.0436      0.155      0.225    15.3612   999.0642 0.0000e+00
      0.167      0.038     6.9605     99.743     40.233  32.463981     4.1129      8.468   197.7285 1.5115e+01    13.0159      0.165      0.239    15.3563   999.0651 0.0000e+00
      0.173      0.025     6.9620     99.880     40.238  32.465126     4.0365      8.461   199.2470 1.5029e+01    12.8891      0.171      0.248    15.3512   999.0659 0.0000e+00
      0.176      0.015     6.9578     99.760     40.242  32.466478     3.8912      8.455   200.6557 1.5032e+01    12.5913      0.172      0.250    15.3472   999.0664 0.0000e+00
      0.176      0.009     6.9672     99.327     40.261  32.480322     3.8128      8.448   202.1992 1.5024e+01    12.3974      0.172      0.250    15.3440   999.0670 0.0000e+00
      0.176      0.005     6.9875     98.673     40.293  32.505594     3.8085      8.443   203.8837 1.5009e+01    12.4129      0.173      0.251    15.3407   999.0675 0.0000e+00
      0.177      0.003     7.0028     97.900     40.309  32.518192     3.8305      8.438   205.1062 1.4944e+01    12.4506      0.174      0.252    15.3376   999.0680 0.0000e+00
      0.179      0.002     6.9968     97.087     40.292  32.505719     3.8709      8.433   205.9667 1.4861e+01    12.4605      0.175      0.254    15.3352   999.0683 0.0000e+00
      0.179      0.002     6.9628     96.332     40.262  32.481708     3.8891      8.428   207.0617 1.4794e+01    12.4344      0.176      0.255    15.3333   999.0686 0.0000e+00
      0.179      0.002     6.9147     95.712     40.262  32.481718     3.8766      8.423   208.2787 1.4724e+01    12.3973      0.176      0.255    15.3319   999.0689 0.0000e+00
      0.180      0.001     6.8595     95.239     40.292  32.505844     3.8850      8.417   209.4106 1.4677e+01    12.5031      0.176      0.256    15.3317   999.0689 0.0000e+00
      0.180      0.001     6.7991     94.889     40.310  32.519566     3.9219      8.411   210.3359 1.4685e+01    12.7309      0.176      0.255    15.3334   999.0686 0.0000e+00
      0.180      0.001     6.7436     94.589     40.312  32.520709     3.9402      8.404   210.9489 1.4729e+01    12.8242      0.176      0.255    15.3350   999.0684 0.0000e+00
      0.180      0.001     6.7009     94.241     40.310  32.519669     3.9327      8.398   211.4878 1.4736e+01    12.8118      0.176      0.255    15.3349   999.0684 0.0000e+00
      0.181      0.001     6.6678     93.799     40.294  32.506979     3.9091      8.393   212.2923 1.4688e+01    12.8104      0.177      0.257    15.3336   999.0686 0.0000e+00
      0.181      0.001     6.6452     93.257     40.276  32.494203     3.8888      8.388   213.2760 1.4674e+01    12.8079      0.178      0.258    15.3326   999.0688 0.0000e+00
      0.181      0.001     6.6280     92.659     40.272  32.492114     3.8874      8.383   214.1746 1.4716e+01    12.8137      0.178      0.259    15.3322   999.0688 0.0000e+00
      0.181      0.001     6.6036     92.099     40.258  32.481719     3.8834      8.379   214.9841 1.4751e+01    12.8162      0.178      0.258    15.3327   999.0688 0.0000e+00
      0.182      0.000     6.5732     91.698     40.273  32.495450     3.8747      8.375   215.6643 1.4788e+01    12.8375      0.179      0.259    15.3339   999.0686 0.0000e+00
      0.182 1.9301e-08     6.5341     91.558     40.316  32.531218     3.9123      8.370   216.2044 1.4830e+01    12.9735      0.178      0.259    15.3355   999.0683 0.0000e+00
      0.181 2.1231e-07     6.4890     91.695     40.316  32.533421     4.0004      8.364   216.6958 1.4845e+01    13.2144      0.177      0.257    15.3373   999.0680 0.0000e+00
      0.181 2.1231e-07     6.4470     92.053     40.299  32.522091     4.0549      8.358   217.3047 1.4861e+01    13.3575      0.178      0.258    15.3388   999.0678 0.0000e+00
      0.182 1.9287e-08     6.4152     92.550     40.295  32.521155     4.0600      8.354   217.9734 1.4864e+01    13.3610      0.178      0.259    15.3406   999.0675 0.0000e+00
      0.182 1.6078e-09     6.4052     93.100     40.295  32.522102     4.0966      8.350   218.5853 1.4800e+01    13.4196      0.178      0.258    15.3424   999.0673 0.0000e+00
      0.182 1.3995e-10     6.4161     93.631     40.308  32.533536     4.1776      8.346   219.2829 1.4755e+01    13.5087      0.178      0.259    15.3445   999.0669 0.0000e+00
      0.182 1.5395e-09     6.4427     94.087     40.305  32.532486     4.2324      8.342   220.0413 1.4785e+01    13.4886      0.178      0.259    15.3473   999.0665 0.0000e+00
      0.182 1.6934e-08     6.4796     94.427     40.276  32.509400     4.2482      8.339   220.7862 1.4796e+01    13.4713      0.178      0.259    15.3496   999.0662 0.0000e+00
      0.182 1.8627e-07     6.5193     94.613     40.274  32.508256     4.2735      8.335   221.4059 1.4769e+01    13.3322      0.178      0.259    15.3515   999.0659 0.0000e+00
      0.182 1.8627e-07     6.5579     94.636     40.287  32.518658     4.3213      8.332   221.8562 1.4763e+01    13.0192      0.179      0.259    15.3532   999.0657 0.0000e+00
      0.182 1.6934e-08     6.5903     94.531     40.275  32.508245     4.3496      8.327   222.2722 1.4767e+01    12.8665      0.179      0.259    15.3545   999.0654 0.0000e+00
      0.182 1.5395e-09     6.6152     94.343     40.277  32.509275     4.3461      8.323   222.6503 1.4761e+01    12.8622      0.178      0.258    15.3547   999.0653 0.0000e+00
      0.182 1.3995e-10     6.6290     94.095     40.303  32.531101     4.2873      8.320   222.8993 1.4753e+01    12.8692      0.179      0.259    15.3545   999.0654 0.0000e+00
      0.182 1.2723e-11     6.6292     93.806     40.288  32.518305     4.1854      8.316   223.1323 1.4728e+01    12.8850      0.178      0.259    15.3544   999.0654 0.0000e+00
      0.182 1.1566e-12     6.6207     93.515     40.243  32.481476     4.1285      8.314   223.4883 1.4712e+01    12.8891      0.179      0.259    15.3542   999.0654 0.0000e+00
      0.183 1.0515e-13     6.6069     93.240     40.225  32.466580     4.1199      8.311   223.8491 1.4752e+01    12.9189      0.179      0.260    15.3538   999.0655 0.0000e+00
      0.183 9.5590e-15     6.5898     92.987     40.223  32.465124     4.1669      8.307   224.2243 1.4850e+01    13.0806      0.179      0.260    15.3537   999.0655 0.0000e+00
      0.182 8.6900e-16     6.5679     92.784     40.222  32.463866     4.2549      8.304   224.5837 1.4934e+01    13.3372      0.178      0.259    15.3535   999.0655 0.0000e+00
      0.182 7.9000e-17     6.5472     92.639     40.207  32.451371     4.3003      8.299   224.8387 1.4956e+01    13.4982      0.179      0.259    15.3529   999.0656 0.0000e+00
      0.182 7.1820e-18     6.5285     92.514     40.195  32.440976     4.3079      8.293   225.2434 1.4967e+01    13.5524      0.178      0.259    15.3526   999.0657 0.0000e+00
      0.182 6.5290e-19     6.5096     92.392     40.225  32.465101     4.3124      8.288   225.7771 1.4951e+01    13.5341      0.179      0.259    15.3526   999.0657 0.0000e+00
      0.182 5.9355e-20     6.4948     92.283     40.254  32.489217     4.3546      8.283   226.2151 1.4903e+01    13.2764      0.179      0.259    15.3525   999.0657 0.0000e+00
      0.182 5.3960e-21     6.4863     92.167     40.241  32.478719     4.4367      8.279   226.6673 1.4875e+01    12.8292      0.179      0.260    15.3518   999.0658 0.0000e+00
      0.182 4.9052e-22     6.4784     92.029     40.223  32.465092     4.4812      8.275   227.2007 1.4844e+01    12.5840      0.179      0.259    15.3511   999.0659 0.0000e+00
      0.183 4.4593e-23     6.4684     91.872     40.206  32.451369     4.4772      8.272   227.6737 1.4807e+01    12.6051      0.179      0.260    15.3509   999.0659 0.0000e+00
      0.183 4.0539e-24     6.4623     91.703     40.191  32.439728     4.4308      8.268   227.9988 1.4796e+01    12.8221      0.179      0.260    15.3511   999.0659 0.0000e+00
      0.182 3.6854e-25     6.4542     91.544     40.204  32.451257     4.3542      8.264   228.2933 1.4798e+01    13.1441      0.179      0.259    15.3518   999.0658 0.0000e+00
      0.182 3.3503e-26     6.4442     91.396     40.219  32.463844     4.3133      8.261   228.6525 1.4797e+01    13.2874      0.179      0.259    15.3524   999.0657 0.0000e+00
      0.182 3.0458e-27     6.4335     91.253     40.220  32.464997     4.3093      8.258   228.9859 1.4806e+01    13.2754      0.179      0.260    15.3527   999.0656 0.0000e+00
      0.182 2.7734e-28     6.4204     91.101     40.220  32.465195     4.2893      8.256   229.3137 1.4832e+01    13.0649      0.179      0.259    15.3532   999.0656 0.0000e+00
      0.183 3.0164e-29     6.4095     90.944     40.220  32.466245     4.2538      8.254   229.6901 1.4859e+01    12.6756      0.179      0.260    15.3538   999.0655 0.0000e+00
      0.183 5.7209e-29     6.3989     90.771     40.233  32.477689     4.2351      8.252   230.0091 1.4867e+01    12.4688      0.180      0.261    15.3547   999.0653 0.0000e+00
      0.183 6.0434e-28     6.3894     90.542     40.231  32.476640     4.2271      8.249   230.3311 1.4891e+01    12.3994      0.179      0.259    15.3556   999.0652 0.0000e+00
      0.183 6.6454e-27     6.3787     90.267     40.201  32.453563     4.1838      8.245   230.5726 1.4959e+01    12.1979      0.180      0.260    15.3565   999.0651 0.0000e+00
      0.183 7.3100e-26     6.3666     89.955     40.199  32.452514     4.1103      8.241   230.6916 1.5016e+01    11.8995      0.179      0.260    15.3575   999.0649 0.0000e+00
      0.183 8.0410e-25     6.3576     89.595     40.211  32.463957     4.0755      8.237   231.1689 1.5058e+01    11.7417      0.179      0.259    15.3582   999.0648 0.0000e+00
      0.183 8.8450e-24     6.3396     89.201     40.211  32.464997     4.0755      8.234   231.8693 1.5109e+01    11.7637      0.178      0.260    15.3592   999.0647 0.0000e+00
      0.183 9.7296e-23     6.3199     88.772     40.210  32.465092     4.0753      8.231   232.2761 1.5166e+01    11.9369      0.179      0.260    15.3602   999.0645 0.0000e+00
      0.183 1.0703e-21     6.2995     88.308     40.209  32.465110     4.0731      8.228   232.5603 1.5244e+01    12.2298      0.179      0.260    15.3611   999.0643 0.0000e+00
      0.183 1.1773e-20     6.2722     87.828     40.208  32.465215     4.0657      8.225   232.8099 1.5329e+01    12.3881      0.178      0.259    15.3626   999.0641 0.0000e+00
      0.183 1.2950e-19     6.2453     87.347     40.208  32.466360     4.0643      8.223   232.8851 1.5383e+01    12.3763      0.179      0.260    15.3643   999.0639 0.0000e+00
      0.183 1.4245e-18     6.2151     86.863     40.222  32.478958     4.0732      8.220   233.0393 1.5420e+01    12.3818      0.180      0.261    15.3657   999.0636 0.0000e+00
      0.183 1.5670e-17     6.1817     86.363     40.235  32.490610     4.1563      8.215   233.3836 1.5460e+01    12.6192      0.179      0.260    15.3671   999.0634 0.0000e+00
      0.183 1.7236e-16     6.1475     85.849     40.221  32.480321     4.3144      8.212   233.6930 1.5484e+01    13.0503      0.179      0.260    15.3686   999.0632 0.0000e+00
      0.183 1.8960e-15     6.1138     85.370     40.221  32.481485     4.4072      8.210   234.0262 1.5513e+01    13.3010      0.180      0.261    15.3700   999.0630 0.0000e+00
      0.183 2.0856e-14     6.0801     84.940     40.249  32.504685     4.4459      8.206   234.4007 1.5548e+01    13.3561      0.179      0.260    15.3712   999.0628 0.0000e+00
      0.183 2.2942e-13     6.0456     84.505     40.250  32.506983     4.6529      8.203   234.6083 1.5572e+01    13.6185      0.180      0.261    15.3724   999.0626 0.0000e+00
      0.183 2.5236e-12     6.0073     84.055     40.252  32.509271     5.0104      8.200   234.6437 1.5594e+01    14.1145      0.179      0.260    15.3738   999.0624 0.0000e+00
      0.183 2.7760e-11     5.9726     83.623     40.279  32.532346     5.2051      8.198   234.6561 1.5612e+01    14.4039      0.180      0.261    15.3750   999.0622 0.0000e+00
      0.183 3.0536e-10     5.9452     83.205     40.278  32.532146     5.2123      8.196   234.7587 1.5632e+01    14.4304      0.179      0.260    15.3762   999.0620 0.0000e+00
      0.183 3.3589e-09     5.9147     82.798     40.245  32.506855     4.9933      8.195   234.9375 1.5647e+01    14.1080      0.179      0.260    15.3774   999.0618 0.0000e+00
      0.183 3.6948e-08     5.8811     82.394     40.211  32.480402     4.5693      8.192   235.2699 1.5647e+01    13.4548      0.179      0.260    15.3787   999.0616 0.0000e+00
      0.183 4.0643e-07     5.8517     81.993     40.192  32.466151     4.3330      8.190   235.6800 1.5670e+01    13.0875      0.179      0.259    15.3800   999.0615 0.0000e+00
      0.183      0.000     5.8222     81.627     40.185  32.461461     4.3125      8.187   235.9381 1.5698e+01    13.0745      0.179      0.260    15.3812   999.0613 0.0000e+00
      0.183      0.000     5.7932     81.272     40.137  32.423698     4.3140      8.184   235.8946 1.5709e+01    12.9370      0.179      0.260    15.3826   999.0610 0.0000e+00
      0.183      0.001     5.7665     80.910     40.097  32.390331     4.3070      8.182   235.6704 1.5731e+01    12.6049      0.180      0.261    15.3838   999.0608 0.0000e+00
      0.183      0.001     5.7350     80.647     40.163  32.438792     4.2885      8.179   235.7222 1.5755e+01    12.4015      0.180      0.261    15.3852   999.0606 0.0000e+00
      0.183      0.000     5.7115     80.835     40.253  32.501939     4.2724      8.176   236.0050 1.5777e+01    12.3790      0.180      0.261    15.3863   999.0604 0.0000e+00
      0.183      0.000     5.6873     82.064     40.286  32.519219     4.1994      8.173   236.3357 1.5802e+01    12.3333      0.179      0.260    15.3875   999.0603 0.0000e+00
      0.184      0.000     5.6594     84.707     40.297  32.520780     4.0550      8.171   236.6242 1.5816e+01    12.2420      0.180      0.261    15.3887   999.0601 0.0000e+00
      0.184      0.001     5.6355     88.657     40.303  32.520810     3.9661      8.167   236.4819 1.5821e+01    12.1935      0.180      0.261    15.3824   999.0611 0.0000e+00
      0.184      0.005     5.6307     93.419     40.305  32.519575     3.9485      8.161   235.9055 1.5809e+01    12.1723      0.180      0.261    15.3683   999.0633 0.0000e+00
      0.183      0.008     5.7084     98.346     40.291  32.505845     3.9461      8.153   235.5927 1.5787e+01    12.1820      0.180      0.262    15.3555   999.0652 0.0000e+00
      0.183      0.008     5.8982    102.910     40.264  32.481729     3.9804      8.145   235.7113 1.5722e+01    12.5072      0.180      0.260    15.3469   999.0665 0.0000e+00
      0.188      0.003     6.1881    106.717     40.265  32.481834     4.0341      8.139   235.7048 1.5466e+01    13.1231      0.182      0.264    15.3414   999.0674 0.0000e+00
      0.196     -0.012     6.5409    109.499     40.296  32.507104     4.0492      8.132   235.5132 1.5209e+01    13.4672      0.195      0.284    15.3384   999.0680 0.0000e+00
      0.200     -0.040     6.8980    111.165     40.330  32.533423     4.0324      8.123   235.2872 1.5294e+01    13.4560      0.200      0.289    15.3353   999.0685 0.0000e+00
      0.194     -0.076     7.2278    111.813     40.346  32.546209     3.9351      8.113   235.2096 1.5821e+01    12.9870      0.194      0.280    15.3320   999.0690 0.0000e+00
      0.177     -0.107     7.5017    111.704     40.330  32.534774     3.7580      8.097   235.6932 1.7167e+01    12.1232      0.182      0.265    15.3311   999.0691 0.0000e+00
      0.137     -0.115     7.6985    111.174     40.311  32.522102     3.6591      8.073   236.4026 1.9135e+01    11.6312      0.143      0.208    15.3315   999.0687 0.0000e+00
      0.076     -0.094     7.8133    110.491     40.307  32.519908     3.6492      8.049   236.5597 2.0796e+01    11.5933      0.077      0.111    15.3306   999.0686 0.0000e+00
      0.015     -0.051     7.8517    109.797     40.294  32.508247     3.7164      8.030   236.4743 2.1576e+01    12.1892      0.001      0.002    15.3290   999.0686 0.0000e+00
     -0.008      0.002     7.8349    109.175     40.296  32.508027     3.8567      8.015   236.7472 2.1697e+01    13.3297     -0.033     -0.048    15.3320   999.0679 0.0000e+00
      0.027      0.057     7.7892    108.632     40.311  32.517249     3.9408      8.003   237.1913 2.0719e+01    13.9125      0.015      0.022    15.3372   999.0673 0.0000e+00
      0.090      0.103     7.7397    108.167     40.284  32.492820     3.9527      7.991   237.4560 1.8197e+01    13.8943      0.098      0.142    15.3376   999.0676 0.0000e+00
      0.140      0.128     7.6881    107.807     40.254  32.466501     3.9492      7.979   237.3668 1.6205e+01    13.6018      0.146      0.211    15.3353   999.0682 0.0000e+00
      0.171      0.125     7.6457    107.507     40.239  32.452874     3.9504      7.968   237.0593 1.5390e+01    13.0954      0.166      0.241    15.3325   999.0687 0.0000e+00
      0.196      0.101     7.6094    107.232     40.242  32.454972     3.9587      7.959   236.8344 1.4636e+01    12.8518      0.194      0.282    15.3289   999.0695 0.0000e+00
      0.217      0.073     7.5742    106.963     40.289  32.491866     3.9534      7.950   236.8847 1.4090e+01    12.8838      0.216      0.314    15.3254   999.0701 0.0000e+00
      0.230      0.053     7.5527    106.688     40.323  32.518184     3.9212      7.941   237.2375 1.3805e+01    12.8273      0.226      0.328    15.3228   999.0705 0.0000e+00
      0.238      0.040     7.5319    106.412     40.325  32.519337     3.8816      7.933   237.4865 1.3647e+01    12.6604      0.236      0.341    15.3214   999.0708 0.0000e+00
      0.243      0.029     7.5134    106.146     40.309  32.505814     3.8741      7.926   237.4010 1.3582e+01    12.6029      0.239      0.346    15.3211   999.0708 0.0000e+00
      0.248      0.021     7.4951    105.915     40.279  32.481594     3.8909      7.920   237.3220 1.3472e+01    12.6569      0.242      0.350    15.3198   999.0710 0.0000e+00
      0.255      0.016     7.4757    105.726     40.278  32.480347     3.8930      7.914   237.3050 1.3318e+01    12.6575      0.251      0.365    15.3184   999.0713 0.0000e+00
      0.260      0.015     7.4567    105.584     40.291  32.490732     3.8480      7.906   237.1950 1.3234e+01    12.6102      0.257      0.373    15.3181   999.0714 0.0000e+00
      0.261      0.019     7.4363    105.460     40.277  32.480233     3.7809      7.896   237.1974 1.3228e+01    12.6100      0.256      0.371    15.3177   999.0714 0.0000e+00
      0.261      0.026     7.4214    105.325     40.277  32.480328     3.7486      7.884   237.3336 1.3204e+01    12.6541      0.255      0.370    15.3166   999.0716 0.0000e+00
      0.262      0.035     7.4071    105.199     40.292  32.491874     3.7522      7.874   237.4652 1.3014e+01    12.6853      0.254      0.369    15.3162   999.0717 0.0000e+00
      0.273      0.048     7.3981    105.100     40.294  32.492923     3.8592      7.864   237.5843 1.2423e+01    12.8228      0.261      0.379    15.3171   999.0716 0.0000e+00
      0.293      0.062     7.3908    105.054     40.295  32.493009     4.0541      7.854   237.6544 1.1711e+01    13.1043      0.291      0.422    15.3177   999.0716 0.0000e+00
      0.313      0.073     7.3799    105.072     40.296  32.492914     4.1578      7.844   237.7972 1.1231e+01    13.2701      0.310      0.451    15.3173   999.0717 0.0000e+00
      0.331      0.082     7.3712    105.135     40.296  32.491761     4.1768      7.834   238.1062 1.0621e+01    13.3206      0.319      0.462    15.3168   999.0719 0.0000e+00
      0.356      0.087     7.3634    105.221     40.282  32.479069     4.2578      7.824   238.4655 9.9243e+00    13.4855      0.350      0.508    15.3166   999.0720 0.0000e+00
      0.379      0.090     7.3596    105.306     40.267  32.466377     4.4004      7.815   238.8720 9.4692e+00    13.6900      0.374      0.544    15.3161   999.0723 0.0000e+00
      0.400      0.092     7.3621    105.363     40.267  32.465224     4.4789      7.807   239.4071 8.9622e+00    13.7611      0.386      0.560    15.3146   999.0725 0.0000e+00
      0.426      0.092     7.3672    105.393     40.268  32.465119     4.4967      7.800   239.9450 8.3811e+00    13.7560      0.420      0.608    15.3132   999.0729 0.0000e+00
      0.452      0.091     7.3736    105.398     40.270  32.465119     4.5978      7.793   240.2138 7.9383e+00    13.6615      0.447      0.647    15.3119   999.0732 0.0000e+00
      0.475      0.091     7.3815    105.389     40.272  32.465223     4.7734      7.783   240.2479 7.4980e+00    13.4705      0.464      0.673    15.3098   999.0736 0.0000e+00
      0.498      0.090     7.3848    105.388     40.275  32.466368     4.8682      7.773   240.3574 7.1465e+00    13.3470      0.493      0.714    15.3085   999.0740 0.0000e+00
      0.517      0.085     7.3875    105.387     40.291  32.478967     4.8689      7.766   240.6764 6.8612e+00    13.2834      0.507      0.735    15.3071   999.0742 0.0000e+00
      0.538      0.078     7.3881    105.377     40.306  32.490618     4.7464      7.760   241.0942 6.4128e+00    13.0934      0.523      0.758    15.3054   999.0745 0.0000e+00
      0.566      0.070     7.3861    105.358     40.294  32.480328     4.5153      7.754   241.3662 6.0283e+00    12.7873      0.559      0.811    15.3040   999.0750 0.0000e+00
      0.586      0.062     7.3876    105.316     40.296  32.481472     4.3812      7.749   241.4693 5.8793e+00    12.5976      0.581      0.842    15.3021   999.0753 0.0000e+00
      0.596      0.052     7.3873    105.211     40.325  32.504455     4.3640      7.745   241.4802 5.7823e+00    12.5364      0.584      0.846    15.3010   999.0755 0.0000e+00
      0.604      0.041     7.3870    105.044     40.324  32.504362     4.3592      7.742   241.5828 5.6530e+00    12.5059      0.591      0.857    15.3006   999.0756 0.0000e+00
      0.614      0.031     7.3853    104.859     40.294  32.480340     4.3149      7.739   241.8506 5.5475e+00    12.3921      0.604      0.876    15.3002   999.0758 0.0000e+00
      0.621      0.026     7.3846    104.671     40.279  32.467857     4.2358      7.736   242.0513 5.4968e+00    12.1772      0.611      0.886    15.3000   999.0758 0.0000e+00
      0.624      0.026     7.3772    104.506     40.295  32.480349     4.1914      7.732   242.1168 5.4851e+00    12.0376      0.613      0.889    15.3001   999.0758 0.0000e+00
      0.627      0.025     7.3630    104.386     40.326  32.504465     4.1859      7.728   242.2973 5.4283e+00    11.9820      0.613      0.889    15.3000   999.0758 0.0000e+00
      0.634      0.024     7.3511    104.335     40.328  32.505600     4.2125      7.724   242.7707 5.2861e+00    12.0954      0.620      0.898    15.3002   999.0758 0.0000e+00
      0.645      0.025     7.3365    104.366     40.313  32.494061     4.2710      7.720   243.1088 5.1548e+00    12.3924      0.634      0.920    15.3006   999.0758 0.0000e+00
      0.653      0.027     7.3246    104.455     40.309  32.491876     4.3119      7.716   243.1156 5.1043e+00    12.5915      0.642      0.932    15.3000   999.0760 0.0000e+00
      0.656      0.030     7.3159    104.550     40.294  32.479184     4.3244      7.712   243.1973 5.0858e+00    12.6338      0.644      0.934    15.2990   999.0761 0.0000e+00
      0.661      0.034     7.3116    104.628     40.279  32.467523     4.2925      7.704   243.4949 5.0050e+00    12.6745      0.645      0.936    15.2983   999.0763 0.0000e+00
      0.670      0.039     7.3145    104.698     40.291  32.477812     4.2212      7.694   243.9605 4.8758e+00    12.7563      0.656      0.951    15.2989   999.0762 0.0000e+00
      0.680      0.046     7.3222    104.749     40.290  32.476659     4.1823      7.684   244.5249 4.7294e+00    12.8363      0.666      0.967    15.2997   999.0761 0.0000e+00
      0.693      0.056     7.3300    104.782     40.261  32.453583     4.1868      7.674   244.9842 4.5043e+00    12.9206      0.676      0.981    15.2993   999.0762 0.0000e+00
      0.711      0.065     7.3340    104.794     40.261  32.452648     4.2491      7.665   245.2114 4.2882e+00    13.2514      0.700      1.014    15.2993   999.0763 0.0000e+00
      0.728      0.070     7.3401    104.780     40.278  32.465350     4.3551      7.659   245.2077 4.1342e+00    13.8208      0.715      1.037    15.2999   999.0763 0.0000e+00
      0.746      0.071     7.3429    104.745     40.298  32.480237     4.4102      7.653   245.1971 3.9329e+00    14.1359      0.727      1.054    15.3001   999.0764 0.0000e+00
      0.769      0.068     7.3453    104.681     40.330  32.505715     4.4305      7.647   245.3421 3.7299e+00    14.1772      0.756      1.098    15.3004   999.0764 0.0000e+00
      0.790      0.062     7.3471    104.585     40.348  32.519560     4.6086      7.641   245.5845 3.6133e+00    13.9932      0.779      1.130    15.2994   999.0767 0.0000e+00
      0.804      0.057     7.3455    104.457     40.350  32.520716     4.9336      7.636   245.8902 3.5191e+00    13.5825      0.788      1.143    15.2976   999.0770 0.0000e+00
      0.815      0.052     7.3441    104.307     40.349  32.519696     5.1084      7.631   246.1988 3.4298e+00    13.3408      0.801      1.160    15.2966   999.0772 0.0000e+00
      0.824      0.047     7.3392    104.167     40.334  32.507223     5.1179      7.625   246.3912 3.3603e+00    13.2984      0.807      1.171    15.2957   999.0774 0.0000e+00
      0.834      0.046     7.3332    104.092     40.324  32.496821     5.1184      7.619   246.4089 3.2764e+00    13.2993      0.816      1.185    15.2948   999.0776 0.0000e+00
      0.845      0.046     7.3234    104.063     40.358  32.520843     5.1231      7.614   246.3277 3.1871e+00    13.2537      0.829      1.203    15.2948   999.0777 0.0000e+00
      0.858      0.045     7.3132    104.018     40.390  32.543823     5.1228      7.609   246.3551 3.0708e+00    13.1397      0.839      1.216    15.2948   999.0777 0.0000e+00
      0.874      0.042     7.3004    103.960     40.364  32.520833     5.1153      7.605   246.5685 2.9593e+00    13.1012      0.859      1.246    15.2941   999.0779 0.0000e+00
      0.887      0.038     7.2962    103.878     40.335  32.496708     5.1093      7.601   246.8435 2.9075e+00    13.1158      0.873      1.266    15.2912   999.0784 0.0000e+00
      0.893      0.035     7.2988    103.744     40.348  32.505977     5.1029      7.598   247.0989 2.8723e+00    13.0538      0.874      1.268    15.2858   999.0793 0.0000e+00
      0.898      0.033     7.2939    103.573     40.351  32.505979     5.0810      7.595   247.2469 2.8430e+00    12.9421      0.881      1.278    15.2825   999.0799 0.0000e+00
      0.903      0.033     7.2911    103.375     40.343  32.496732     5.0615      7.591   247.1696 2.8068e+00    12.8789      0.886      1.285    15.2810   999.0801 0.0000e+00
      0.911      0.033     7.2866    103.176     40.375  32.521088     5.0488      7.587   246.9386 2.7220e+00    12.8792      0.890      1.290    15.2798   999.0802 0.0000e+00
      0.923      0.035     7.2763    103.018     40.406  32.546614     4.9543      7.583   246.9506 2.6293e+00    13.0447      0.905      1.312    15.2795   999.0804 0.0000e+00
      0.936      0.040     7.2646    102.879     40.413  32.551528     4.7943      7.579   247.3991 2.5809e+00    13.3723      0.920      1.334    15.2762   999.0809 0.0000e+00
      0.945      0.046     7.2517    102.748     40.452  32.580497     4.7187      7.574   247.8012 2.5517e+00    13.5958      0.928      1.346    15.2714   999.0818 0.0000e+00
      0.951      0.051     7.2350    102.662     40.534  32.643023     4.7243      7.569   247.8554 2.4894e+00    13.6495      0.931      1.351    15.2698   999.0820 0.0000e+00
      0.961      0.055     7.2256    102.617     40.657  32.736368     4.8283      7.565   247.7969 2.3784e+00    13.9557      0.939      1.361    15.2711   999.0819 0.0000e+00
      0.981      0.059     7.2169    102.601     40.773  32.820648     5.0222      7.560   247.7818 2.2619e+00    14.5785      0.961      1.393    15.2713   999.0819 0.0000e+00
      1.002      0.064     7.2054    102.593     40.807  32.837031     5.1259      7.554   247.8444 2.1719e+00    14.9195      0.985      1.429    15.2674   999.0826 0.0000e+00
      1.019      0.066     7.2018    102.541     40.781  32.807518     5.1288      7.548   247.9522 2.0951e+00    14.9327      1.000      1.450    15.2634   999.0833 0.0000e+00
      1.034      0.065     7.1988    102.414     40.676  32.717648     5.1355      7.543   248.2245 2.0179e+00    14.9018      1.012      1.467    15.2589   999.0842 0.0000e+00
      1.052      0.064     7.1999    102.179     40.508  32.575415     5.2586      7.537   248.5555 1.9449e+00    14.7427      1.032      1.497    15.2455   999.0864 0.0000e+00
      1.067      0.062     7.2041    101.773     40.410  32.483941     5.4814      7.531   248.7705 1.8882e+00    14.4832      1.049      1.520    15.2288   999.0890 0.0000e+00
      1.080      0.062     7.2024    101.157     40.366  32.436625     5.6008      7.526   248.9310 1.8197e+00    14.3207      1.056      1.531    15.2181   999.0907 0.0000e+00
      1.096      0.060     7.1946    100.394     40.311  32.384075     5.5923      7.522   248.9481 1.7327e+00    14.2209      1.073      1.557    15.2139   999.0913 0.0000e+00
      1.115      0.057     7.1810     99.569     40.285  32.356231     5.4222      7.518   248.9775 1.6709e+00    13.9323      1.095      1.588    15.2083   999.0922 0.0000e+00
      1.130      0.057     7.1572     98.707     40.294  32.353802     5.1302      7.513   249.1995 1.6301e+00    13.5181      1.108      1.608    15.1896   999.0952 0.0000e+00
      1.143      0.057     7.1146     97.866     40.309  32.354707     4.9757      7.506   249.3952 1.5970e+00    13.3094      1.121      1.627    15.1709   999.0981 0.0000e+00
      1.154      0.055     7.0583     97.078     40.342  32.367162     4.9415      7.498   249.6237 1.5565e+00    13.2772      1.131      1.641    15.1640   999.0990 0.0000e+00
      1.166      0.055     7.0031     96.348     40.372  32.377452     4.8386      7.492   250.1547 1.4810e+00    13.2272      1.138      1.652    15.1563   999.1002 0.0000e+00
      1.183      0.060     6.9416     95.787     40.354  32.352173     4.6760      7.483   250.6536 1.4148e+00    13.1297      1.160      1.682    15.1450   999.1021 0.0000e+00
      1.199      0.066     6.8827     95.446     40.324  32.315347     4.5968      7.474   250.8373 1.3984e+00    13.0825      1.180      1.711    15.1315   999.1043 0.0000e+00
      1.210      0.070     6.8336     95.256     40.337  32.312946     4.6005      7.466   250.8273 1.3665e+00    13.1148      1.184      1.718    15.1111   999.1074 0.0000e+00
      1.228      0.068     6.7785     95.156     40.360  32.323122     4.6772      7.460   250.7905 1.2635e+00    13.0616      1.198      1.737    15.0936   999.1102 0.0000e+00
      1.257      0.063     6.7396     95.113     40.349  32.311461     4.8306      7.455   250.9954 1.1705e+00    12.8974      1.237      1.793    15.0828   999.1120 0.0000e+00
      1.280      0.058     6.7213     95.077     40.335  32.298863     4.9288      7.451   251.3251 1.1519e+00    12.8017      1.263      1.832    15.0668   999.1145 0.0000e+00
      1.289      0.053     6.7116     95.022     40.338  32.297719     4.9545      7.448   251.4213 1.1481e+00    12.8225      1.265      1.835    15.0469   999.1175 0.0000e+00
      1.293      0.047     6.7065     94.951     40.343  32.297634     4.9857      7.444   251.3847 1.1191e+00    12.8202      1.266      1.836    15.0374   999.1190 0.0000e+00
      1.302      0.041     6.7050     94.852     40.352  32.297834     5.0287      7.442   251.3989 1.0762e+00    12.7084      1.275      1.849    15.0375   999.1190 0.0000e+00
      1.313      0.039     6.7038     94.724     40.366  32.300124     5.0502      7.440   251.4210 1.0389e+00    12.5858      1.289      1.868    15.0362   999.1193 0.0000e+00
      1.324      0.041     6.6997     94.603     40.405  32.325310     5.0547      7.437   251.4791 1.0088e+00    12.5496      1.299      1.882    15.0315   999.1200 0.0000e+00
      1.337      0.043     6.6960     94.519     40.433  32.348501     5.0746      7.434   251.6713 9.7670e-01    12.5010      1.312      1.904    15.0265   999.1208 0.0000e+00
      1.348      0.042     6.6906     94.474     40.398  32.326682     5.1083      7.431   252.0242 9.5665e-01    12.3578      1.323      1.920    15.0182   999.1221 0.0000e+00
      1.358      0.039     6.6823     94.475     40.380  32.315352     5.1236      7.429   252.2191 9.4229e-01    12.2281      1.329      1.928    15.0049   999.1242 0.0000e+00
      1.370      0.037     6.6738     94.518     40.415  32.338439     5.1207      7.426   252.1342 9.2621e-01    12.1781      1.345      1.951    14.9943   999.1258 0.0000e+00
      1.380      0.037     6.6685     94.570     40.440  32.351973     5.1259      7.423   252.2022 9.1848e-01    12.1465      1.356      1.966    14.9961   999.1257 0.0000e+00
      1.385      0.039     6.6630     94.618     40.442  32.352060     5.1770      7.420   252.2677 9.0982e-01    12.0753      1.357      1.969    15.0086   999.1238 0.0000e+00
      1.391      0.044     6.6618     94.674     40.424  32.339481     5.2623      7.416   252.1515 8.8174e-01    12.0051      1.362      1.975    15.0163   999.1226 0.0000e+00
      1.402      0.048     6.6676     94.716     40.410  32.326809     5.2987      7.413   252.2596 8.3891e-01    11.9858      1.372      1.990    15.0066   999.1241 0.0000e+00
      1.419      0.051     6.6738     94.695     40.418  32.325762     5.2963      7.410   252.4570 8.0248e-01    11.9728      1.392      2.018    14.9915   999.1265 0.0000e+00
      1.436      0.052     6.6761     94.617     40.432  32.326812     5.3718      7.408   252.6450 7.7493e-01    11.9792      1.409      2.043    14.9925   999.1265 0.0000e+00
      1.451      0.051     6.6796     94.497     40.455  32.339496     5.5187      7.404   252.8972 7.4979e-01    11.9974      1.423      2.064    14.9991   999.1255 0.0000e+00
      1.464      0.046     6.6849     94.262     40.471  32.352187     5.5987      7.399   252.7530 7.3391e-01    11.9970      1.438      2.086    14.9977   999.1258 0.0000e+00
      1.473      0.039     6.6850     93.897     40.473  32.353339     5.5933      7.396   252.3644 7.1860e-01    11.9416      1.443      2.093    14.9870   999.1274 0.0000e+00
      1.481      0.033     6.6791     93.459     40.475  32.353434     5.4532      7.394   252.2426 6.8743e-01    11.5238      1.451      2.105    14.9706   999.1299 0.0000e+00
      1.490      0.030     6.6761     92.990     40.472  32.353330     5.2050      7.391   252.2273 6.6198e-01    10.8789      1.464      2.123    14.9632   999.1311 0.0000e+00
      1.496      0.032     6.6592     92.523     40.473  32.352082     5.0807      7.389   252.3521 6.5498e-01    10.6002      1.467      2.128    14.9674   999.1306 0.0000e+00
      1.500      0.037     6.6306     92.052     40.479  32.338342     5.0861      7.386   252.7182 6.5536e-01    10.6118      1.468      2.130    14.9660   999.1308 0.0000e+00
      1.506      0.042     6.6010     91.583     40.489  32.314105     5.2526      7.381   252.8678 6.5071e-01    10.8556      1.475      2.139    14.9605   999.1316 0.0000e+00
      1.518      0.048     6.5641     91.158     40.527  32.312826     5.5764      7.376   252.6980 6.2870e-01    11.3516      1.485      2.154    14.9683   999.1304 0.0000e+00
      1.536      0.053     6.5321     90.801     40.569  32.322846     5.7591      7.372   252.5584 6.0672e-01    11.6596      1.505      2.183    14.9743   999.1297 0.0000e+00
      1.554      0.056     6.5019     90.470     40.569  32.308313     5.7712      7.369   252.5569 5.9268e-01    11.7289      1.527      2.215    14.9483   999.1337 0.0000e+00
      1.569      0.057     6.4746     90.111     40.520  32.264004     5.7398      7.365   252.6799 5.7167e-01    11.6986      1.538      2.231    14.8990   999.1411 0.0000e+00
      1.582      0.056     6.4490     89.706     40.477  32.231324     5.4835      7.361   252.8404 5.4739e-01    11.3910      1.551      2.249    14.8578   999.1474 0.0000e+00
      1.595      0.054     6.4289     89.202     40.471  32.230484     5.0304      7.358   253.1214 5.2807e-01    10.8945      1.565      2.271    14.8294   999.1517 0.0000e+00
      1.608      0.054     6.4108     88.642     40.429  32.190408     4.7872      7.354   253.4958 5.1004e-01    10.6432      1.575      2.284    14.8121   999.1542 0.0000e+00
      1.622      0.056     6.3841     88.148     40.381  32.127515     4.7619      7.349   253.6670 4.8948e-01    10.6462      1.591      2.307    14.8050   999.1553 0.0000e+00
      1.635      0.057     6.3591     87.760     40.399  32.104621     4.6901      7.345   253.6434 4.7502e-01    10.7014      1.606      2.328    14.8076   999.1550 0.0000e+00
      1.649      0.056     6.3202     87.483     40.442  32.103937     4.5612      7.341   253.5546 4.6394e-01    10.7867      1.613      2.341    14.8204   999.1531 0.0000e+00
      1.667      0.054     6.2757     87.351     40.492  32.119197     4.4952      7.337   253.5397 4.4170e-01    10.8256      1.634      2.371    14.8181   999.1535 0.0000e+00
      1.686      0.051     6.2459     87.368     40.565  32.162188     4.4817      7.335   253.9787 4.1352e-01    10.8444      1.657      2.404    14.7823   999.1589 0.0000e+00
      1.697      0.046     6.2257     87.468     40.600  32.179495     4.3551      7.332   254.7335 4.0243e-01    10.8829      1.667      2.417    14.7296   999.1668 0.0000e+00
      1.704      0.041     6.2112     87.573     40.559  32.138064     4.1254      7.328   255.0946 4.0636e-01    10.8647      1.671      2.423    14.6820   999.1738 0.0000e+00
      1.712      0.036     6.2049     87.606     40.524  32.105457     4.0020      7.326   255.0750 3.8868e-01    10.8208      1.678      2.434    14.6522   999.1782 0.0000e+00
      1.723      0.035     6.2109     87.539     40.523  32.102545     3.9896      7.323   255.0121 3.6198e-01    10.8110      1.691      2.453    14.6383   999.1804 0.0000e+00
      1.732      0.040     6.2209     87.383     40.527  32.102847     3.8888      7.318   255.0235 3.6141e-01    10.4840      1.700      2.466    14.6255   999.1824 0.0000e+00
      1.737      0.048     6.2327     87.141     40.544  32.109107     3.6938      7.312   255.2985 3.7129e-01     9.8164      1.703      2.469    14.6129   999.1841 0.0000e+00
      1.745      0.053     6.2363     86.843     40.569  32.114762     3.5922      7.307   255.6699 3.6776e-01     9.4581      1.708      2.476    14.6089   999.1847 0.0000e+00
      1.762      0.056     6.2309     86.583     40.577  32.107745     3.5692      7.303   255.8150 3.4892e-01     9.3956      1.723      2.499    14.6056   999.1853 0.0000e+00
      1.788      0.059     6.2203     86.395     40.563  32.087717     3.4079      7.299   255.8482 3.2629e-01     8.7994      1.756      2.547    14.6049   999.1855 0.0000e+00
      1.808      0.061     6.2036     86.209     40.542  32.062968     3.1245      7.297   255.9847 3.1993e-01     7.6560      1.780      2.580    14.6004   999.1864 0.0000e+00
      1.818      0.061     6.1825     86.006     40.547  32.062335     2.9694      7.295   256.1755 3.2218e-01     7.0091      1.782      2.583    14.5755   999.1900 0.0000e+00
      1.827      0.058     6.1643     85.805     40.566  32.080055     2.9545      7.292   256.2624 3.0445e-01     6.9428      1.790      2.596    14.5568   999.1927 0.0000e+00
      1.842      0.057     6.1561     85.589     40.569  32.086852     2.9533      7.289   256.3465 2.7965e-01     6.7228      1.806      2.620    14.5513   999.1935 0.0000e+00
      1.859      0.060     6.1442     85.381     40.569  32.081065     2.9369      7.286   256.5037 2.6215e-01     6.3152      1.824      2.645    14.5381   999.1955 0.0000e+00
      1.874      0.065     6.1292     85.168     40.583  32.073534     2.9125      7.283   256.6143 2.5291e-01     6.1109      1.838      2.665    14.5272   999.1973 0.0000e+00
      1.890      0.066     6.1168     84.914     40.590  32.059229     2.9007      7.281   256.7376 2.5529e-01     6.0882      1.850      2.683    14.5357   999.1961 0.0000e+00
      1.910      0.066     6.0968     84.659     40.578  32.035002     2.8896      7.277   256.8771 2.4955e-01     6.0405      1.872      2.716    14.5496   999.1942 0.0000e+00
      1.931      0.066     6.0836     84.423     40.596  32.034428     2.7875      7.272   256.9239 2.3227e-01     5.8618      1.899      2.754    14.5426   999.1953 0.0000e+00
      1.946      0.064     6.0750     84.158     40.638  32.052282     2.6024      7.268   256.7002 2.2336e-01     5.5653      1.909      2.769    14.5125   999.1997 0.0000e+00
      1.958      0.058     6.0577     83.845     40.664  32.060465     2.4984      7.266   256.4097 2.1373e-01     5.4055      1.916      2.779    14.4837   999.2040 0.0000e+00
      1.976      0.051     6.0411     83.520     40.684  32.069898     2.4748      7.263   256.4236 1.9960e-01     5.4052      1.937      2.811    14.4700   999.2060 0.0000e+00
      1.993      0.047     6.0281     83.182     40.731  32.102858     2.4374      7.262   256.5232 1.9543e-01     5.2997      1.959      2.841    14.4543   999.2083 0.0000e+00
      2.001      0.047     6.0134     82.817     40.786  32.141688     2.3845      7.261   256.7540 1.9763e-01     5.0467      1.965      2.850    14.4307   999.2118 0.0000e+00
      2.006      0.051     5.9904     82.427     40.821  32.158614     2.3562      7.258   257.1490 2.0552e-01     4.9036      1.965      2.851    14.4154   999.2141 0.0000e+00
      2.014      0.057     5.9692     82.000     40.874  32.180584     2.3462      7.252   257.1699 1.9996e-01     4.9119      1.972      2.861    14.4093   999.2149 0.0000e+00
      2.029      0.062     5.9459     81.538     40.952  32.216914     2.2561      7.247   256.8335 1.8173e-01     4.8194      1.988      2.883    14.4046   999.2157 0.0000e+00
      2.051      0.066     5.9194     81.069     40.980  32.217086     2.0988      7.242   256.6958 1.8153e-01     4.6053      2.008      2.914    14.4043   999.2158 0.0000e+00
      2.077      0.067     5.8938     80.607     40.953  32.182633     2.0214      7.239   256.8810 1.7871e-01     4.4860      2.038      2.955    14.3918   999.2178 0.0000e+00
      2.100      0.066     5.8669     80.095     40.959  32.181088     2.0142      7.237   257.1804 1.6410e-01     4.4580      2.066      2.996    14.3632   999.2221 0.0000e+00
      2.113      0.064     5.8372     79.494     40.993  32.198412     1.9860      7.233   257.3906 1.6111e-01     4.3983      2.076      3.011    14.3310   999.2267 0.0000e+00
      2.119      0.059     5.8061     78.830     41.016  32.201706     1.9487      7.229   257.4444 1.6033e-01     4.3212      2.075      3.010    14.2998   999.2312 0.0000e+00
      2.130      0.057     5.7780     78.149     41.059  32.220899     1.9367      7.225   257.4857 1.5010e-01     4.2795      2.084      3.024    14.2845   999.2334 0.0000e+00
      2.149      0.057     5.7424     77.492     41.097  32.240069     1.9361      7.221   257.5454 1.4038e-01     4.2550      2.110      3.060    14.2825   999.2338 0.0000e+00
      2.167      0.058     5.6991     76.894     41.113  32.243091     1.9236      7.217   257.5644 1.3961e-01     4.2209      2.130      3.089    14.2748   999.2351 0.0000e+00
      2.181      0.057     5.6532     76.388     41.143  32.257430     1.9071      7.213   257.5438 1.4051e-01     4.1629      2.136      3.098    14.2517   999.2383 0.0000e+00
      2.198      0.053     5.6059     75.976     41.191  32.286502     1.8923      7.211   257.6403 1.3702e-01     4.0778      2.155      3.125    14.2304   999.2414 0.0000e+00
      2.214      0.051     5.5592     75.636     41.269  32.340743     1.8840      7.207   258.0423 1.3350e-01     4.0109      2.176      3.157    14.2213   999.2429 0.0000e+00
      2.223      0.053     5.5164     75.353     41.362  32.405558     1.8840      7.202   258.4471 1.3458e-01     3.9766      2.181      3.163    14.2108   999.2443 0.0000e+00
      2.227      0.057     5.4817     75.128     41.417  32.435560     1.8759      7.199   258.5761 1.3653e-01     4.0237      2.181      3.163    14.1977   999.2462 0.0000e+00
      2.239      0.060     5.4544     74.923     41.449  32.449640     1.8640      7.196   258.5705 1.3043e-01     4.1543      2.190      3.177    14.1852   999.2480 0.0000e+00
      2.262      0.063     5.4315     74.685     41.458  32.448850     1.8703      7.193   258.4649 1.2444e-01     4.2451      2.219      3.217    14.1797   999.2490 0.0000e+00
      2.286      0.064     5.4106     74.368     41.434  32.426005     1.8828      7.190   258.4179 1.2567e-01     4.2695      2.246      3.258    14.1730   999.2501 0.0000e+00
      2.303      0.064     5.3988     73.970     41.439  32.427267     1.8673      7.186   258.6905 1.2763e-01     4.2527      2.258      3.275    14.1531   999.2529 0.0000e+00
      2.319      0.062     5.3870     73.563     41.487  32.464106     1.8301      7.183   259.0938 1.2638e-01     4.2059      2.275      3.299    14.1369   999.2553 0.0000e+00
      2.332      0.058     5.3716     73.165     41.524  32.490646     1.8057      7.180   259.2499 1.2426e-01     4.1956      2.291      3.322    14.1314   999.2562 0.0000e+00
      2.342      0.056     5.3508     72.754     41.536  32.494307     1.7982      7.178   259.2869 1.2376e-01     4.2259      2.295      3.328    14.1248   999.2572 0.0000e+00
      2.354      0.057     5.3188     72.372     41.561  32.508362     1.7569      7.175   259.4560 1.2379e-01     4.1793      2.304      3.342    14.1213   999.2577 0.0000e+00
      2.373      0.061     5.2892     72.071     41.601  32.533662     1.6703      7.173   259.5735 1.2375e-01     4.0576      2.330      3.378    14.1237   999.2575 0.0000e+00
      2.389      0.064     5.2627     71.848     41.626  32.546356     1.6178      7.169   259.5891 1.2367e-01     4.0005      2.345      3.401    14.1211   999.2579 0.0000e+00
      2.403      0.063     5.2326     71.689     41.619  32.534915     1.6172      7.165   259.6450 1.2365e-01     4.0126      2.351      3.410    14.1124   999.2592 0.0000e+00
      2.423      0.057     5.2035     71.567     41.608  32.522235     1.6099      7.163   259.7327 1.2365e-01     3.9416      2.374      3.445    14.1051   999.2603 0.0000e+00
      2.445      0.047     5.1839     71.454     41.607  32.519962     1.5818      7.160   259.7892 1.2364e-01     3.7320      2.404      3.487    14.0999   999.2611 0.0000e+00
      2.457      0.038     5.1685     71.351     41.591  32.507436     1.5638      7.158   259.8126 1.2372e-01     3.5757      2.413      3.500    14.0909   999.2625 0.0000e+00
      2.460      0.029     5.1588     71.248     41.576  32.497709     1.5658      7.156   259.8432 1.2379e-01     3.5598      2.412      3.498    14.0817   999.2638 0.0000e+00
      2.461      0.024     5.1521     71.134     41.614  32.529283     1.5706      7.155   259.8152 1.2375e-01     3.5068      2.414      3.500    14.0778   999.2643 0.0000e+00
      2.462      0.024     5.1429     71.025     41.669  32.571879     1.5612      7.153   259.7321 1.2372e-01     3.3607      2.414      3.501    14.0763   999.2645 0.0000e+00
      2.465      0.032     5.1363     70.948     41.669  32.568504     1.5476      7.151   259.7849 1.2376e-01     3.2680      2.416      3.504    14.0762   999.2645 0.0000e+00
      2.474      0.044     5.1290     70.910     41.651  32.551930     1.5539      7.149   259.9375 1.2384e-01     3.2706      2.425      3.517    14.0787   999.2642 0.0000e+00
      2.489      0.055     5.1201     70.915     41.664  32.561865     1.5676      7.148   260.0280 1.2382e-01     3.2944      2.440      3.538    14.0821   999.2638 0.0000e+00
      2.507      0.061     5.1110     70.960     41.661  32.561710     1.5657      7.145   260.1040 1.2372e-01     3.3588      2.458      3.565    14.0818   999.2640 0.0000e+00
      2.527      0.062     5.1064     71.020     41.646  32.550064     1.5582      7.142   260.0830 1.2368e-01     3.4927      2.477      3.592    14.0760   999.2648 0.0000e+00
      2.548      0.059     5.1039     71.064     41.647  32.547974     1.5627      7.140   259.9460 1.2373e-01     3.5694      2.500      3.625    14.0721   999.2654 0.0000e+00
      2.565      0.053     5.1039     71.074     41.637  32.536436     1.5681      7.137   259.9102 1.2377e-01     3.5650      2.520      3.653    14.0735   999.2654 0.0000e+00
      2.575      0.046     5.1076     71.040     41.638  32.537478     1.5627      7.135   259.9080 1.2373e-01     3.5376      2.527      3.665    14.0766   999.2650 0.0000e+00
      2.580      0.038     5.1128     70.989     41.662  32.560573     1.5587      7.134   259.9190 1.2365e-01     3.4351      2.529      3.668    14.0787   999.2647 0.0000e+00
      2.588      0.033     5.1168     70.952     41.662  32.561831     1.5625      7.132   260.1298 1.2360e-01     3.3081      2.535      3.677    14.0735   999.2655 0.0000e+00
      2.598      0.033     5.1190     70.911     41.652  32.552686     1.5658      7.128   260.3920 1.2365e-01     3.2477      2.549      3.696    14.0651   999.2667 0.0000e+00
      2.607      0.038     5.1158     70.882     41.682  32.576926     1.5642      7.125   260.5935 1.2371e-01     3.2294      2.558      3.711    14.0661   999.2667 0.0000e+00
      2.612      0.043     5.1089     70.886     41.711  32.601063     1.5598      7.122   260.7597 1.2372e-01     3.2184      2.560      3.713    14.0754   999.2653 0.0000e+00
      2.621      0.044     5.1084     70.890     41.695  32.590685     1.5564      7.119   260.8528 1.2371e-01     3.2448      2.565      3.720    14.0769   999.2652 0.0000e+00
      2.639      0.044     5.1046     70.878     41.675  32.578369     1.5488      7.117   260.8595 1.2369e-01     3.2867      2.587      3.752    14.0729   999.2658 0.0000e+00
      2.657      0.045     5.1010     70.848     41.675  32.579080     1.5032      7.115   260.8396 1.2368e-01     3.2667      2.612      3.788    14.0741   999.2658 0.0000e+00
      2.666      0.045     5.1033     70.779     41.705  32.599275     1.4293      7.112   260.8706 1.2370e-01     3.2002      2.616      3.795    14.0771   999.2654 0.0000e+00
      2.671      0.043     5.1032     70.689     41.752  32.632163     1.3914      7.110   260.8905 1.2373e-01     3.1370      2.617      3.796    14.0788   999.2651 0.0000e+00
      2.680      0.038     5.1015     70.636     41.793  32.659419     1.3923      7.109   260.9936 1.2376e-01     3.0931      2.627      3.810    14.0828   999.2646 0.0000e+00
      2.693      0.033     5.1001     70.613     41.822  32.674965     1.3975      7.108   261.0845 1.2376e-01     3.0958      2.640      3.830    14.0855   999.2643 0.0000e+00
      2.705      0.032     5.0959     70.593     41.854  32.693190     1.3934      7.106   261.0435 1.2374e-01     3.1359      2.656      3.852    14.0801   999.2652 0.0000e+00
      2.712      0.033     5.0867     70.588     41.936  32.752849     1.3859      7.105   261.1000 1.2374e-01     3.1194      2.662      3.861    14.0755   999.2658 0.0000e+00
      2.716      0.033     5.0844     70.593     42.033  32.825126     1.3839      7.104   261.0786 1.2374e-01     3.0603      2.662      3.861    14.0709   999.2665 0.0000e+00
      2.721      0.034     5.0857     70.599     42.093  32.868998     1.3781      7.104   260.8720 1.2369e-01     3.0763      2.666      3.867    14.0602   999.2680 0.0000e+00
      2.730      0.037     5.0834     70.599     42.140  32.902523     1.3680      7.103   260.8385 1.2368e-01     3.1825      2.675      3.880    14.0512   999.2693 0.0000e+00
      2.742      0.045     5.0845     70.565     42.240  32.976624     1.3746      7.101   261.0180 1.2374e-01     3.2957      2.689      3.900    14.0471   999.2700 0.0000e+00
      2.754      0.055     5.0850     70.475     42.445  33.130312     1.3891      7.097   261.3216 1.2379e-01     3.3302      2.702      3.919    14.0444   999.2705 0.0000e+00
      2.767      0.065     5.0864     70.352     42.677  33.301090     1.3876      7.092   261.6697 1.2374e-01     3.3050      2.712      3.934    14.0400   999.2711 0.0000e+00
      2.782      0.074     5.0870     70.185     42.810  33.391410     1.3819      7.087   261.7854 1.2375e-01     3.2527      2.726      3.954    14.0357   999.2718 0.0000e+00
      2.803      0.079     5.0869     69.989     42.833  33.397315     1.3807      7.084   261.6027 1.2383e-01     3.1894      2.746      3.983    14.0324   999.2724 0.0000e+00
      2.830      0.079     5.0788     69.790     42.813  33.372479     1.3814      7.081   261.4397 1.2387e-01     3.1294      2.774      4.024    14.0256   999.2735 0.0000e+00
      2.858      0.074     5.0725     69.514     42.783  33.344965     1.3822      7.078   261.5346 1.2384e-01     3.0852      2.806      4.069    14.0133   999.2755 0.0000e+00
      2.880      0.065     5.0632     69.174     42.752  33.318502     1.3816      7.076   261.7179 1.2380e-01     3.1464      2.829      4.102    13.9961   999.2780 0.0000e+00
      2.892      0.052     5.0463     68.828     42.736  33.306367     1.3827      7.073   261.7627 1.2376e-01     3.2799      2.837      4.114    13.9801   999.2802 0.0000e+00
      2.900      0.038     5.0398     68.472     42.756  33.325168     1.3867      7.071   261.7329 1.2376e-01     3.3553      2.842      4.124    13.9701   999.2817 0.0000e+00
      2.907      0.026     5.0177     68.112     42.790  33.355443     1.3867      7.070   261.7016 1.2376e-01     3.4022      2.852      4.136    13.9654   999.2824 0.0000e+00
      2.911      0.019     4.9913     67.780     42.788  33.355099     1.3487      7.068   261.6425 1.2373e-01     3.4208      2.855      4.141    13.9629   999.2827 0.0000e+00
      2.913      0.016     4.9677     67.500     42.825  33.384476     1.2826      7.068   261.6196 1.2373e-01     3.3835      2.856      4.143    13.9631   999.2826 0.0000e+00
      2.915      0.019     4.9409     67.285     43.000  33.520241     1.2554      7.067   261.6829 1.2375e-01     3.3447      2.858      4.145    13.9682   999.2820 0.0000e+00
      2.918      0.024     4.9134     67.165     43.185  33.663866     1.2620      7.064   261.8062 1.2375e-01     3.3118      2.861      4.150    13.9732   999.2814 0.0000e+00
      2.922      0.031     4.8884     67.120     43.265  33.724800     1.3017      7.061   262.0773 1.2375e-01     3.3138      2.864      4.154    13.9741   999.2812 0.0000e+00
      2.931      0.038     4.8691     67.116     43.301  33.749270     1.3801      7.058   262.3803 1.2375e-01     3.3360      2.870      4.162    13.9741   999.2812 0.0000e+00
      2.946      0.043     4.8511     67.147     43.331  33.769329     1.4294      7.058   262.4580 1.2372e-01     3.3185      2.889      4.190    13.9735   999.2815 0.0000e+00
      2.962      0.047     4.8443     67.183     43.346  33.776937     1.4386      7.057   262.5010 1.2368e-01     3.2985      2.907      4.216    13.9727   999.2818 0.0000e+00
      2.973      0.048     4.8418     67.170     43.352  33.777784     1.4391      7.054   262.4705 1.2369e-01     3.2914      2.916      4.228    13.9729   999.2817 0.0000e+00
      2.984      0.048     4.8416     67.080     43.360  33.779563     1.4528      7.051   262.3468 1.2370e-01     3.2646      2.927      4.244    13.9678   999.2826 0.0000e+00
      2.997      0.048     4.8453     66.933     43.388  33.798441     1.4832      7.049   262.6393 1.2370e-01     3.2371      2.939      4.263    13.9625   999.2834 0.0000e+00
      3.007      0.049     4.8498     66.764     43.412  33.815636     1.5028      7.046   263.2545 1.2376e-01     3.2539      2.950      4.280    13.9599   999.2838 0.0000e+00
      3.016      0.051     4.8506     66.589     43.390  33.797073     1.4987      7.043   263.5901 1.2378e-01     3.3030      2.956      4.287    13.9545   999.2845 0.0000e+00
      3.030      0.052     4.8439     66.423     43.350  33.764388     1.4336      7.039   263.5133 1.2378e-01     3.2417      2.967      4.304    13.9487   999.2854 0.0000e+00
      3.050      0.054     4.8324     66.287     43.315  33.737776     1.3221      7.035   263.3591 1.2381e-01     3.1024      2.993      4.341    13.9448   999.2861 0.0000e+00
      3.065      0.055     4.8204     66.198     43.299  33.729171     1.2616      7.032   263.5320 1.2379e-01     3.0283      3.011      4.366    13.9438   999.2863 0.0000e+00
      3.074      0.055     4.8073     66.162     43.287  33.723816     1.2566      7.029   263.9690 1.2376e-01     3.0003      3.012      4.369    13.9431   999.2864 0.0000e+00
      3.087      0.056     4.7949     66.161     43.302  33.736492     1.2619      7.025   264.2557 1.2371e-01     3.0258      3.023      4.385    13.9399   999.2869 0.0000e+00
      3.104      0.058     4.7851     66.195     43.410  33.818969     1.2640      7.021   264.3308 1.2369e-01     3.0752      3.048      4.420    13.9386   999.2872 0.0000e+00
      3.116      0.062     4.7770     66.253     43.514  33.895979     1.2569      7.018   264.3605 1.2371e-01     3.1059      3.057      4.434    13.9457   999.2862 0.0000e+00
      3.129      0.067     4.7753     66.299     43.535  33.906028     1.2452      7.016   264.3571 1.2372e-01     3.1019      3.062      4.441    13.9526   999.2853 0.0000e+00
      3.149      0.071     4.7748     66.327     43.587  33.940461     1.2258      7.012   264.2037 1.2372e-01     3.1254      3.088      4.478    13.9513   999.2856 0.0000e+00
      3.172      0.072     4.7769     66.330     43.663  33.994965     1.2056      7.009   264.0547 1.2367e-01     3.2262      3.116      4.518    13.9511   999.2858 0.0000e+00
      3.191      0.070     4.7838     66.308     43.664  33.993836     1.2000      7.009   264.1889 1.2365e-01     3.2719      3.128      4.537    13.9473   999.2865 0.0000e+00
      3.209      0.066     4.7871     66.256     43.660  33.990277     1.2015      7.008   264.4508 1.2373e-01     3.2850      3.145      4.561    13.9374   999.2878 0.0000e+00
      3.229      0.061     4.7908     66.178     43.692  34.015394     1.1973      7.005   264.7257 1.2382e-01     3.3850      3.170      4.597    13.9303   999.2889 0.0000e+00
      3.243      0.056     4.7911     66.082     43.730  34.043663     1.1927      7.002   265.1037 1.2379e-01     3.4980      3.183      4.616    13.9254   999.2898 0.0000e+00
      3.251      0.054     4.7902     65.978     43.776  34.078204     1.1900      6.999   265.2356 1.2371e-01     3.5364      3.185      4.619    13.9218   999.2902 0.0000e+00
      3.263      0.056     4.7866     65.893     43.825  34.115689     1.1819      6.995   264.9446 1.2369e-01     3.5211      3.198      4.638    13.9216   999.2903 0.0000e+00
      3.278      0.060     4.7799     65.852     43.827  34.116092     1.1726      6.990   264.7685 1.2368e-01     3.5092      3.218      4.667    13.9233   999.2902 0.0000e+00
      3.290      0.061     4.7737     65.842     43.786  34.083074     1.1636      6.986   264.9120 1.2368e-01     3.5895      3.223      4.674    13.9225   999.2903 0.0000e+00
      3.309      0.060     4.7649     65.833     43.806  34.097260     1.1512      6.983   265.1313 1.2371e-01     3.7380      3.241      4.699    13.9198   999.2908 0.0000e+00
      3.335      0.056     4.7586     65.832     43.888  34.160683     1.1357      6.981   265.1838 1.2369e-01     3.7977      3.277      4.753    13.9193   999.2911 0.0000e+00
      3.351      0.051     4.7554     65.843     43.959  34.215263     1.1238      6.980   264.9441 1.2366e-01     3.7546      3.292      4.775    13.9181   999.2914 0.0000e+00
      3.356      0.045     4.7572     65.846     44.004  34.249439     1.0942      6.979   264.6425 1.2369e-01     3.6760      3.289      4.771    13.9155   999.2916 0.0000e+00
      3.361      0.037     4.7553     65.817     44.014  34.256566     1.0379      6.979   264.5487 1.2372e-01     3.6005      3.294      4.779    13.9151   999.2917 0.0000e+00
      3.370      0.030     4.7552     65.760     43.991  34.237975     1.0063      6.978   264.5845 1.2370e-01     3.5630      3.305      4.793    13.9150   999.2918 0.0000e+00
      3.380      0.028     4.7570     65.711     43.963  34.215045     1.0071      6.978   264.6450 1.2368e-01     3.5504      3.315      4.808    13.9145   999.2919 0.0000e+00
      3.388      0.030     4.7575     65.666     43.986  34.233189     1.0126      6.977   264.8492 1.2370e-01     3.5144      3.324      4.820    13.9137   999.2921 0.0000e+00
      3.394      0.035     4.7566     65.628     44.109  34.330423     1.0202      6.974   265.0745 1.2376e-01     3.4214      3.330      4.829    13.9125   999.2923 0.0000e+00
      3.399      0.042     4.7496     65.614     44.248  34.438685     1.0208      6.969   265.0465 1.2380e-01     3.3439      3.335      4.835    13.9108   999.2926 0.0000e+00
      3.405      0.049     4.7479     65.619     44.283  34.463232     1.0113      6.966   264.9410 1.2376e-01     3.3305      3.338      4.842    13.9094   999.2928 0.0000e+00
      3.418      0.053     4.7443     65.640     44.253  34.436809     1.0097      6.964   264.9174 1.2374e-01     3.3912      3.345      4.853    13.9098   999.2927 0.0000e+00
      3.442      0.057     4.7401     65.679     44.256  34.436543     1.0107      6.963   264.8469 1.2376e-01     3.4881      3.376      4.896    13.9124   999.2926 0.0000e+00
      3.467      0.058     4.7401     65.724     44.288  34.460010     1.0060      6.961   264.8634 1.2378e-01     3.5182      3.408      4.943    13.9135   999.2926 0.0000e+00
      3.479      0.055     4.7402     65.739     44.298  34.466678     1.0040      6.959   265.2022 1.2373e-01     3.5260      3.412      4.949    13.9095   999.2932 0.0000e+00
      3.487      0.050     4.7426     65.731     44.282  34.453692     1.0048      6.958   265.5875 1.2366e-01     3.5499      3.415      4.952    13.9052   999.2938 0.0000e+00
      3.498      0.046     4.7452     65.725     44.332  34.493403     1.0071      6.958   265.6501 1.2367e-01     3.5455      3.432      4.977    13.9028   999.2942 0.0000e+00
      3.509      0.046     4.7509     65.713     44.424  34.566009     1.0054      6.957   265.5293 1.2373e-01     3.5380      3.443      4.995    13.9007   999.2946 0.0000e+00
      3.517      0.049     4.7513     65.677     44.428  34.569947     1.0014      6.955   265.4183 1.2377e-01     3.5243      3.445      4.997    13.8995   999.2948 0.0000e+00
      3.530      0.052     4.7495     65.622     44.471  34.604492     1.0028      6.954   265.4258 1.2378e-01     3.4788      3.458      5.014    13.8985   999.2949 0.0000e+00
      3.550      0.053     4.7500     65.577     44.631  34.729819     1.0305      6.953   265.7927 1.2378e-01     3.5121      3.484      5.053    13.8990   999.2950 0.0000e+00
      3.565      0.053     4.7490     65.533     44.744  34.815899     1.0847      6.951   266.3272 1.2376e-01     3.6651      3.501      5.077    13.9011   999.2949 0.0000e+00
      3.575      0.050     4.7470     65.471     44.754  34.820180     1.1204      6.949   266.4667 1.2367e-01     3.7547      3.504      5.082    13.9025   999.2946 0.0000e+00
      3.587      0.042     4.7407     65.395     44.708  34.781583     1.1240      6.948   266.2749 1.2365e-01     3.7441      3.516      5.100    13.9041   999.2944 0.0000e+00
      3.602      0.034     4.7383     65.309     44.645  34.730036     1.0770      6.947   266.0738 1.2368e-01     3.6998      3.536      5.128    13.9053   999.2945 0.0000e+00
      3.610      0.029     4.7362     65.188     44.615  34.704672     0.9851      6.946   266.1858 1.2370e-01     3.5794      3.543      5.140    13.9023   999.2950 0.0000e+00
      3.613      0.029     4.7319     65.028     44.645  34.728780     0.9323      6.945   266.5971 1.2374e-01     3.4684      3.542      5.138    13.8971   999.2957 0.0000e+00
      3.613      0.031     4.7262     64.887     44.694  34.767653     0.9414      6.943   266.8304 1.2377e-01     3.4730      3.543      5.139    13.8947   999.2960 0.0000e+00
      3.617      0.033     4.7210     64.758     44.728  34.793868     0.9990      6.942   266.9416 1.2379e-01     3.5038      3.544      5.140    13.8922   999.2963 0.0000e+00
      3.628      0.037     4.7141     64.605     44.727  34.791869     1.0831      6.940   266.9946 1.2380e-01     3.5122      3.554      5.155    13.8892   999.2967 0.0000e+00
      3.647      0.042     4.6986     64.490     44.664  34.743486     1.1343      6.938   266.8691 1.2380e-01     3.5426      3.579      5.191    13.8900   999.2968 0.0000e+00
      3.662      0.047     4.6889     64.437     44.627  34.716613     1.1423      6.937   266.7160 1.2376e-01     3.5761      3.596      5.216    13.8923   999.2966 0.0000e+00
      3.669      0.048     4.6827     64.401     44.629  34.720832     1.1190      6.937   266.6912 1.2370e-01     3.6224      3.596      5.216    13.8917   999.2968 0.0000e+00
      3.678      0.046     4.6680     64.399     44.558  34.667558     1.0864      6.935   266.8274 1.2369e-01     3.6763      3.604      5.227    13.8901   999.2970 0.0000e+00
      3.692      0.045     4.6588     64.457     44.526  34.643705     1.0768      6.933   266.9864 1.2368e-01     3.7362      3.622      5.253    13.8899   999.2970 0.0000e+00
      3.705      0.045     4.6580     64.536     44.661  34.749761     1.0808      6.933   267.1511 1.2367e-01     3.8218      3.634      5.271    13.8925   999.2966 0.0000e+00
      3.715      0.046     4.6532     64.611     44.820  34.870916     1.0916      6.932   267.3557 1.2367e-01     3.8933      3.643      5.283    13.8976   999.2960 0.0000e+00
      3.726      0.047     4.6515     64.670     45.029  35.029609     1.1122      6.929   267.3956 1.2364e-01     3.9444      3.653      5.298    13.8985   999.2959 0.0000e+00
      3.739      0.051     4.6580     64.700     45.427  35.335637     1.1215      6.925   267.2034 1.2368e-01     3.9816      3.667      5.318    13.8994   999.2958 0.0000e+00
      3.750      0.055     4.6635     64.737     45.760  35.587970     1.1262      6.921   267.0966 1.2379e-01     4.0154      3.678      5.335    13.9017   999.2956 0.0000e+00
      3.761      0.056     4.6695     64.797     45.793  35.605195     1.1341      6.917   267.3090 1.2386e-01     4.0253      3.685      5.345    13.8983   999.2962 0.0000e+00
      3.779      0.055     4.6755     64.831     45.720  35.543895     1.1139      6.914   267.6203 1.2387e-01     4.0354      3.702      5.369    13.8923   999.2971 0.0000e+00
      3.802      0.052     4.6762     64.815     45.723  35.544972     1.0809      6.911   267.7629 1.2379e-01     4.1049      3.732      5.412    13.8900   999.2978 0.0000e+00
      3.818      0.048     4.6784     64.775     45.737  35.554746     1.0733      6.909   267.6561 1.2367e-01     4.1772      3.748      5.436    13.8840   999.2989 0.0000e+00
      3.823      0.044     4.6866     64.700     45.715  35.535127     1.0734      6.908   267.4484 1.2364e-01     4.2207      3.749      5.437    13.8708   999.3006 0.0000e+00
      3.827      0.040     4.6905     64.578     45.750  35.561645     1.0568      6.907   267.4020 1.2368e-01     4.1720      3.751      5.442    13.8657   999.3013 0.0000e+00
      3.836      0.038     4.6869     64.427     45.825  35.621478     1.0287      6.906   267.4399 1.2368e-01     4.0148      3.762      5.457    13.8676   999.3011 0.0000e+00
      3.846      0.037     4.6856     64.260     45.825  35.623855     1.0111      6.903   267.4759 1.2364e-01     3.9261      3.771      5.469    13.8666   999.3013 0.0000e+00
      3.859      0.038     4.6810     64.094     45.863  35.653853     1.0096      6.900   267.4937 1.2369e-01     3.9516      3.782      5.485    13.8626   999.3018 0.0000e+00
      3.873      0.038     4.6712     63.946     46.044  35.793778     1.0276      6.900   267.3962 1.2375e-01     3.9960      3.800      5.512    13.8600   999.3023 0.0000e+00
      3.882      0.037     4.6600     63.828     46.209  35.919290     1.0633      6.899   267.3300 1.2373e-01     4.0036      3.810      5.525    13.8643   999.3019 0.0000e+00
      3.887      0.034     4.6470     63.753     46.193  35.901974     1.0855      6.897   267.3812 1.2367e-01     3.9772      3.811      5.527    13.8678   999.3013 0.0000e+00
      3.893      0.030     4.6344     63.718     46.116  35.838291     1.0880      6.894   267.4133 1.2366e-01     3.9717      3.815      5.534    13.8667   999.3016 0.0000e+00
      3.903      0.028     4.6239     63.720     46.129  35.847492     1.1025      6.892   267.5466 1.2368e-01     4.0036      3.828      5.552    13.8657   999.3018 0.0000e+00
      3.912      0.028     4.6150     63.756     46.175  35.886274     1.1309      6.891   267.8741 1.2378e-01     4.0341      3.841      5.569    13.8630   999.3023 0.0000e+00
      3.916      0.028     4.6103     63.794     46.222  35.926371     1.1450      6.890   268.1036 1.2392e-01     4.0465      3.841      5.570    13.8565   999.3032 0.0000e+00
      3.921      0.031     4.6089     63.842     46.416  36.078422     1.1429      6.887   268.2563 1.2391e-01     4.0547      3.842      5.574    13.8519   999.3038 0.0000e+00
      3.930      0.039     4.6078     63.919     46.823  36.391772     1.1224      6.882   268.5160 1.2381e-01     4.1334      3.855      5.590    13.8508   999.3040 0.0000e+00
      3.938      0.049     4.6128     63.989     47.109  36.604859     1.0974      6.874   268.7490 1.2375e-01     4.3104      3.864      5.603    13.8546   999.3035 0.0000e+00
      3.946      0.058     4.6139     64.043     47.069  36.560193     1.0910      6.868   268.9225 1.2368e-01     4.4242      3.866      5.607    13.8608   999.3026 0.0000e+00
      3.965      0.063     4.6155     64.093     46.986  36.486458     1.0890      6.864   269.1500 1.2367e-01     4.4284      3.882      5.632    13.8623   999.3025 0.0000e+00
      3.995      0.064     4.6240     64.120     47.060  36.538496     1.0737      6.861   269.4354 1.2377e-01     4.4260      3.922      5.689    13.8601   999.3032 0.0000e+00
      4.018      0.061     4.6296     64.108     47.167  36.618098     1.0016      6.858   269.6204 1.2381e-01     4.4938      3.949      5.727    13.8493   999.3050 0.0000e+00
      4.028      0.055     4.6348     64.073     47.177  36.623753     0.8926      6.856   269.5790 1.2373e-01     4.6262      3.950      5.727    13.8311   999.3074 0.0000e+00
      4.036      0.047     4.6401     64.031     47.156  36.606860     0.8402      6.855   269.4515 1.2369e-01     4.6832      3.956      5.737    13.8206   999.3089 0.0000e+00
      4.046      0.041     4.6433     63.981     47.233  36.667743     0.8357      6.854   269.4554 1.2373e-01     4.6577      3.971      5.758    13.8176   999.3094 0.0000e+00
      4.054      0.041     4.6419     63.938     47.388  36.788613     0.8468      6.854   269.6259 1.2372e-01     4.7119      3.978      5.769    13.8145   999.3099 0.0000e+00
      4.060      0.046     4.6390     63.906     47.486  36.862263     0.8698      6.853   269.8789 1.2372e-01     4.8461      3.979      5.771    13.8115   999.3103 0.0000e+00
      4.072      0.050     4.6368     63.864     47.489  36.860019     0.8893      6.851   270.0182 1.2375e-01     4.9374      3.991      5.789    13.8105   999.3105 0.0000e+00
      4.091      0.054     4.6320     63.829     47.448  36.824946     0.9004      6.849   270.0194 1.2370e-01     4.9634      4.013      5.821    13.8132   999.3102 0.0000e+00
      4.109      0.059     4.6283     63.817     47.442  36.819050     0.9091      6.846   270.0669 1.2365e-01     5.1604      4.032      5.847    13.8148   999.3101 0.0000e+00
      4.124      0.064     4.6280     63.806     47.565  36.915671     0.9244      6.844   270.0755 1.2370e-01     5.5822      4.044      5.866    13.8113   999.3107 0.0000e+00
      4.138      0.066     4.6245     63.791     47.728  37.041059     0.9386      6.843   270.1237 1.2372e-01     5.8355      4.058      5.885    13.8050   999.3116 0.0000e+00
      4.152      0.065     4.6214     63.773     47.766  37.065590     0.9505      6.840   270.3048 1.2372e-01     5.8632      4.071      5.904    13.8004   999.3122 0.0000e+00
      4.171      0.062     4.6225     63.725     47.717  37.021839     0.9552      6.837   270.3732 1.2374e-01     5.8856      4.089      5.929    13.7999   999.3124 0.0000e+00
      4.193      0.057     4.6207     63.656     47.720  37.019866     0.9519      6.836   270.4346 1.2375e-01     5.9426      4.113      5.966    13.8031   999.3121 0.0000e+00
      4.211      0.051     4.6191     63.594     47.750  37.041729     0.9541      6.835   270.5304 1.2379e-01     6.0271      4.134      5.996    13.8036   999.3123 0.0000e+00
      4.221      0.043     4.6203     63.530     47.739  37.032282     0.9557      6.832   270.4127 1.2378e-01     6.0881      4.141      6.006    13.7960   999.3134 0.0000e+00
      4.226      0.034     4.6171     63.482     47.739  37.032594     0.9540      6.830   270.3021 1.2371e-01     6.0247      4.143      6.009    13.7881   999.3144 0.0000e+00
      4.232      0.026     4.6107     63.483     47.754  37.045505     0.9517      6.829   270.4846 1.2367e-01     5.8835      4.151      6.021    13.7850   999.3148 0.0000e+00
      4.237      0.025     4.6078     63.510     47.775  37.061436     0.9450      6.827   270.7256 1.2363e-01     5.8220      4.157      6.029    13.7833   999.3151 0.0000e+00
      4.242      0.030     4.6028     63.547     47.823  37.098264     0.9423      6.824   270.8076 1.2363e-01     5.8395      4.160      6.033    13.7823   999.3153 0.0000e+00
      4.247      0.037     4.5970     63.611     47.838  37.109927     0.9185      6.822   270.8737 1.2367e-01     5.9315      4.167      6.042    13.7839   999.3152 0.0000e+00
      4.253      0.043     4.5989     63.683     47.794  37.075506     0.8652      6.819   271.0083 1.2368e-01     6.1143      4.167      6.045    13.7848   999.3150 0.0000e+00
      4.268      0.048     4.6013     63.735     47.777  37.062938     0.8361      6.817   271.0584 1.2373e-01     6.2476      4.181      6.064    13.7839   999.3151 0.0000e+00
      4.291      0.051     4.6027     63.771     47.804  37.084914     0.8259      6.817   271.0495 1.2378e-01     6.2641      4.212      6.109    13.7841   999.3153 0.0000e+00
      4.307      0.052     4.6082     63.795     47.807  37.087319     0.8203      6.816   271.1589 1.2374e-01     6.2491      4.227      6.131    13.7845   999.3154 0.0000e+00
      4.316      0.052     4.6146     63.800     47.813  37.092010     0.8288      6.813   271.3485 1.2374e-01     6.2304      4.230      6.134    13.7830   999.3154 0.0000e+00
      4.328      0.052     4.6179     63.796     47.878  37.141636     0.8334      6.809   271.4498 1.2377e-01     6.2017      4.244      6.156    13.7838   999.3155 0.0000e+00
      4.339      0.054     4.6201     63.796     47.929  37.179533     0.8325      6.806   271.4371 1.2377e-01     6.2298      4.258      6.176    13.7856   999.3153 0.0000e+00
      4.347      0.057     4.6225     63.787     47.919  37.169366     0.8354      6.804   271.4521 1.2376e-01     6.3073      4.259      6.178    13.7850   999.3154 0.0000e+00
      4.362      0.060     4.6223     63.762     47.890  37.145653     0.8159      6.803   271.4601 1.2378e-01     6.5496      4.271      6.196    13.7847   999.3155 0.0000e+00
      4.387      0.061     4.6216     63.737     47.891  37.146723     0.7627      6.802   271.4469 1.2380e-01     6.9641      4.305      6.244    13.7844   999.3157 0.0000e+00
      4.408      0.061     4.6221     63.722     47.937  37.182304     0.7292      6.801   271.4648 1.2376e-01     7.1888      4.328      6.276    13.7834   999.3160 0.0000e+00
      4.419      0.058     4.6225     63.711     47.954  37.195000     0.7229      6.799   271.4186 1.2371e-01     7.2023      4.332      6.284    13.7803   999.3165 0.0000e+00
      4.431      0.053     4.6197     63.713     47.927  37.173280     0.7124      6.799   271.4043 1.2370e-01     7.2575      4.343      6.299    13.7784   999.3167 0.0000e+00
      4.446      0.048     4.6178     63.729     47.928  37.173592     0.7066      6.798   271.5505 1.2369e-01     7.3645      4.361      6.325    13.7791   999.3167 0.0000e+00
      4.457      0.048     4.6171     63.745     47.962  37.198774     0.7126      6.797   271.7239 1.2371e-01     7.3816      4.373      6.342    13.7796   999.3167 0.0000e+00
      4.465      0.049     4.6159     63.763     47.996  37.223843     0.7241      6.797   271.7793 1.2371e-01     7.3662      4.376      6.347    13.7789   999.3169 0.0000e+00
      4.476      0.050     4.6161     63.782     47.995  37.222785     0.7768      6.796   271.7895 1.2370e-01     7.4078      4.385      6.361    13.7777   999.3170 0.0000e+00
      4.492      0.049     4.6180     63.789     47.948  37.185977     0.8820      6.794   271.8477 1.2375e-01     7.4257      4.406      6.390    13.7767   999.3173 0.0000e+00
      4.509      0.048     4.6192     63.807     47.913  37.159661     0.9477      6.794   271.8809 1.2376e-01     7.4187      4.424      6.416    13.7758   999.3175 0.0000e+00
      4.521      0.048     4.6199     63.834     47.911  37.158508     0.9460      6.794   271.9327 1.2371e-01     7.3897      4.434      6.431    13.7745   999.3178 0.0000e+00
      4.531      0.048     4.6232     63.849     47.928  37.172034     0.8961      6.793   272.0442 1.2365e-01     7.3697      4.445      6.446    13.7738   999.3179 0.0000e+00
      4.539      0.046     4.6217     63.866     47.959  37.196250     0.8123      6.790   272.0237 1.2364e-01     7.4062      4.452      6.457    13.7741   999.3178 0.0000e+00
      4.549      0.043     4.6231     63.888     47.961  37.197403     0.7663      6.788   271.9435 1.2366e-01     7.4377      4.458      6.464    13.7747   999.3178 0.0000e+00
      4.564      0.042     4.6267     63.907     47.946  37.185977     0.7640      6.787   271.9345 1.2364e-01     7.4231      4.475      6.490    13.7755   999.3177 0.0000e+00
      4.580      0.042     4.6258     63.928     47.945  37.185042     0.7678      6.786   271.9155 1.2362e-01     7.3926      4.496      6.521    13.7761   999.3178 0.0000e+00
      4.589      0.042     4.6278     63.946     47.946  37.186112     0.7684      6.786   271.9715 1.2358e-01     7.3967      4.503      6.531    13.7757   999.3179 0.0000e+00
      4.594      0.040     4.6298     63.936     47.962  37.198903     0.7619      6.785   272.0950 1.2353e-01     7.4080      4.502      6.530    13.7752   999.3179 0.0000e+00
      4.602      0.037     4.6307     63.896     47.981  37.212753     0.7589      6.784   272.1188 1.2357e-01     7.3984      4.510      6.542    13.7750   999.3180 0.0000e+00
      4.615      0.035     4.6323     63.845     47.999  37.226612     0.7673      6.782   272.0869 1.2360e-01     7.4111      4.527      6.566    13.7753   999.3180 0.0000e+00
      4.627      0.037     4.6345     63.791     48.015  37.239527     0.7590      6.781   272.1391 1.2362e-01     7.4301      4.541      6.585    13.7758   999.3180 0.0000e+00
      4.634      0.040     4.6340     63.741     48.020  37.241949     0.7282      6.780   272.1477 1.2371e-01     7.4313      4.544      6.591    13.7759   999.3180 0.0000e+00
      4.640      0.040     4.6299     63.684     48.039  37.255884     0.7160      6.779   272.1055 1.2373e-01     7.4589      4.548      6.596    13.7755   999.3181 0.0000e+00
      4.650      0.040     4.6268     63.619     48.072  37.281066     0.7153      6.778   272.2308 1.2372e-01     7.5021      4.559      6.613    13.7757   999.3181 0.0000e+00
      4.664      0.040     4.6218     63.580     48.086  37.292513     0.7027      6.777   272.4590 1.2374e-01     7.4946      4.574      6.635    13.7758   999.3182 0.0000e+00
      4.677      0.044     4.6190     63.583     48.054  37.267342     0.6940      6.776   272.6267 1.2375e-01     7.4336      4.587      6.654    13.7746   999.3185 0.0000e+00
      4.686      0.046     4.6159     63.605     48.007  37.230620     0.6960      6.775   272.6239 1.2381e-01     7.3868      4.596      6.666    13.7733   999.3187 0.0000e+00
      4.693      0.046     4.6088     63.602     48.007  37.229371     0.7010      6.774   272.5115 1.2383e-01     7.3880      4.600      6.673    13.7729   999.3187 0.0000e+00
      4.706      0.043     4.6065     63.565     48.037  37.252245     0.7200      6.773   272.6446 1.2373e-01     7.4479      4.613      6.691    13.7733   999.3188 0.0000e+00
      4.722      0.041     4.6066     63.523     48.037  37.253276     0.7519      6.771   272.9417 1.2372e-01     7.5543      4.633      6.721    13.7736   999.3188 0.0000e+00
      4.736      0.041     4.6101     63.478     48.021  37.241838     0.7742      6.771   273.0065 1.2374e-01     7.6248      4.648      6.741    13.7727   999.3189 0.0000e+00
      4.743      0.041     4.6107     63.442     48.019  37.240902     0.7817      6.771   272.9975 1.2364e-01     7.6454      4.652      6.747    13.7713   999.3192 0.0000e+00
      4.749      0.039     4.6058     63.447     48.021  37.241961     0.7743      6.771   273.0917 1.2363e-01     7.6064      4.656      6.752    13.7711   999.3193 0.0000e+00
      4.758      0.035     4.6039     63.501     48.039  37.254648     0.7623      6.770   273.1985 1.2371e-01     7.4810      4.665      6.765    13.7723   999.3191 0.0000e+00
      4.770      0.034     4.5998     63.581     48.056  37.267343     0.7573      6.768   273.1697 1.2371e-01     7.3745      4.678      6.785    13.7734   999.3190 0.0000e+00
      4.782      0.035     4.5961     63.669     48.057  37.268507     0.7574      6.766   273.0018 1.2367e-01     7.3682      4.691      6.804    13.7737   999.3191 0.0000e+00
      4.788      0.035     4.5962     63.745     48.057  37.268717     0.7641      6.765   272.9767 1.2372e-01     7.4048      4.697      6.813    13.7729   999.3192 0.0000e+00
      4.793      0.034     4.6013     63.799     48.059  37.269882     0.7863      6.765   273.2098 1.2382e-01     7.4888      4.698      6.814    13.7723   999.3193 0.0000e+00
      4.802      0.034     4.6074     63.851     48.076  37.282587     0.8171      6.765   273.4965 1.2378e-01     7.5970      4.708      6.828    13.7724   999.3193 0.0000e+00
      4.812      0.035     4.6139     63.892     48.093  37.295378     0.8328      6.764   273.4322 1.2373e-01     7.6318      4.721      6.848    13.7723   999.3194 0.0000e+00
      4.822      0.037     4.6205     63.887     48.097  37.297583     0.8290      6.762   273.0353 1.2373e-01     7.6477      4.729      6.858    13.7722   999.3194 0.0000e+00
      4.831      0.041     4.6228     63.832     48.113  37.309238     0.8238      6.761   272.9129 1.2368e-01     7.7243      4.736      6.869    13.7723   999.3195 0.0000e+00
      4.841      0.045     4.6271     63.765     48.113  37.309351     0.8299      6.759   273.0706 1.2366e-01     7.8033      4.749      6.887    13.7720   999.3196 0.0000e+00
      4.851      0.049     4.6318     63.720     48.100  37.298955     0.8332      6.757   273.2214 1.2371e-01     7.8172      4.757      6.900    13.7708   999.3199 0.0000e+00
      4.863      0.054     4.6315     63.677     48.116  37.310486     0.8294      6.756   273.4458 1.2374e-01     7.8259      4.766      6.912    13.7697   999.3200 0.0000e+00
      4.881      0.058     4.6263     63.611     48.131  37.321829     0.8194      6.755   273.3749 1.2375e-01     7.9421      4.787      6.942    13.7699   999.3200 0.0000e+00
      4.898      0.058     4.6201     63.536     48.116  37.309136     0.7985      6.753   273.0527 1.2373e-01     8.1077      4.805      6.969    13.7696   999.3202 0.0000e+00
      4.913      0.054     4.6178     63.484     48.084  37.283974     0.7845      6.752   273.0773 1.2371e-01     8.1565      4.817      6.985    13.7687   999.3203 0.0000e+00
      4.930      0.048     4.6161     63.474     48.068  37.271508     0.7715      6.752   273.2422 1.2368e-01     8.1058      4.836      7.014    13.7681   999.3205 0.0000e+00
      4.945      0.043     4.6104     63.508     48.086  37.285360     0.7628      6.751   273.3249 1.2366e-01     8.0190      4.853      7.040    13.7676   999.3207 0.0000e+00
      4.950      0.040     4.6043     63.578     48.137  37.324500     0.7752      6.749   273.3889 1.2369e-01     7.9270      4.855      7.042    13.7669   999.3208 0.0000e+00
      4.954      0.040     4.5997     63.655     48.188  37.363886     0.7826      6.747   273.3280 1.2369e-01     7.8778      4.856      7.042    13.7665   999.3208 0.0000e+00
      4.960      0.043     4.5995     63.714     48.211  37.380711     0.7738      6.747   273.2770 1.2365e-01     7.8501      4.864      7.053    13.7665   999.3209 0.0000e+00
      4.971      0.048     4.6016     63.768     48.237  37.400975     0.7648      6.746   273.2885 1.2365e-01     7.8219      4.872      7.066    13.7663   999.3209 0.0000e+00
      4.988      0.053     4.6076     63.812     48.261  37.418465     0.7597      6.743   273.3818 1.2369e-01     7.8322      4.889      7.092    13.7661   999.3210 0.0000e+00
      5.009      0.055     4.6148     63.816     48.241  37.401753     0.7643      6.741   273.5445 1.2375e-01     7.8758      4.916      7.128    13.7659   999.3212 0.0000e+00
      5.026      0.054     4.6175     63.789     48.226  37.389335     0.7773      6.740   273.7065 1.2374e-01     7.8899      4.932      7.153    13.7653   999.3214 0.0000e+00
      5.038      0.049     4.6217     63.747     48.235  37.395278     0.7788      6.740   273.8778 1.2370e-01     7.8716      4.940      7.165    13.7639   999.3216 0.0000e+00
      5.047      0.043     4.6269     63.700     48.255  37.410127     0.7649      6.740   273.8950 1.2371e-01     7.8520      4.950      7.179    13.7630   999.3218 0.0000e+00
      5.056      0.038     4.6262     63.674     48.297  37.441913     0.7559      6.739   273.7424 1.2373e-01     7.8816      4.959      7.192    13.7625   999.3219 0.0000e+00
      5.064      0.038     4.6237     63.660     48.323  37.462218     0.7654      6.739   273.5810 1.2371e-01     7.9347      4.967      7.203    13.7614   999.3221 0.0000e+00
      5.071      0.040     4.6216     63.648     48.328  37.465200     0.7676      6.738   273.5786 1.2375e-01     7.9370      4.972      7.213    13.7602   999.3223 0.0000e+00
      5.080      0.045     4.6161     63.632     48.346  37.477969     0.7563      6.738   273.8859 1.2371e-01     7.9755      4.979      7.222    13.7595   999.3224 0.0000e+00
      5.093      0.050     4.6156     63.622     48.362  37.489639     0.7587      6.737   274.3713 1.2359e-01     8.0716      4.993      7.241    13.7593   999.3225 0.0000e+00
      5.109      0.054     4.6143     63.638     48.350  37.479358     0.7700      6.735   274.5426 1.2360e-01     8.1164      5.011      7.268    13.7591   999.3227 0.0000e+00
      5.124      0.058     4.6140     63.657     48.352  37.480618     0.7716      6.734   274.4094 1.2370e-01     8.1236      5.025      7.288    13.7581   999.3228 0.0000e+00
      5.140      0.063     4.6133     63.687     48.384  37.504864     0.7610      6.733   274.3958 1.2376e-01     8.0932      5.040      7.310    13.7569   999.3231 0.0000e+00
      5.155      0.067     4.6102     63.722     48.402  37.518609     0.7548      6.731   274.7213 1.2376e-01     8.0440      5.057      7.334    13.7561   999.3233 0.0000e+00
      5.170      0.069     4.6144     63.723     48.405  37.519850     0.7581      6.728   275.1619 1.2373e-01     8.0531      5.069      7.352    13.7554   999.3234 0.0000e+00
      5.188      0.067     4.6143     63.707     48.405  37.519860     0.7661      6.726   275.2485 1.2371e-01     8.1050      5.084      7.373    13.7545   999.3236 0.0000e+00
      5.212      0.064     4.6163     63.692     48.403  37.518736     0.7554      6.726   275.1670 1.2371e-01     8.0810      5.111      7.413    13.7539   999.3238 0.0000e+00
      5.233      0.060     4.6214     63.673     48.387  37.506251     0.7238      6.725   275.1230 1.2371e-01     7.9590      5.137      7.451    13.7535   999.3240 0.0000e+00
      5.245      0.055     4.6199     63.656     48.374  37.495864     0.7135      6.724   274.9738 1.2371e-01     7.9085      5.146      7.463    13.7531   999.3241 0.0000e+00
      5.252      0.050     4.6182     63.642     48.405  37.520100     0.7091      6.724   274.9120 1.2370e-01     7.9299      5.148      7.465    13.7529   999.3241 0.0000e+00
      5.262      0.046     4.6181     63.648     48.437  37.545376     0.7051      6.724   275.1501 1.2366e-01     7.9228      5.158      7.482    13.7528   999.3242 0.0000e+00
      5.275      0.044     4.6157     63.672     48.439  37.547569     0.7175      6.722   275.3572 1.2368e-01     7.8881      5.174      7.504    13.7527   999.3243 0.0000e+00
      5.287      0.044     4.6152     63.686     48.439  37.546624     0.7112      6.721   275.3507 1.2375e-01     7.8374      5.186      7.521    13.7530   999.3243 0.0000e+00
      5.298      0.043     4.6131     63.700     48.423  37.533948     0.6905      6.720   275.4165 1.2377e-01     7.8339      5.194      7.534    13.7535   999.3243 0.0000e+00
      5.312      0.038     4.6131     63.715     48.406  37.521256     0.6840      6.719   275.3781 1.2375e-01     7.8795      5.210      7.554    13.7538   999.3243 0.0000e+00
      5.324      0.032     4.6172     63.724     48.405  37.520112     0.6838      6.717   275.1444 1.2373e-01     7.8972      5.224      7.576    13.7535   999.3244 0.0000e+00
      5.331      0.030     4.6164     63.723     48.405  37.520120     0.6790      6.716   275.1721 1.2369e-01     7.8835      5.229      7.584    13.7531   999.3245 0.0000e+00
      5.334      0.032     4.6185     63.716     48.406  37.521359     0.6781      6.714   275.4552 1.2368e-01     7.8779      5.231      7.586    13.7529   999.3245 0.0000e+00
      5.335      0.036     4.6192     63.710     48.424  37.535094     0.6824      6.711   275.7278 1.2369e-01     7.8959      5.231      7.587    13.7527   999.3246 0.0000e+00
      5.340      0.039     4.6203     63.709     48.456  37.559225     0.6789      6.711   275.6290 1.2372e-01     7.9691      5.232      7.588    13.7531   999.3245 0.0000e+00
      5.356      0.042     4.6199     63.720     48.456  37.559225     0.6698      6.710   275.1206 1.2376e-01     8.0756      5.248      7.612    13.7535   999.3245 0.0000e+00
      5.379      0.046     4.6188     63.727     48.425  37.535094     0.6589      6.709   274.8288 1.2376e-01     8.1019      5.280      7.658    13.7536   999.3247 0.0000e+00
      5.393      0.048     4.6193     63.739     48.407  37.521368     0.6524      6.708   274.8543 1.2378e-01     8.0569      5.293      7.678    13.7532   999.3248 0.0000e+00
      5.398      0.047     4.6178     63.771     48.405  37.520215     0.6599      6.708   274.9995 1.2383e-01     7.9910      5.290      7.672    13.7522   999.3249 0.0000e+00
      5.406      0.044     4.6204     63.809     48.405  37.521152     0.6711      6.707   275.2072 1.2383e-01     7.8944      5.298      7.685    13.7519   999.3250 0.0000e+00
      5.419      0.042     4.6201     63.837     48.418  37.532692     0.6754      6.706   275.2147 1.2377e-01     7.8391      5.316      7.710    13.7520   999.3251 0.0000e+00
      5.430      0.043     4.6200     63.838     48.418  37.532797     0.6770      6.705   275.0050 1.2376e-01     7.8468      5.324      7.722    13.7527   999.3250 0.0000e+00
      5.440      0.046     4.6233     63.816     48.405  37.522418     0.6739      6.705   274.8217 1.2378e-01     7.8891      5.334      7.736    13.7538   999.3249 0.0000e+00
      5.453      0.050     4.6259     63.790     48.421  37.534159     0.6719      6.704   274.8055 1.2373e-01     7.9905      5.349      7.758    13.7545   999.3249 0.0000e+00
      5.466      0.054     4.6286     63.755     48.440  37.547800     0.6786      6.702   274.9815 1.2373e-01     8.0905      5.362      7.776    13.7555   999.3248 0.0000e+00
      5.477      0.056     4.6286     63.703     48.457  37.560391     0.6777      6.700   275.3148 1.2377e-01     8.1148      5.369      7.787    13.7562   999.3248 0.0000e+00
      5.492      0.056     4.6261     63.661     48.457  37.559446     0.6871      6.699   275.6524 1.2374e-01     8.0865      5.382      7.806    13.7557   999.3248 0.0000e+00
      5.513      0.058     4.6245     63.646     48.427  37.536364     0.7229      6.698   275.6217 1.2371e-01     8.0765      5.408      7.844    13.7548   999.3250 0.0000e+00
      5.531      0.061     4.6231     63.650     48.426  37.535221     0.7551      6.697   275.3737 1.2371e-01     8.0915      5.428      7.874    13.7538   999.3253 0.0000e+00
      5.541      0.063     4.6177     63.658     48.440  37.545616     0.7721      6.696   275.3204 1.2369e-01     8.0717      5.433      7.880    13.7528   999.3255 0.0000e+00
      5.552      0.060     4.6145     63.658     48.426  37.535106     0.7731      6.695   275.3219 1.2364e-01     8.0337      5.439      7.888    13.7521   999.3256 0.0000e+00
      5.572      0.056     4.6140     63.662     48.426  37.535096     0.7416      6.695   275.5643 1.2368e-01     8.0254      5.463      7.923    13.7518   999.3258 0.0000e+00
      5.593      0.055     4.6142     63.670     48.440  37.545492     0.6937      6.695   276.1003 1.2378e-01     8.0369      5.491      7.964    13.7519   999.3259 0.0000e+00
      5.606      0.055     4.6160     63.674     48.425  37.533856     0.6717      6.695   276.3814 1.2382e-01     8.0743      5.500      7.979    13.7520   999.3260 0.0000e+00
      5.612      0.052     4.6147     63.664     48.409  37.521361     0.6660      6.694   276.3822 1.2376e-01     8.1176      5.499      7.977    13.7518   999.3260 0.0000e+00
      5.622      0.048     4.6157     63.654     48.409  37.521370     0.6591      6.694   276.1957 1.2370e-01     8.0366      5.510      7.992    13.7517   999.3260 0.0000e+00
      5.638      0.045     4.6159     63.649     48.425  37.533962     0.6580      6.694   276.1066 1.2371e-01     7.8815      5.531      8.022    13.7517   999.3261 0.0000e+00
      5.652      0.043     4.6171     63.633     48.441  37.546648     0.6608      6.694   276.5084 1.2373e-01     7.8470      5.545      8.042    13.7518   999.3262 0.0000e+00
      5.662      0.040     4.6156     63.614     48.442  37.547811     0.6677      6.694   276.9244 1.2375e-01     7.8823      5.552      8.053    13.7518   999.3262 0.0000e+00
      5.672      0.033     4.6142     63.614     48.442  37.548020     0.6713      6.692   276.9207 1.2373e-01     7.9146      5.562      8.067    13.7517   999.3263 0.0000e+00
      5.681      0.028     4.6155     63.645     48.444  37.549174     0.6695      6.690   276.7221 1.2364e-01     7.9754      5.573      8.083    13.7519   999.3263 0.0000e+00
      5.686      0.029     4.6131     63.690     48.460  37.561766     0.6729      6.689   276.6741 1.2362e-01     8.0600      5.578      8.090    13.7522   999.3263 0.0000e+00
      5.687      0.034     4.6117     63.732     48.475  37.573306     0.6772      6.688   276.7704 1.2364e-01     8.1183      5.577      8.089    13.7523   999.3262 0.0000e+00
      5.690      0.039     4.6106     63.764     48.460  37.561756     0.6868      6.687   276.9390 1.2364e-01     8.0907      5.577      8.089    13.7522   999.3263 0.0000e+00
      5.701      0.043     4.6142     63.774     48.443  37.549060     0.7033      6.687   277.1643 1.2366e-01     8.0537      5.586      8.102    13.7522   999.3263 0.0000e+00
      5.722      0.047     4.6176     63.757     48.440  37.546762     0.7109      6.686   277.2576 1.2366e-01     8.0646      5.612      8.140    13.7523   999.3264 0.0000e+00
      5.743      0.049     4.6206     63.724     48.423  37.533973     0.7185      6.685   277.2056 1.2373e-01     8.0920      5.637      8.176    13.7523   999.3266 0.0000e+00
      5.753      0.048     4.6236     63.681     48.406  37.521381     0.7166      6.685   276.9660 1.2381e-01     8.0567      5.643      8.185    13.7520   999.3266 0.0000e+00
      5.759      0.043     4.6244     63.641     48.406  37.521476     0.6966      6.685   276.6842 1.2381e-01     7.9327      5.645      8.187    13.7519   999.3266 0.0000e+00
      5.768      0.038     4.6226     63.627     48.424  37.535118     0.6855      6.685   276.6378 1.2380e-01     7.8703      5.656      8.203    13.7520   999.3267 0.0000e+00
      5.780      0.036     4.6202     63.631     48.455  37.559363     0.6769      6.684   276.7498 1.2376e-01     7.8924      5.670      8.224    13.7528   999.3266 0.0000e+00
      5.789      0.039     4.6169     63.636     48.457  37.560715     0.6617      6.684   276.9197 1.2371e-01     7.9374      5.678      8.235    13.7539   999.3265 0.0000e+00
      5.795      0.045     4.6125     63.634     48.446  37.551464     0.6583      6.684   277.0567 1.2371e-01     8.0219      5.681      8.240    13.7538   999.3265 0.0000e+00
      5.805      0.050     4.6125     63.610     48.476  37.574462     0.6619      6.683   276.9435 1.2372e-01     8.0951      5.692      8.255    13.7535   999.3266 0.0000e+00
      5.819      0.054     4.6130     63.564     48.490  37.584869     0.6619      6.682   276.6697 1.2374e-01     8.1013      5.706      8.276    13.7533   999.3268 0.0000e+00
      5.835      0.056     4.6135     63.517     48.446  37.550340     0.6664      6.680   276.5855 1.2380e-01     8.0637      5.719      8.296    13.7528   999.3269 0.0000e+00
      5.855      0.056     4.6140     63.497     48.430  37.537844     0.6729      6.679   276.6138 1.2381e-01     8.0669      5.743      8.328    13.7526   999.3270 0.0000e+00
      5.873      0.055     4.6123     63.506     48.459  37.560726     0.6715      6.679   276.7530 1.2381e-01     8.1069      5.765      8.361    13.7525   999.3271 0.0000e+00
      5.884      0.054     4.6087     63.547     48.475  37.573100     0.6663      6.678   276.8925 1.2382e-01     8.1210      5.772      8.372    13.7520   999.3272 0.0000e+00
      5.891      0.054     4.6038     63.627     48.460  37.560499     0.6627      6.678   276.7521 1.2379e-01     8.1066      5.774      8.375    13.7515   999.3273 0.0000e+00
      5.902      0.054     4.6031     63.711     48.428  37.535326     0.6628      6.678   276.6037 1.2373e-01     8.1294      5.785      8.391    13.7514   999.3273 0.0000e+00
      5.918      0.055     4.6036     63.770     48.411  37.522641     0.6674      6.678   276.6468 1.2369e-01     8.2659      5.803      8.416    13.7514   999.3274 0.0000e+00
      5.936      0.058     4.6055     63.812     48.426  37.534077     0.6659      6.677   276.7574 1.2371e-01     8.3799      5.821      8.443    13.7512   999.3276 0.0000e+00
      5.953      0.060     4.6131     63.837     48.442  37.546650     0.6622      6.676   276.9081 1.2377e-01     8.3605      5.839      8.469    13.7508   999.3277 0.0000e+00
      5.968      0.058     4.6203     63.838     48.443  37.547699     0.6751      6.676   277.0922 1.2381e-01     8.2613      5.853      8.489    13.7505   999.3278 0.0000e+00
      5.982      0.053     4.6237     63.823     48.442  37.546764     0.6997      6.676   277.1772 1.2378e-01     8.1642      5.866      8.508    13.7507   999.3278 0.0000e+00
      5.996      0.049     4.6267     63.802     48.427  37.535337     0.7167      6.675   277.1613 1.2373e-01     8.1362      5.880      8.528    13.7510   999.3278 0.0000e+00
      6.007      0.047     4.6293     63.783     48.429  37.536491     0.7162      6.674   277.1586 1.2374e-01     8.1194      5.892      8.546    13.7513   999.3279 0.0000e+00
      6.017      0.045     4.6282     63.773     48.460  37.560719     0.7207      6.674   277.2298 1.2381e-01     8.1251      5.901      8.559    13.7514   999.3279 0.0000e+00
      6.027      0.044     4.6276     63.780     48.478  37.574359     0.7447      6.673   277.5060 1.2381e-01     8.2049      5.909      8.570    13.7513   999.3280 0.0000e+00
      6.039      0.045     4.6254     63.806     48.478  37.574463     0.7633      6.671   277.8311 1.2371e-01     8.2980      5.922      8.589    13.7512   999.3280 0.0000e+00
      6.052      0.047     4.6242     63.840     48.463  37.561976     0.7721      6.671   277.8907 1.2366e-01     8.3664      5.937      8.611    13.7508   999.3281 0.0000e+00
      6.062      0.049     4.6232     63.868     48.448  37.550331     0.7993      6.670   277.7969 1.2365e-01     8.3760      5.945      8.622    13.7506   999.3282 0.0000e+00
      6.073      0.050     4.6234     63.876     48.461  37.560624     0.8500      6.669   277.7298 1.2361e-01     8.3478      5.954      8.634    13.7506   999.3283 0.0000e+00
      6.089      0.050     4.6262     63.884     48.459  37.559470     0.8906      6.669   277.7677 1.2364e-01     8.3534      5.972      8.661    13.7505   999.3284 0.0000e+00
      6.105      0.050     4.6284     63.907     48.429  37.536378     0.9083      6.669   277.9107 1.2372e-01     8.3458      5.990      8.686    13.7502   999.3285 0.0000e+00
      6.116      0.048     4.6315     63.921     48.429  37.535338     0.8995      6.668   278.0820 1.2372e-01     8.3211      5.997      8.698    13.7501   999.3285 0.0000e+00
      6.127      0.045     4.6313     63.915     48.444  37.546888     0.8368      6.667   278.2900 1.2366e-01     8.3181      6.006      8.711    13.7503   999.3286 0.0000e+00
      6.140      0.046     4.6307     63.908     48.447  37.549072     0.7476      6.666   278.5335 1.2364e-01     8.3090      6.023      8.737    13.7503   999.3286 0.0000e+00
      6.150      0.048     4.6339     63.893     48.463  37.561748     0.7058      6.664   278.6161 1.2369e-01     8.3099      6.034      8.752    13.7502   999.3287 0.0000e+00
      6.155      0.048     4.6354     63.861     48.478  37.573193     0.7123      6.661   278.5998 1.2372e-01     8.3285      6.032      8.748    13.7500   999.3287 0.0000e+00
      6.168      0.046     4.6335     63.843     48.461  37.560498     0.6972      6.660   278.6805 1.2377e-01     8.3372      6.042      8.763    13.7499   999.3288 0.0000e+00
      6.191      0.042     4.6336     63.841     48.428  37.535213     0.6447      6.660   278.7320 1.2379e-01     8.3159      6.075      8.812    13.7499   999.3289 0.0000e+00
      6.208      0.042     4.6336     63.822     48.410  37.521383     0.6147      6.659   278.7929 1.2369e-01     8.3009      6.095      8.841    13.7497   999.3291 0.0000e+00
      6.211      0.045     4.6293     63.787     48.408  37.520229     0.6200      6.657   278.9006 1.2364e-01     8.3197      6.091      8.833    13.7497   999.3290 0.0000e+00
      6.212      0.046     4.6279     63.748     48.410  37.521260     0.6230      6.656   278.9155 1.2370e-01     8.3468      6.089      8.831    13.7498   999.3290 0.0000e+00
      6.219      0.045     4.6297     63.716     48.426  37.533851     0.6158      6.655   278.8011 1.2368e-01     8.3663      6.096      8.841    13.7502   999.3290 0.0000e+00
      6.237      0.045     4.6273     63.707     48.441  37.545507     0.6104      6.654   278.7219 1.2366e-01     8.3588      6.112      8.866    13.7504   999.3290 0.0000e+00
      6.261      0.045     4.6247     63.706     48.428  37.535233     0.6107      6.654   278.8175 1.2371e-01     8.3543      6.143      8.910    13.7506   999.3291 0.0000e+00
      6.277      0.043     4.6221     63.695     48.429  37.536586     0.6189      6.654   278.9258 1.2374e-01     8.3770      6.161      8.936    13.7505   999.3292 0.0000e+00
      6.281      0.036     4.6183     63.695     48.462  37.561863     0.6226      6.654   278.9979 1.2376e-01     8.3715      6.159      8.933    13.7502   999.3293 0.0000e+00
      6.284      0.028     4.6187     63.703     48.494  37.586950     0.6204      6.653   279.0017 1.2379e-01     8.3204      6.160      8.934    13.7502   999.3293 0.0000e+00
      6.291      0.023     4.6195     63.707     48.493  37.585996     0.6181      6.653   278.8000 1.2375e-01     8.2839      6.169      8.948    13.7504   999.3293 0.0000e+00
      6.296      0.022     4.6173     63.717     48.447  37.550332     0.6219      6.653   278.6236 1.2374e-01     8.3231      6.175      8.957    13.7506   999.3293 0.0000e+00
      6.300      0.025     4.6174     63.733     48.429  37.536606     0.6492      6.652   278.6752 1.2376e-01     8.4007      6.176      8.957    13.7509   999.3293 0.0000e+00
      6.307      0.030     4.6193     63.752     48.443  37.546995     0.6703      6.652   278.8211 1.2369e-01     8.4031      6.183      8.969    13.7510   999.3293 0.0000e+00
      6.316      0.036     4.6182     63.790     48.446  37.548980     0.6688      6.652   278.9258 1.2360e-01     8.3517      6.195      8.985    13.7508   999.3294 0.0000e+00
      6.324      0.042     4.6193     63.839     48.461  37.560615     0.6659      6.652   278.9952 1.2363e-01     8.3369      6.200      8.992    13.7508   999.3294 0.0000e+00
      6.334      0.045     4.6211     63.871     48.462  37.560718     0.6696      6.651   279.0577 1.2375e-01     8.3881      6.209      9.005    13.7508   999.3294 0.0000e+00
      6.350      0.045     4.6213     63.897     48.448  37.550228     0.6704      6.650   279.0783 1.2380e-01     8.4789      6.227      9.032    13.7507   999.3295 0.0000e+00
      6.367      0.043     4.6244     63.921     48.461  37.560729     0.6582      6.649   279.0724 1.2372e-01     8.5179      6.246      9.059    13.7505   999.3296 0.0000e+00
      6.379      0.041     4.6295     63.912     48.461  37.560728     0.6523      6.649   279.0726 1.2366e-01     8.5311      6.259      9.077    13.7501   999.3298 0.0000e+00
      6.384      0.038     4.6309     63.869     48.447  37.550218     0.6510      6.649   279.0809 1.2369e-01     8.5076      6.262      9.082    13.7499   999.3298 0.0000e+00
      6.388      0.034     4.6320     63.811     48.461  37.560604     0.6511      6.649   279.1729 1.2373e-01     8.3972      6.262      9.083    13.7498   999.3298 0.0000e+00
      6.396      0.033     4.6359     63.761     48.460  37.559355     0.6706      6.649   279.3246 1.2374e-01     8.3442      6.271      9.095    13.7501   999.3298 0.0000e+00
      6.407      0.036     4.6344     63.727     48.429  37.535119     0.6866      6.648   279.3662 1.2382e-01     8.3579      6.284      9.115    13.7505   999.3298 0.0000e+00
      6.417      0.041     4.6312     63.707     48.411  37.521479     0.6809      6.648   279.3320 1.2389e-01     8.3334      6.294      9.129    13.7505   999.3299 0.0000e+00
      6.426      0.043     4.6260     63.704     48.411  37.521384     0.6705      6.648   279.3409 1.2381e-01     8.3100      6.299      9.136    13.7501   999.3299 0.0000e+00
      6.439      0.041     4.6222     63.700     48.427  37.533966     0.6657      6.647   279.3876 1.2371e-01     8.3380      6.312      9.155    13.7499   999.3300 0.0000e+00
      6.454      0.039     4.6206     63.692     48.444  37.546651     0.6747      6.646   279.4671 1.2372e-01     8.3767      6.333      9.184    13.7499   999.3301 0.0000e+00
      6.465      0.038     4.6177     63.696     48.445  37.547814     0.6922      6.645   279.5270 1.2375e-01     8.3512      6.344      9.200    13.7498   999.3302 0.0000e+00
      6.470      0.036     4.6192     63.699     48.445  37.548023     0.7037      6.645   279.5098 1.2375e-01     8.3249      6.345      9.202    13.7497   999.3302 0.0000e+00
      6.475      0.032     4.6187     63.689     48.447  37.549178     0.7098      6.645   279.5182 1.2369e-01     8.3534      6.348      9.207    13.7498   999.3302 0.0000e+00
      6.485      0.028     4.6170     63.670     48.463  37.561770     0.7139      6.645   279.6280 1.2362e-01     8.3683      6.360      9.224    13.7496   999.3303 0.0000e+00
      6.496      0.026     4.6185     63.670     48.478  37.573321     0.7096      6.644   279.7183 1.2366e-01     8.4073      6.372      9.242    13.7496   999.3303 0.0000e+00
      6.502      0.027     4.6186     63.706     48.463  37.561885     0.6923      6.643   279.7504 1.2371e-01     8.4970      6.378      9.251    13.7496   999.3304 0.0000e+00
      6.505      0.028     4.6182     63.762     48.448  37.550448     0.6788      6.642   279.7580 1.2372e-01     8.5679      6.379      9.252    13.7496   999.3304 0.0000e+00
      6.509      0.029     4.6157     63.823     48.463  37.561999     0.6760      6.642   279.7238 1.2369e-01     8.5767      6.381      9.255    13.7498   999.3304 0.0000e+00
      6.517      0.033     4.6149     63.871     48.480  37.574591     0.6766      6.642   279.7669 1.2365e-01     8.5382      6.390      9.268    13.7497   999.3305 0.0000e+00
      6.527      0.040     4.6186     63.895     48.481  37.575734     0.6772      6.641   279.8487 1.2368e-01     8.4624      6.402      9.285    13.7497   999.3305 0.0000e+00
      6.537      0.046     4.6227     63.897     48.481  37.575829     0.6745      6.640   279.9387 1.2377e-01     8.3477      6.411      9.297    13.7498   999.3305 0.0000e+00
      6.549      0.048     4.6278     63.876     48.481  37.575735     0.6698      6.640   280.0805 1.2380e-01     8.2985      6.420      9.311    13.7497   999.3306 0.0000e+00
      6.566      0.046     4.6317     63.832     48.479  37.574591     0.6719      6.640   280.1013 1.2374e-01     8.3599      6.438      9.338    13.7498   999.3307 0.0000e+00
      6.583      0.043     4.6329     63.793     48.463  37.562000     0.6743      6.638   280.0177 1.2372e-01     8.4349      6.458      9.367    13.7498   999.3307 0.0000e+00
      6.594      0.043     4.6332     63.763     48.447  37.550458     0.6647      6.637   280.0167 1.2374e-01     8.4835      6.470      9.384    13.7498   999.3308 0.0000e+00
      6.599      0.044     4.6323     63.743     48.462  37.561990     0.6595      6.637   280.1744 1.2375e-01     8.5220      6.472      9.387    13.7496   999.3308 0.0000e+00
      6.603      0.044     4.6274     63.748     48.479  37.574475     0.6730      6.637   280.3754 1.2378e-01     8.5397      6.472      9.386    13.7498   999.3308 0.0000e+00
      6.613      0.044     4.6248     63.757     48.479  37.574465     0.6882      6.637   280.4681 1.2378e-01     8.5335      6.481      9.400    13.7503   999.3308 0.0000e+00
      6.632      0.046     4.6231     63.757     48.463  37.561864     0.6874      6.636   280.4351 1.2375e-01     8.5452      6.503      9.432    13.7506   999.3308 0.0000e+00
      6.651      0.049     4.6201     63.751     48.446  37.549074     0.6728      6.635   280.4071 1.2376e-01     8.5827      6.526      9.465    13.7506   999.3310 0.0000e+00
      6.664      0.050     4.6220     63.744     48.443  37.546777     0.6675      6.635   280.5599 1.2378e-01     8.5612      6.537      9.482    13.7504   999.3310 0.0000e+00
      6.669      0.046     4.6229     63.749     48.427  37.534091     0.6754      6.635   280.7330 1.2374e-01     8.4821      6.540      9.484    13.7499   999.3311 0.0000e+00
      6.677      0.039     4.6225     63.752     48.412  37.522645     0.6721      6.634   280.6930 1.2370e-01     8.4131      6.544      9.490    13.7497   999.3312 0.0000e+00
      6.692      0.032     4.6225     63.758     48.428  37.535339     0.6716      6.632   280.6787 1.2373e-01     8.3492      6.563      9.519    13.7497   999.3312 0.0000e+00
      6.706      0.026     4.6208     63.782     48.460  37.560615     0.6775      6.631   280.8183 1.2379e-01     8.2992      6.582      9.546    13.7497   999.3313 0.0000e+00
      6.710      0.022     4.6224     63.809     48.478  37.574340     0.6562      6.630   281.0049 1.2382e-01     8.2999      6.581      9.546    13.7502   999.3312 0.0000e+00
      6.710      0.022     4.6223     63.828     48.478  37.574340     0.6225      6.629   281.2142 1.2378e-01     8.3253      6.578      9.541    13.7504   999.3312 0.0000e+00
      6.711      0.024     4.6216     63.842     48.460  37.560615     0.6090      6.628   281.2834 1.2375e-01     8.3108      6.582      9.546    13.7505   999.3312 0.0000e+00
      6.712      0.029     4.6245     63.847     48.428  37.535349     0.6139      6.628   281.2397 1.2372e-01     8.2889      6.581      9.545    13.7506   999.3312 0.0000e+00
      6.720      0.034     4.6266     63.845     48.412  37.522749     0.6208      6.627   281.2019 1.2371e-01     8.3231      6.584      9.549    13.7506   999.3312 0.0000e+00
      6.737      0.039     4.6277     63.853     48.427  37.535226     0.6227      6.627   281.1707 1.2378e-01     8.3638      6.607      9.582    13.7506   999.3313 0.0000e+00
      6.756      0.042     4.6287     63.854     48.457  37.559253     0.6194      6.626   281.2063 1.2381e-01     8.3545      6.632      9.618    13.7505   999.3315 0.0000e+00
      6.765      0.042     4.6298     63.847     48.456  37.559356     0.6155      6.625   281.2880 1.2376e-01     8.3422      6.636      9.625    13.7506   999.3314 0.0000e+00
      6.770      0.039     4.6279     63.867     48.426  37.536473     0.6192      6.625   281.3850 1.2373e-01     8.3452      6.637      9.626    13.7507   999.3314 0.0000e+00
      6.778      0.035     4.6297     63.898     48.426  37.536483     0.6216      6.626   281.4324 1.2373e-01     8.3254      6.647      9.640    13.7509   999.3315 0.0000e+00
      6.787      0.035     4.6304     63.896     48.457  37.559471     0.6180      6.626   281.4304 1.2378e-01     8.2999      6.658      9.656    13.7521   999.3314 0.0000e+00
      6.795      0.036     4.6272     63.876     48.459  37.560511     0.6103      6.626   281.4481 1.2382e-01     8.2991      6.663      9.664    13.7536   999.3312 0.0000e+00
      6.804      0.036     4.6295     63.856     48.445  37.549065     0.6068      6.626   281.3880 1.2372e-01     8.3164      6.670      9.675    13.7538   999.3312 0.0000e+00
      6.818      0.036     4.6341     63.824     48.443  37.548025     0.6098      6.625   281.3052 1.2366e-01     8.3777      6.687      9.698    13.7531   999.3313 0.0000e+00
      6.830      0.036     4.6327     63.775     48.442  37.547940     0.6121      6.625   281.3936 1.2370e-01     8.5158      6.702      9.720    13.7523   999.3315 0.0000e+00
      6.835      0.036     4.6308     63.720     48.442  37.548036     0.6180      6.624   281.5970 1.2370e-01     8.6428      6.704      9.724    13.7513   999.3317 0.0000e+00
      6.839      0.034     4.6301     63.680     48.444  37.549180     0.6205      6.624   281.7852 1.2368e-01     8.6346      6.704      9.723    13.7509   999.3317 0.0000e+00
      6.849      0.032     4.6274     63.650     48.460  37.561771     0.6248      6.624   281.7760 1.2374e-01     8.5151      6.715      9.739    13.7516   999.3317 0.0000e+00
      6.863      0.032     4.6244     63.620     48.475  37.573313     0.6439      6.624   281.5719 1.2383e-01     8.4106      6.733      9.765    13.7521   999.3317 0.0000e+00
      6.872      0.035     4.6187     63.590     48.460  37.561782     0.6606      6.623   281.4687 1.2376e-01     8.3868      6.742      9.778    13.7520   999.3318 0.0000e+00
      6.876      0.037     4.6168     63.564     48.442  37.549304     0.6703      6.623   281.5601 1.2369e-01     8.3913      6.742      9.779    13.7521   999.3317 0.0000e+00
      6.883      0.037     4.6146     63.555     48.441  37.549408     0.6747      6.623   281.7311 1.2371e-01     8.3995      6.746      9.785    13.7517   999.3318 0.0000e+00
      6.894      0.036     4.6123     63.573     48.459  37.563038     0.6697      6.622   281.6441 1.2371e-01     8.4527      6.761      9.805    13.7517   999.3319 0.0000e+00
      6.908      0.034     4.6105     63.610     48.490  37.587152     0.6709      6.622   281.3685 1.2365e-01     8.5097      6.775      9.826    13.7521   999.3319 0.0000e+00
      6.920      0.034     4.6074     63.631     48.490  37.587047     0.6805      6.621   281.3230 1.2362e-01     8.5319      6.787      9.844    13.7532   999.3318 0.0000e+00
      6.927      0.033     4.6071     63.638     48.457  37.561771     0.6818      6.620   281.3524 1.2365e-01     8.5575      6.795      9.857    13.7544   999.3317 0.0000e+00
      6.930      0.031     4.6075     63.667     48.422  37.535455     0.6699      6.620   281.3804 1.2367e-01     8.5580      6.796      9.858    13.7543   999.3317 0.0000e+00
      6.934      0.029     4.6123     63.707     48.405  37.522770     0.6584      6.619   281.4892 1.2368e-01     8.5368      6.798      9.860    13.7540   999.3318 0.0000e+00
      6.943      0.027     4.6138     63.723     48.422  37.535352     0.6549      6.618   281.4629 1.2373e-01     8.5633      6.807      9.874    13.7541   999.3318 0.0000e+00
      6.954      0.026     4.6121     63.711     48.454  37.560627     0.6618      6.618   281.4069 1.2376e-01     8.5839      6.821      9.893    13.7550   999.3317 0.0000e+00
      6.963      0.026     4.6149     63.679     48.471  37.574465     0.6814      6.618   281.4141 1.2373e-01     8.4914      6.832      9.908    13.7561   999.3316 0.0000e+00
      6.968      0.026     4.6193     63.639     48.472  37.575713     0.7011      6.618   281.3779 1.2371e-01     8.3292      6.834      9.913    13.7559   999.3316 0.0000e+00
      6.970      0.026     4.6203     63.623     48.472  37.575723     0.7088      6.617   281.4859 1.2370e-01     8.2608      6.833      9.911    13.7555   999.3317 0.0000e+00
      6.975      0.027     4.6189     63.626     48.471  37.574579     0.7056      6.617   281.6869 1.2369e-01     8.2873      6.838      9.918    13.7555   999.3317 0.0000e+00
      6.984      0.030     4.6172     63.619     48.455  37.561876     0.6970      6.617   281.7434 1.2369e-01     8.3554      6.849      9.933    13.7563   999.3317 0.0000e+00
      6.993      0.035     4.6118     63.604     48.440  37.549087     0.6824      6.618   281.7387 1.2371e-01     8.4605      6.859      9.948    13.7574   999.3316 0.0000e+00
      7.002      0.038     4.6115     63.620     48.438  37.546892     0.6688      6.618   281.8027 1.2373e-01     8.5423      6.866      9.959    13.7573   999.3316 0.0000e+00
      7.012      0.038     4.6129     63.658     48.425  37.535340     0.6622      6.618   281.8283 1.2375e-01     8.5910      6.875      9.972    13.7567   999.3318 0.0000e+00
      7.024      0.037     4.6124     63.678     48.427  37.536370     0.6723      6.618   281.7903 1.2376e-01     8.6235      6.889      9.991    13.7562   999.3319 0.0000e+00
      7.035      0.036     4.6098     63.691     48.457  37.559348     0.6956      6.618   281.9459 1.2376e-01     8.6403      6.900     10.008    13.7551   999.3321 0.0000e+00
      7.043      0.036     4.6109     63.712     48.457  37.559253     0.7013      6.617   282.2467 1.2377e-01     8.6303      6.908     10.019    13.7539   999.3323 0.0000e+00
      7.049      0.036     4.6165     63.750     48.427  37.535227     0.6978      6.615   282.4156 1.2377e-01     8.6007      6.912     10.025    13.7529   999.3324 0.0000e+00
      7.057      0.038     4.6165     63.805     48.411  37.522759     0.7047      6.615   282.3541 1.2374e-01     8.6102      6.919     10.035    13.7523   999.3326 0.0000e+00
      7.068      0.041     4.6173     63.854     48.427  37.535454     0.7155      6.614   282.1906 1.2374e-01     8.6465      6.933     10.055    13.7522   999.3326 0.0000e+00
      7.078      0.042     4.6189     63.875     48.461  37.561763     0.7165      6.612   282.3320 1.2379e-01     8.6467      6.941     10.066    13.7518   999.3327 0.0000e+00
      7.090      0.042     4.6210     63.892     48.494  37.586944     0.7074      6.611   282.7734 1.2381e-01     8.6125      6.949     10.078    13.7514   999.3328 0.0000e+00
      7.106      0.039     4.6261     63.903     48.492  37.586008     0.7012      6.610   282.9659 1.2373e-01     8.5281      6.969     10.108    13.7518   999.3328 0.0000e+00
      7.120      0.035     4.6306     63.867     48.446  37.550448     0.6933      6.609   282.8533 1.2368e-01     8.4125      6.986     10.131    13.7517   999.3329 0.0000e+00
      7.125      0.032     4.6308     63.796     48.430  37.537858     0.6811      6.609   282.7891 1.2371e-01     8.3618      6.989     10.136    13.7513   999.3330 0.0000e+00
      7.127      0.030     4.6316     63.733     48.459  37.560743     0.6754      6.609   282.7918 1.2372e-01     8.3416      6.988     10.136    13.7508   999.3331 0.0000e+00
      7.130      0.030     4.6351     63.683     48.475  37.573230     0.6763      6.609   282.7999 1.2370e-01     8.2994      6.991     10.139    13.7505   999.3332 0.0000e+00
      7.137      0.030     4.6315     63.652     48.460  37.561878     0.6660      6.609   282.8871 1.2369e-01     8.3105      6.997     10.148    13.7512   999.3330 0.0000e+00
      7.148      0.031     4.6244     63.654     48.444  37.550447     0.6549      6.609   283.0720 1.2372e-01     8.3440      7.009     10.166    13.7517   999.3331 0.0000e+00
      7.162      0.032     4.6205     63.682     48.459  37.561979     0.6635      6.609   283.2287 1.2373e-01     8.3444      7.026     10.190    13.7517   999.3332 0.0000e+00
      7.171      0.033     4.6165     63.709     48.475  37.574353     0.6742      6.608   283.2330 1.2363e-01     8.3481      7.035     10.204    13.7520   999.3331 0.0000e+00
      7.175      0.033     4.6138     63.727     48.473  37.573103     0.6709      6.608   283.1236 1.2357e-01     8.3888      7.036     10.205    13.7523   999.3331 0.0000e+00
      7.179      0.033     4.6137     63.737     48.439  37.546873     0.6670      6.608   283.1106 1.2363e-01     8.4763      7.039     10.208    13.7530   999.3330 0.0000e+00
      7.187      0.033     4.6172     63.732     48.393  37.511105     0.6705      6.607   283.2484 1.2371e-01     8.5537      7.047     10.221    13.7532   999.3330 0.0000e+00
      7.198      0.035     4.6190     63.714     48.407  37.521502     0.6707      6.607   283.3270 1.2376e-01     8.5710      7.058     10.237    13.7535   999.3331 0.0000e+00
      7.210      0.038     4.6198     63.683     48.437  37.545624     0.6690      6.607   283.3723 1.2377e-01     8.5542      7.071     10.255    13.7541   999.3330 0.0000e+00
      7.220      0.039     4.6215     63.662     48.441  37.548858     0.6680      6.606   283.4518 1.2375e-01     8.5792      7.082     10.272    13.7537   999.3331 0.0000e+00
      7.228      0.039     4.6204     63.661     48.457  37.560607     0.6674      6.605   283.2558 1.2369e-01     8.6446      7.088     10.281    13.7532   999.3332 0.0000e+00
      7.237      0.037     4.6198     63.648     48.458  37.560720     0.6704      6.604   282.8959 1.2364e-01     8.6572      7.095     10.291    13.7533   999.3332 0.0000e+00
      7.249      0.032     4.6166     63.634     48.444  37.550220     0.6775      6.604   282.8858 1.2365e-01     8.6001      7.108     10.310    13.7539   999.3332 0.0000e+00
      7.260      0.028     4.6139     63.630     48.457  37.560607     0.6841      6.604   283.1337 1.2368e-01     8.5442      7.121     10.329    13.7545   999.3332 0.0000e+00
      7.266      0.025     4.6163     63.609     48.454  37.559357     0.6808      6.604   283.3117 1.2371e-01     8.5379      7.127     10.337    13.7539   999.3333 0.0000e+00
      7.269      0.022     4.6143     63.587     48.422  37.535112     0.6720      6.604   283.1457 1.2375e-01     8.5565      7.128     10.338    13.7527   999.3335 0.0000e+00
      7.271      0.022     4.6121     63.585     48.403  37.521367     0.6818      6.604   282.7612 1.2376e-01     8.5729      7.132     10.342    13.7528   999.3334 0.0000e+00
      7.275      0.027     4.6144     63.590     48.402  37.520128     0.7043      6.604   282.6202 1.2373e-01     8.5734      7.135     10.349    13.7533   999.3334 0.0000e+00
      7.279      0.032     4.6112     63.607     48.404  37.520129     0.7097      6.603   282.7315 1.2373e-01     8.5292      7.137     10.351    13.7537   999.3334 0.0000e+00
      7.288      0.036     4.6086     63.637     48.407  37.521378     0.7123      6.601   282.9883 1.2375e-01     8.4966      7.143     10.360    13.7554   999.3332 0.0000e+00
      7.305      0.038     4.6097     63.657     48.426  37.535226     0.7193      6.600   283.1446 1.2370e-01     8.5067      7.163     10.390    13.7568   999.3331 0.0000e+00
      7.322      0.041     4.6093     63.670     48.459  37.560606     0.7064      6.600   283.0721 1.2368e-01     8.4557      7.185     10.421    13.7558   999.3333 0.0000e+00
      7.331      0.042     4.6106     63.681     48.476  37.574341     0.6788      6.599   282.9717 1.2370e-01     8.3383      7.192     10.432    13.7535   999.3336 0.0000e+00
      7.334      0.041     4.6143     63.677     48.476  37.574342     0.6626      6.598   282.8774 1.2368e-01     8.2671      7.190     10.427    13.7520   999.3338 0.0000e+00
      7.341      0.038     4.6152     63.658     48.457  37.560616     0.6662      6.597   282.7934 1.2368e-01     8.2833      7.196     10.437    13.7515   999.3339 0.0000e+00
      7.356      0.038     4.6161     63.641     48.423  37.535340     0.6877      6.597   282.9019 1.2371e-01     8.3706      7.214     10.464    13.7511   999.3341 0.0000e+00
      7.369      0.041     4.6174     63.633     48.407  37.522636     0.7146      6.596   283.2429 1.2375e-01     8.5030      7.229     10.485    13.7512   999.3342 0.0000e+00
      7.377      0.043     4.6169     63.635     48.423  37.533968     0.7223      6.595   283.3882 1.2378e-01     8.5728      7.234     10.492    13.7525   999.3340 0.0000e+00
      7.386      0.043     4.6149     63.666     48.439  37.545395     0.7116      6.595   283.1960 1.2378e-01     8.5595      7.242     10.502    13.7540   999.3338 0.0000e+00
      7.398      0.043     4.6131     63.720     48.424  37.533853     0.6977      6.595   282.9838 1.2376e-01     8.5720      7.255     10.522    13.7549   999.3338 0.0000e+00
      7.411      0.043     4.6132     63.768     48.408  37.521366     0.6848      6.595   282.8871 1.2378e-01     8.5591      7.269     10.543    13.7548   999.3338 0.0000e+00
      7.422      0.045     4.6122     63.801     48.409  37.521366     0.6776      6.595   282.8877 1.2381e-01     8.5021      7.280     10.558    13.7536   999.3341 0.0000e+00
      7.431      0.046     4.6149     63.811     48.425  37.533853     0.6707      6.595   283.1642 1.2378e-01     8.5054      7.287     10.568    13.7526   999.3343 0.0000e+00
      7.442      0.044     4.6201     63.792     48.440  37.545385     0.6622      6.594   283.5632 1.2374e-01     8.5986      7.296     10.581    13.7523   999.3343 0.0000e+00
      7.457      0.041     4.6234     63.774     48.425  37.533844     0.6697      6.593   283.6673 1.2375e-01     8.7112      7.313     10.607    13.7520   999.3344 0.0000e+00
      7.471      0.040     4.6258     63.773     48.408  37.521264     0.6837      6.594   283.6483 1.2374e-01     8.7533      7.328     10.630    13.7517   999.3346 0.0000e+00
      7.479      0.040     4.6277     63.755     48.407  37.520234     0.6843      6.594   283.5916 1.2370e-01     8.7474      7.336     10.639    13.7512   999.3346 0.0000e+00
      7.484      0.040     4.6249     63.727     48.409  37.521389     0.6769      6.593   283.6702 1.2369e-01     8.7052      7.338     10.642    13.7511   999.3347 0.0000e+00
      7.491      0.039     4.6223     63.703     48.427  37.535239     0.6717      6.592   283.9966 1.2370e-01     8.6042      7.343     10.651    13.7512   999.3347 0.0000e+00
      7.504      0.038     4.6250     63.687     48.460  37.560733     0.6741      6.591   284.0963 1.2376e-01     8.5407      7.357     10.671    13.7514   999.3347 0.0000e+00
      7.519      0.038     4.6223     63.695     48.480  37.575726     0.6799      6.591   284.0158 1.2380e-01     8.5278      7.375     10.697    13.7516   999.3348 0.0000e+00
      7.530      0.036     4.6197     63.710     48.498  37.589566     0.6810      6.591   284.0554 1.2377e-01     8.5146      7.387     10.713    13.7512   999.3349 0.0000e+00
      7.536      0.033     4.6190     63.713     48.512  37.601118     0.6785      6.590   284.0584 1.2371e-01     8.5772      7.390     10.718    13.7508   999.3349 0.0000e+00
      7.542      0.029     4.6161     63.726     48.495  37.588443     0.6762      6.589   284.0520 1.2364e-01     8.6949      7.396     10.727    13.7507   999.3350 0.0000e+00
      7.549      0.029     4.6179     63.757     48.461  37.563263     0.6707      6.589   284.2366 1.2361e-01     8.7576      7.404     10.738    13.7508   999.3350 0.0000e+00
      7.555      0.033     4.6198     63.787     48.445  37.550578     0.6637      6.588   284.3971 1.2366e-01     8.7455      7.409     10.747    13.7508   999.3351 0.0000e+00
      7.560      0.038     4.6189     63.806     48.461  37.562024     0.6603      6.587   284.3576 1.2371e-01     8.7454      7.412     10.751    13.7511   999.3351 0.0000e+00
      7.569      0.041     4.6192     63.803     48.478  37.574709     0.6650      6.587   284.2762 1.2371e-01     8.7888      7.419     10.761    13.7518   999.3350 0.0000e+00
      7.584      0.042     4.6226     63.781     48.482  37.576997     0.6773      6.587   284.1867 1.2371e-01     8.8117      7.437     10.785    13.7528   999.3349 0.0000e+00
      7.602      0.043     4.6247     63.770     48.498  37.589691     0.6870      6.587   284.1360 1.2369e-01     8.7928      7.457     10.816    13.7529   999.3350 0.0000e+00
      7.614      0.043     4.6261     63.757     48.513  37.601233     0.6875      6.586   284.2655 1.2368e-01     8.6585      7.470     10.834    13.7519   999.3352 0.0000e+00
      7.620      0.042     4.6272     63.726     48.498  37.589588     0.6827      6.586   284.3762 1.2367e-01     8.4333      7.472     10.837    13.7509   999.3353 0.0000e+00
      7.626      0.041     4.6230     63.691     48.480  37.575853     0.6807      6.586   284.3556 1.2361e-01     8.3317      7.479     10.846    13.7504   999.3355 0.0000e+00
      7.635      0.038     4.6236     63.673     48.463  37.562108     0.6888      6.585   284.3606 1.2368e-01     8.3480      7.488     10.859    13.7503   999.3355 0.0000e+00
      7.648      0.038     4.6234     63.681     48.448  37.550358     0.6861      6.583   284.3507 1.2382e-01     8.3349      7.497     10.873    13.7505   999.3355 0.0000e+00
      7.663      0.041     4.6200     63.691     48.460  37.560746     0.6483      6.583   284.3220 1.2382e-01     8.3048      7.516     10.900    13.7506   999.3356 0.0000e+00
      7.674      0.046     4.6177     63.709     48.460  37.560745     0.6136      6.582   284.3574 1.2376e-01     8.3109      7.532     10.923    13.7503   999.3357 0.0000e+00
      7.678      0.048     4.6149     63.729     48.447  37.550349     0.6136      6.581   284.5213 1.2371e-01     8.3435      7.530     10.921    13.7501   999.3357 0.0000e+00
      7.684      0.047     4.6177     63.733     48.462  37.561994     0.6221      6.580   284.6678 1.2371e-01     8.3711      7.529     10.919    13.7502   999.3357 0.0000e+00
      7.704      0.045     4.6174     63.739     48.479  37.574594     0.6207      6.578   284.4946 1.2377e-01     8.3831      7.553     10.955    13.7504   999.3358 0.0000e+00
      7.727      0.044     4.6182     63.739     48.480  37.575738     0.6232      6.578   284.2343 1.2379e-01     8.3566      7.585     11.001    13.7512   999.3358 0.0000e+00
      7.737      0.043     4.6218     63.717     48.480  37.575833     0.6258      6.578   284.1872 1.2376e-01     8.3122      7.591     11.009    13.7512   999.3358 0.0000e+00
      7.739      0.038     4.6199     63.686     48.480  37.575739     0.6168      6.577   284.1836 1.2373e-01     8.3061      7.586     11.003    13.7506   999.3359 0.0000e+00
      7.745      0.033     4.6215     63.663     48.478  37.574594     0.6106      6.576   284.1906 1.2374e-01     8.3156      7.593     11.013    13.7507   999.3360 0.0000e+00
      7.755      0.031     4.6220     63.660     48.462  37.561993     0.6110      6.577   284.2718 1.2377e-01     8.2952      7.608     11.033    13.7506   999.3360 0.0000e+00
      7.763      0.034     4.6198     63.666     48.447  37.550337     0.6130      6.578   284.3045 1.2377e-01     8.2892      7.614     11.043    13.7505   999.3361 0.0000e+00
      7.770      0.039     4.6174     63.675     48.460  37.560621     0.6173      6.578   284.2420 1.2376e-01     8.3092      7.617     11.047    13.7505   999.3361 0.0000e+00
      7.780      0.044     4.6147     63.680     48.458  37.559371     0.6370      6.577   284.2043 1.2373e-01     8.3076      7.628     11.063    13.7508   999.3361 0.0000e+00
      7.793      0.049     4.6155     63.682     48.427  37.535229     0.6690      6.577   284.2792 1.2372e-01     8.3020      7.644     11.086    13.7510   999.3361 0.0000e+00
      7.806      0.053     4.6155     63.682     48.410  37.522638     0.6755      6.576   284.3734 1.2375e-01     8.3076      7.655     11.103    13.7508   999.3362 0.0000e+00
      7.820      0.053     4.6169     63.685     48.425  37.534084     0.6632      6.575   284.4825 1.2380e-01     8.3099      7.668     11.121    13.7511   999.3362 0.0000e+00
      7.837      0.050     4.6167     63.684     48.442  37.546667     0.6672      6.574   284.5658 1.2381e-01     8.2966      7.685     11.148    13.7514   999.3363 0.0000e+00
      7.854      0.045     4.6170     63.663     48.444  37.547819     0.6815      6.575   284.5203 1.2379e-01     8.3110      7.704     11.175    13.7515   999.3363 0.0000e+00
      7.865      0.043     4.6169     63.643     48.444  37.548018     0.6800      6.575   284.4487 1.2377e-01     8.3534      7.715     11.191    13.7514   999.3364 0.0000e+00
      7.870      0.043     4.6170     63.651     48.446  37.549078     0.6661      6.574   284.3883 1.2375e-01     8.3499      7.718     11.194    13.7511   999.3365 0.0000e+00
      7.874      0.043     4.6182     63.671     48.461  37.560630     0.6700      6.573   284.3919 1.2376e-01     8.3991      7.720     11.196    13.7507   999.3365 0.0000e+00
      7.883      0.042     4.6157     63.696     48.461  37.560734     0.6831      6.572   284.6647 1.2376e-01     8.5227      7.727     11.206    13.7505   999.3366 0.0000e+00
      7.901      0.042     4.6130     63.746     48.448  37.550337     0.6858      6.571   285.0192 1.2372e-01     8.5660      7.748     11.236    13.7505   999.3367 0.0000e+00
      7.921      0.042     4.6144     63.789     48.463  37.561880     0.6850      6.571   285.0649 1.2370e-01     8.5300      7.772     11.273    13.7504   999.3368 0.0000e+00
      7.931      0.041     4.6167     63.795     48.478  37.573336     0.6651      6.571   284.9604 1.2372e-01     8.4799      7.781     11.285    13.7504   999.3369 0.0000e+00
      7.934      0.038     4.6166     63.771     48.463  37.561890     0.6352      6.571   284.8734 1.2373e-01     8.4846      7.778     11.280    13.7503   999.3369 0.0000e+00
      7.939      0.033     4.6221     63.733     48.448  37.550443     0.6282      6.570   284.8734 1.2372e-01     8.5547      7.782     11.286    13.7501   999.3369 0.0000e+00
      7.950      0.030     4.6261     63.703     48.462  37.561890     0.6235      6.568   285.0455 1.2372e-01     8.5740      7.796     11.307    13.7500   999.3370 0.0000e+00
      7.960      0.032     4.6260     63.678     48.477  37.573337     0.6120      6.568   285.2336 1.2371e-01     8.4883      7.809     11.325    13.7501   999.3370 0.0000e+00
      7.967      0.033     4.6242     63.638     48.462  37.561891     0.6120      6.569   285.2556 1.2374e-01     8.4032      7.813     11.332    13.7501   999.3371 0.0000e+00
      7.972      0.031     4.6203     63.576     48.447  37.550452     0.6225      6.569   285.1399 1.2374e-01     8.3639      7.816     11.336    13.7502   999.3370 0.0000e+00
      7.982      0.027     4.6184     63.528     48.462  37.561993     0.6265      6.569   285.1240 1.2371e-01     8.3087      7.827     11.352    13.7502   999.3371 0.0000e+00
      7.993      0.024     4.6170     63.519     48.478  37.574470     0.6171      6.568   285.2356 1.2371e-01     8.2597      7.840     11.373    13.7505   999.3371 0.0000e+00
      7.998      0.022     4.6151     63.543     48.477  37.574356     0.6299      6.568   285.3711 1.2372e-01     8.2956      7.844     11.378    13.7509   999.3371 0.0000e+00
      7.998      0.019     4.6087     63.593     48.459  37.560611     0.6595      6.568   285.3857 1.2372e-01     8.4481      7.843     11.375    13.7511   999.3370 0.0000e+00
      8.001      0.016     4.6045     63.640     48.427  37.535240     0.6722      6.569   285.2405 1.2370e-01     8.5966      7.846     11.379    13.7511   999.3371 0.0000e+00
      8.007      0.013     4.6049     63.680     48.410  37.521506     0.6806      6.569   285.1640 1.2371e-01     8.6161      7.852     11.389    13.7510   999.3371 0.0000e+00
      8.012      0.011     4.6056     63.730     48.410  37.521506     0.6731      6.568   285.1488 1.2371e-01     8.5526      7.859     11.398    13.7511   999.3371 0.0000e+00
      8.016      0.010     4.6111     63.775     48.428  37.535241     0.6427      6.567   285.1427 1.2369e-01     8.5172      7.862     11.403    13.7512   999.3371 0.0000e+00
      8.017      0.007     4.6142     63.786     48.460  37.560620     0.6244      6.568   285.2619 1.2371e-01     8.5161      7.862     11.402    13.7513   999.3371 0.0000e+00
      8.017      0.005     4.6161     63.758     48.478  37.574459     0.6258      6.568   285.3863 1.2376e-01     8.5064      7.861     11.402    13.7512   999.3371 0.0000e+00
      8.018      0.006     4.6207     63.725     48.479  37.575604     0.6245      6.568   285.4419 1.2377e-01     8.4648      7.863     11.404    13.7509   999.3372 0.0000e+00
      8.018      0.012     4.6246     63.706     48.477  37.574470     0.6180      6.567   285.5034 1.2372e-01     8.3743      7.863     11.404    13.7508   999.3372 0.0000e+00
      8.018      0.025     4.6262     63.699     48.458  37.560745     0.6160      6.566   285.5282 1.2371e-01     8.2968      7.863     11.404    13.7509   999.3372 0.0000e+00
      8.020      0.042     4.6222     63.686     48.427  37.536615     0.6184      6.564   285.3980 1.2375e-01     8.2818      7.863     11.405    13.7510   999.3372 0.0000e+00
      8.029      0.059     4.6196     63.654     48.428  37.536615     0.6376      6.563   285.2192 1.2376e-01     8.3566      7.870     11.414    13.7514   999.3371 0.0000e+00
      8.049      0.070     4.6183     63.629     48.460  37.560746     0.6664      6.563   285.2593 1.2375e-01     8.4805      7.889     11.442    13.7525   999.3371 0.0000e+00
      8.080      0.075     4.6178     63.619     48.478  37.574471     0.6715      6.562   285.4523 1.2373e-01     8.5345      7.923     11.492    13.7535   999.3371 0.0000e+00
      8.112      0.079     4.6184     63.602     48.480  37.575615     0.6647      6.561   285.5744 1.2369e-01     8.5173      7.961     11.546    13.7531   999.3373 0.0000e+00
      8.132      0.079     4.6144     63.576     48.478  37.574584     0.6626      6.561   285.6170 1.2369e-01     8.5023      7.981     11.574    13.7519   999.3376 0.0000e+00
      8.140      0.075     4.6124     63.551     48.462  37.562004     0.6629      6.560   285.6233 1.2369e-01     8.5173      7.981     11.575    13.7511   999.3377 0.0000e+00
      8.150      0.066     4.6131     63.541     48.447  37.550464     0.6686      6.559   285.5644 1.2367e-01     8.5349      7.987     11.584    13.7508   999.3378 0.0000e+00
      8.172      0.057     4.6112     63.564     48.462  37.562005     0.6706      6.559   285.5073 1.2367e-01     8.5507      8.012     11.620    13.7507   999.3379 0.0000e+00
      8.198      0.051     4.6094     63.617     48.479  37.574586     0.6692      6.559   285.5348 1.2368e-01     8.5450      8.044     11.668    13.7509   999.3380 0.0000e+00
      8.213      0.045     4.6071     63.667     48.480  37.575626     0.6609      6.559   285.6384 1.2369e-01     8.4655      8.059     11.690    13.7508   999.3381 0.0000e+00
      8.217      0.037     4.6060     63.707     48.478  37.574576     0.6400      6.558   285.7274 1.2374e-01     8.3763      8.059     11.686    13.7505   999.3381 0.0000e+00
      8.218      0.029     4.6074     63.744     48.462  37.561890     0.6244      6.558   285.7510 1.2376e-01     8.3513      8.058     11.686    13.7504   999.3382 0.0000e+00
      8.223      0.024     4.6127     63.761     48.445  37.549205     0.6198      6.558   285.7516 1.2373e-01     8.3595      8.064     11.695    13.7505   999.3382 0.0000e+00
      8.228      0.025     4.6165     63.761     48.444  37.548156     0.6359      6.558   285.7347 1.2374e-01     8.4104      8.069     11.702    13.7504   999.3382 0.0000e+00
      8.235      0.028     4.6182     63.747     48.446  37.549206     0.6727      6.558   285.8048 1.2371e-01     8.5074      8.075     11.712    13.7504   999.3383 0.0000e+00
      8.245      0.030     4.6227     63.725     48.462  37.561892     0.6913      6.558   285.9113 1.2368e-01     8.5494      8.086     11.728    13.7505   999.3383 0.0000e+00
      8.254      0.031     4.6229     63.702     48.479  37.574586     0.6790      6.558   285.9029 1.2371e-01     8.5245      8.096     11.742    13.7503   999.3383 0.0000e+00
      8.263      0.032     4.6231     63.672     48.480  37.575740     0.6538      6.558   285.8761 1.2372e-01     8.5342      8.103     11.753    13.7505   999.3384 0.0000e+00
      8.270      0.034     4.6221     63.646     48.480  37.575845     0.6295      6.558   285.9314 1.2372e-01     8.5683      8.110     11.762    13.7504   999.3384 0.0000e+00
      8.276      0.035     4.6200     63.631     48.480  37.575854     0.6199      6.558   285.9699 1.2369e-01     8.5437      8.116     11.770    13.7504   999.3385 0.0000e+00
      8.285      0.037     4.6191     63.633     48.480  37.575846     0.6241      6.558   285.8244 1.2366e-01     8.5319      8.125     11.783    13.7505   999.3385 0.0000e+00
      8.297      0.040     4.6159     63.648     48.480  37.575742     0.6358      6.557   285.7211 1.2366e-01     8.5897      8.136     11.800    13.7504   999.3385 0.0000e+00
      8.309      0.044     4.6144     63.663     48.478  37.574597     0.6573      6.557   285.8394 1.2371e-01     8.6202      8.149     11.819    13.7505   999.3386 0.0000e+00
      8.320      0.046     4.6127     63.682     48.462  37.562005     0.6767      6.556   285.9635 1.2377e-01     8.6048      8.159     11.833    13.7505   999.3386 0.0000e+00
      8.331      0.045     4.6130     63.687     48.447  37.550455     0.6798      6.556   285.9312 1.2378e-01     8.5676      8.167     11.846    13.7506   999.3387 0.0000e+00
      8.346      0.042     4.6152     63.677     48.462  37.561892     0.6600      6.556   285.7933 1.2372e-01     8.4652      8.183     11.869    13.7506   999.3387 0.0000e+00
      8.361      0.039     4.6151     63.685     48.478  37.573338     0.6288      6.555   285.7588 1.2365e-01     8.3501      8.202     11.896    13.7507   999.3388 0.0000e+00
      8.369      0.038     4.6175     63.707     48.463  37.561892     0.6138      6.554   285.8582 1.2368e-01     8.3222      8.211     11.908    13.7505   999.3389 0.0000e+00
      8.372      0.039     4.6183     63.723     48.448  37.550454     0.6177      6.554   285.9623 1.2373e-01     8.3581      8.209     11.906    13.7503   999.3389 0.0000e+00
      8.377      0.041     4.6156     63.730     48.463  37.561995     0.6232      6.554   286.0721 1.2379e-01     8.3578      8.212     11.911    13.7503   999.3389 0.0000e+00
      8.389      0.045     4.6169     63.738     48.479  37.574482     0.6368      6.554   286.1536 1.2382e-01     8.3180      8.226     11.930    13.7502   999.3390 0.0000e+00
      8.404      0.050     4.6193     63.737     48.479  37.574482     0.6615      6.554   286.1722 1.2381e-01     8.3368      8.242     11.955    13.7499   999.3391 0.0000e+00
      8.419      0.055     4.6204     63.729     48.463  37.561995     0.6786      6.554   286.2117 1.2380e-01     8.3879      8.256     11.975    13.7499   999.3392 0.0000e+00
      8.435      0.056     4.6202     63.727     48.448  37.550454     0.6882      6.554   286.1997 1.2377e-01     8.3797      8.271     11.997    13.7498   999.3392 0.0000e+00
      8.452      0.055     4.6216     63.725     48.463  37.561893     0.6911      6.554   286.1137 1.2370e-01     8.4340      8.290     12.024    13.7496   999.3394 0.0000e+00
      8.465      0.053     4.6214     63.728     48.478  37.573339     0.6871      6.554   286.1189 1.2368e-01     8.6187      8.305     12.046    13.7499   999.3394 0.0000e+00
      8.475      0.050     4.6200     63.753     48.463  37.561893     0.6831      6.553   286.1763 1.2372e-01     8.7443      8.311     12.053    13.7500   999.3394 0.0000e+00
      8.487      0.050     4.6206     63.783     48.448  37.550454     0.6776      6.551   286.2051 1.2374e-01     8.7718      8.320     12.066    13.7500   999.3394 0.0000e+00
      8.502      0.053     4.6202     63.793     48.463  37.561997     0.6717      6.549   286.2959 1.2374e-01     8.7221      8.338     12.094    13.7501   999.3395 0.0000e+00
      8.515      0.057     4.6197     63.811     48.479  37.574493     0.6648      6.548   286.4136 1.2375e-01     8.6023      8.353     12.114    13.7501   999.3396 0.0000e+00
      8.525      0.057     4.6218     63.851     48.479  37.574587     0.6642      6.548   286.4227 1.2374e-01     8.5368      8.356     12.119    13.7502   999.3396 0.0000e+00
      8.542      0.054     4.6260     63.892     48.464  37.563141     0.6724      6.548   286.4062 1.2369e-01     8.5528      8.373     12.144    13.7502   999.3397 0.0000e+00
      8.565      0.049     4.6244     63.900     48.464  37.563056     0.6601      6.548   286.5587 1.2371e-01     8.5984      8.404     12.190    13.7501   999.3398 0.0000e+00
      8.581      0.045     4.6257     63.864     48.478  37.573550     0.6278      6.548   286.7168 1.2376e-01     8.5964      8.420     12.213    13.7499   999.3399 0.0000e+00
      8.585      0.041     4.6292     63.805     48.465  37.563066     0.6112      6.548   286.6833 1.2371e-01     8.5289      8.420     12.210    13.7498   999.3399 0.0000e+00
      8.587      0.038     4.6333     63.741     48.465  37.563256     0.6068      6.547   286.5851 1.2369e-01     8.5034      8.419     12.211    13.7497   999.3400 0.0000e+00
      8.594      0.035     4.6345     63.670     48.480  37.575847     0.6179      6.547   286.5618 1.2370e-01     8.5499      8.426     12.221    13.7497   999.3400 0.0000e+00
      8.606      0.037     4.6305     63.600     48.495  37.588343     0.6509      6.547   286.7457 1.2364e-01     8.6003      8.439     12.239    13.7499   999.3401 0.0000e+00
      8.620      0.044     4.6262     63.561     48.493  37.587388     0.6674      6.546   287.0012 1.2369e-01     8.5881      8.454     12.262    13.7501   999.3400 0.0000e+00
      8.631      0.054     4.6213     63.555     48.463  37.564305     0.6696      6.544   287.0695 1.2379e-01     8.5333      8.466     12.278    13.7502   999.3401 0.0000e+00
      8.639      0.065     4.6169     63.565     48.462  37.563151     0.6775      6.543   287.0550 1.2383e-01     8.5284      8.472     12.287    13.7508   999.3401 0.0000e+00
      8.651      0.072     4.6096     63.608     48.477  37.573443     0.6849      6.542   287.0853 1.2380e-01     8.5939      8.478     12.298    13.7515   999.3400 0.0000e+00
      8.674      0.075     4.6072     63.679     48.462  37.561789     0.6899      6.541   287.0916 1.2372e-01     8.6367      8.503     12.333    13.7520   999.3401 0.0000e+00
      8.706      0.078     4.6080     63.744     48.445  37.549198     0.6850      6.541   287.0450 1.2372e-01     8.5868      8.541     12.388    13.7519   999.3402 0.0000e+00
      8.733      0.081     4.6074     63.794     48.444  37.548159     0.6786      6.540   287.1245 1.2371e-01     8.5481      8.569     12.428    13.7514   999.3404 0.0000e+00
      8.748      0.083     4.6104     63.821     48.446  37.549218     0.6643      6.540   287.3642 1.2368e-01     8.5943      8.582     12.446    13.7510   999.3405 0.0000e+00
      8.759      0.083     4.6174     63.821     48.463  37.561998     0.6338      6.540   287.4475 1.2368e-01     8.6216      8.588     12.454    13.7508   999.3406 0.0000e+00
      8.776      0.079     4.6219     63.823     48.481  37.575733     0.6132      6.540   287.3578 1.2368e-01     8.5502      8.602     12.475    13.7507   999.3407 0.0000e+00
      8.803      0.075     4.6254     63.818     48.497  37.588333     0.6067      6.540   287.3113 1.2368e-01     8.4855      8.631     12.519    13.7505   999.3408 0.0000e+00
      8.833      0.073     4.6286     63.769     48.496  37.587389     0.5890      6.541   287.3164 1.2373e-01     8.4942      8.666     12.568    13.7505   999.3410 0.0000e+00
      8.855      0.071     4.6265     63.716     48.466  37.564316     0.5638      6.541   287.2465 1.2380e-01     8.5243      8.689     12.602    13.7503   999.3412 0.0000e+00
      8.865      0.066     4.6268     63.703     48.464  37.563268     0.5618      6.540   287.1545 1.2383e-01     8.5550      8.696     12.612    13.7502   999.3412 0.0000e+00
      8.872      0.059     4.6293     63.717     48.479  37.574714     0.5740      6.539   287.3223 1.2381e-01     8.5368      8.697     12.615    13.7502   999.3412 0.0000e+00
      8.886      0.052     4.6232     63.735     48.481  37.575755     0.5722      6.539   287.5548 1.2376e-01     8.5342      8.711     12.635    13.7502   999.3413 0.0000e+00
      8.906      0.048     4.6177     63.744     48.481  37.575859     0.5575      6.539   287.3857 1.2373e-01     8.5891      8.736     12.670    13.7503   999.3413 0.0000e+00
      8.922      0.049     4.6182     63.752     48.481  37.575972     0.5530      6.539   286.9981 1.2366e-01     8.5772      8.752     12.694    13.7505   999.3414 0.0000e+00
      8.932      0.052     4.6194     63.764     48.483  37.577118     0.5615      6.538   286.8256 1.2364e-01     8.5224      8.760     12.705    13.7506   999.3414 0.0000e+00
      8.937      0.054     4.6214     63.773     48.499  37.589718     0.5728      6.538   286.9351 1.2365e-01     8.5165      8.763     12.710    13.7502   999.3415 0.0000e+00
      8.947      0.055     4.6216     63.779     48.514  37.601364     0.5943      6.538   287.2038 1.2365e-01     8.5714      8.770     12.720    13.7501   999.3416 0.0000e+00
      8.964      0.056     4.6218     63.782     48.500  37.590966     0.6132      6.537   287.2352 1.2371e-01     8.6287      8.789     12.747    13.7502   999.3416 0.0000e+00
      8.986      0.058     4.6232     63.782     48.500  37.590956     0.6189      6.537   286.9699 1.2376e-01     8.6195      8.815     12.785    13.7502   999.3417 0.0000e+00
      9.005      0.058     4.6239     63.779     48.514  37.601250     0.6027      6.538   286.8354 1.2375e-01     8.5915      8.833     12.812    13.7502   999.3418 0.0000e+00
      9.017      0.054     4.6241     63.756     48.497  37.588470     0.5649      6.538   286.9002 1.2374e-01     8.5518      8.842     12.824    13.7500   999.3419 0.0000e+00
      9.028      0.048     4.6247     63.707     48.465  37.563384     0.5430      6.537   286.9797 1.2378e-01     8.5006      8.853     12.840    13.7499   999.3420 0.0000e+00
      9.039      0.042     4.6240     63.653     48.451  37.551841     0.5464      6.536   287.0212 1.2379e-01     8.4966      8.866     12.860    13.7499   999.3420 0.0000e+00
      9.048      0.039     4.6248     63.607     48.482  37.575869     0.5547      6.536   287.0578 1.2377e-01     8.5353      8.872     12.868    13.7497   999.3421 0.0000e+00
      9.057      0.039     4.6234     63.578     48.512  37.599993     0.5650      6.536   286.9928 1.2377e-01     8.6083      8.881     12.881    13.7496   999.3421 0.0000e+00
      9.067      0.041     4.6189     63.558     48.498  37.589604     0.5849      6.535   286.9231 1.2381e-01     8.6908      8.895     12.900    13.7496   999.3422 0.0000e+00
      9.075      0.043     4.6152     63.538     48.483  37.577222     0.6041      6.534   286.9892 1.2383e-01     8.7473      8.900     12.909    13.7495   999.3422 0.0000e+00
      9.084      0.045     4.6108     63.513     48.483  37.577232     0.6144      6.533   287.0178 1.2382e-01     8.7665      8.904     12.915    13.7494   999.3423 0.0000e+00
      9.099      0.046     4.6095     63.494     48.499  37.589719     0.6224      6.533   287.0975 1.2378e-01     8.7260      8.923     12.941    13.7496   999.3424 0.0000e+00
      9.116      0.047     4.6082     63.490     48.514  37.601251     0.6232      6.533   287.2638 1.2373e-01     8.6514      8.941     12.969    13.7498   999.3424 0.0000e+00
      9.127      0.049     4.6070     63.492     48.499  37.589708     0.6157      6.533   287.3076 1.2368e-01     8.5850      8.951     12.982    13.7499   999.3424 0.0000e+00
      9.137      0.050     4.6049     63.507     48.483  37.577117     0.6091      6.534   287.2833 1.2365e-01     8.5463      8.959     12.994    13.7497   999.3425 0.0000e+00
      9.148      0.048     4.6027     63.522     48.482  37.575962     0.5951      6.534   287.2276 1.2369e-01     8.5437      8.971     13.010    13.7497   999.3425 0.0000e+00
      9.162      0.045     4.6036     63.527     48.482  37.575746     0.5684      6.533   287.4084 1.2370e-01     8.5540      8.985     13.032    13.7498   999.3426 0.0000e+00
      9.176      0.042     4.6025     63.547     48.480  37.574498     0.5465      6.533   287.8349 1.2368e-01     8.5718      9.000     13.053    13.7496   999.3427 0.0000e+00
      9.188      0.039     4.6045     63.586     48.462  37.560875     0.5382      6.532   287.9105 1.2373e-01     8.5627      9.011     13.069    13.7495   999.3428 0.0000e+00
      9.197      0.035     4.6063     63.606     48.432  37.537992     0.5382      6.532   287.7198 1.2378e-01     8.4763      9.020     13.083    13.7493   999.3428 0.0000e+00
      9.204      0.035     4.6054     63.581     48.450  37.551727     0.5454      6.533   287.5938 1.2376e-01     8.3789      9.027     13.093    13.7493   999.3429 0.0000e+00
      9.208      0.038     4.6064     63.533     48.512  37.599992     0.5563      6.533   287.5064 1.2371e-01     8.3359      9.030     13.096    13.7495   999.3428 0.0000e+00
      9.214      0.043     4.6107     63.499     48.531  37.613727     0.5580      6.532   287.6953 1.2365e-01     8.3173      9.033     13.101    13.7496   999.3429 0.0000e+00
      9.226      0.047     4.6132     63.474     48.502  37.590843     0.5486      6.530   288.0705 1.2362e-01     8.3507      9.044     13.118    13.7498   999.3429 0.0000e+00
      9.244      0.050     4.6105     63.449     48.484  37.577220     0.5461      6.529   288.1712 1.2364e-01     8.4449      9.066     13.150    13.7500   999.3429 0.0000e+00
      9.263      0.054     4.6056     63.440     48.482  37.575973     0.5541      6.529   288.0522 1.2368e-01     8.5060      9.088     13.181    13.7499   999.3431 0.0000e+00
      9.276      0.055     4.6033     63.447     48.482  37.575757     0.5580      6.529   288.0085 1.2372e-01     8.4995      9.097     13.196    13.7495   999.3432 0.0000e+00
      9.286      0.055     4.6030     63.465     48.480  37.574602     0.5583      6.530   288.0736 1.2374e-01     8.4643      9.104     13.204    13.7491   999.3433 0.0000e+00
      9.298      0.054     4.5991     63.465     48.464  37.562009     0.5583      6.531   288.1509 1.2370e-01     8.4411      9.117     13.222    13.7490   999.3433 0.0000e+00
      9.313      0.052     4.5997     63.423     48.449  37.550459     0.5577      6.530   288.2544 1.2366e-01     8.4813      9.133     13.247    13.7489   999.3434 0.0000e+00
      9.328      0.049     4.5996     63.393     48.464  37.561896     0.5592      6.529   288.2933 1.2365e-01     8.5566      9.147     13.268    13.7489   999.3435 0.0000e+00
      9.343      0.045     4.6015     63.395     48.479  37.573342     0.5596      6.529   288.1905 1.2370e-01     8.5977      9.163     13.290    13.7489   999.3436 0.0000e+00
      9.357      0.040     4.6040     63.388     48.464  37.561897     0.5545      6.529   288.1296 1.2376e-01     8.5851      9.178     13.313    13.7490   999.3436 0.0000e+00
      9.365      0.036     4.5974     63.359     48.449  37.550470     0.5493      6.528   288.0731 1.2371e-01     8.5350      9.185     13.322    13.7490   999.3436 0.0000e+00
      9.369      0.035     4.5951     63.339     48.464  37.562136     0.5483      6.527   287.9388 1.2366e-01     8.5173      9.187     13.324    13.7490   999.3437 0.0000e+00
      9.374      0.036     4.5968     63.346     48.483  37.575995     0.5516      6.527   287.9681 1.2369e-01     8.5348      9.191     13.330    13.7492   999.3437 0.0000e+00
      9.382      0.041     4.5970     63.371     48.503  37.591083     0.5721      6.527   288.0822 1.2374e-01     8.5498      9.200     13.344    13.7490   999.3437 0.0000e+00
      9.395      0.049     4.5932     63.396     48.537  37.617609     0.6047      6.526   288.1143 1.2379e-01     8.5676      9.213     13.362    13.7488   999.3438 0.0000e+00
      9.410      0.058     4.5914     63.401     48.569  37.642809     0.6255      6.526   288.0974 1.2378e-01     8.5859      9.228     13.384    13.7488   999.3439 0.0000e+00
      9.426      0.065     4.5926     63.391     48.569  37.641866     0.6320      6.526   287.8786 1.2373e-01     8.6065      9.243     13.405    13.7487   999.3440 0.0000e+00
      9.444      0.067     4.5944     63.372     48.523  37.606204     0.6323      6.526   287.6200 1.2374e-01     8.6207      9.259     13.429    13.7487   999.3440 0.0000e+00
      9.464      0.067     4.5976     63.362     48.505  37.592489     0.6287      6.526   287.6372 1.2384e-01     8.5932      9.280     13.460    13.7487   999.3442 0.0000e+00
      9.485      0.064     4.5968     63.358     48.519  37.602993     0.6231      6.525   287.7432 1.2386e-01     8.5363      9.303     13.493    13.7484   999.3443 0.0000e+00
      9.502      0.060     4.5969     63.336     48.523  37.606238     0.6256      6.524   287.7825 1.2376e-01     8.5230      9.320     13.518    13.7480   999.3445 0.0000e+00
      9.513      0.055     4.5946     63.310     48.556  37.631723     0.6326      6.524   287.6821 1.2374e-01     8.5309      9.330     13.533    13.7477   999.3445 0.0000e+00
      9.523      0.049     4.5933     63.276     48.588  37.657225     0.6306      6.524   287.3903 1.2379e-01     8.5003      9.338     13.544    13.7475   999.3446 0.0000e+00
      9.536      0.044     4.5954     63.232     48.593  37.660678     0.6183      6.524   287.2662 1.2377e-01     8.4814      9.350     13.562    13.7477   999.3446 0.0000e+00
      9.550      0.041     4.5917     63.209     48.611  37.673468     0.6051      6.523   287.3859 1.2373e-01     8.4992      9.366     13.585    13.7476   999.3447 0.0000e+00
      9.560      0.039     4.5906     63.182     48.626  37.684914     0.6088      6.522   287.4606 1.2372e-01     8.5182      9.377     13.600    13.7474   999.3448 0.0000e+00
      9.567      0.038     4.5888     63.121     48.609  37.672117     0.6197      6.522   287.3097 1.2372e-01     8.5142      9.382     13.606    13.7473   999.3449 0.0000e+00
      9.575      0.035     4.5833     63.044     48.575  37.645686     0.6155      6.522   287.0235 1.2372e-01     8.5177      9.389     13.617    13.7471   999.3449 0.0000e+00
      9.585      0.034     4.5831     62.947     48.541  37.619256     0.6106      6.522   286.8396 1.2372e-01     8.5596      9.400     13.634    13.7469   999.3450 0.0000e+00
      9.594      0.035     4.5828     62.818     48.524  37.606466     0.6207      6.522   286.7214 1.2372e-01     8.5947      9.409     13.646    13.7467   999.3451 0.0000e+00
      9.601      0.036     4.5765     62.674     48.539  37.617988     0.6255      6.521   286.6262 1.2374e-01     8.6471      9.416     13.656    13.7466   999.3451 0.0000e+00
      9.610      0.037     4.5716     62.531     48.557  37.631618     0.6164      6.520   286.6345 1.2374e-01     8.7341      9.423     13.667    13.7466   999.3451 0.0000e+00
      9.620      0.037     4.5653     62.411     48.574  37.644312     0.6145      6.520   286.6503 1.2372e-01     8.7622      9.434     13.682    13.7467   999.3452 0.0000e+00
      9.631      0.040     4.5548     62.341     48.574  37.644513     0.6195      6.520   286.4724 1.2376e-01     8.7252      9.445     13.699    13.7465   999.3452 0.0000e+00
      9.641      0.045     4.5445     62.333     48.560  37.634039     0.6335      6.520   286.0333 1.2382e-01     8.7125      9.456     13.715    13.7466   999.3453 0.0000e+00
      9.650      0.051     4.5334     62.371     48.574  37.644638     0.6632      6.519   285.5573 1.2381e-01     8.7386      9.463     13.725    13.7468   999.3453 0.0000e+00
      9.660      0.054     4.5241     62.448     48.575  37.645712     0.6749      6.518   285.1900 1.2374e-01     8.7465      9.469     13.734    13.7465   999.3453 0.0000e+00
      9.677      0.056     4.5181     62.560     48.577  37.647021     0.6625      6.517   284.9485 1.2375e-01     8.7416      9.487     13.760    13.7466   999.3454 0.0000e+00
      9.699      0.056     4.5189     62.685     48.594  37.660465     0.6521      6.516   284.8745 1.2382e-01     8.7457      9.514     13.799    13.7468   999.3455 0.0000e+00
      9.716      0.056     4.5214     62.785     48.621  37.681300     0.6445      6.514   284.7245 1.2383e-01     8.7630      9.532     13.825    13.7467   999.3456 0.0000e+00
      9.726      0.051     4.5267     62.835     48.738  37.771978     0.6315      6.513   284.4259 1.2379e-01     8.7872      9.538     13.834    13.7468   999.3456 0.0000e+00
      9.736      0.044     4.5358     62.853     48.944  37.931630     0.6150      6.513   284.0171 1.2375e-01     8.7757      9.547     13.847    13.7468   999.3457 0.0000e+00
      9.749      0.035     4.5454     62.869     49.146  38.088160     0.6109      6.513   283.4820 1.2369e-01     8.7560      9.562     13.869    13.7469   999.3458 0.0000e+00
      9.759      0.028     4.5543     62.869     49.296  38.204552     0.6161      6.513   283.2045 1.2368e-01     8.7780      9.573     13.884    13.7469   999.3458 0.0000e+00
      9.764      0.023     4.5569     62.829     49.448  38.323253     0.6179      6.512   283.1561 1.2372e-01     8.8124      9.576     13.888    13.7468   999.3458 0.0000e+00
      9.767      0.018     4.5568     62.737     49.768  38.571167     0.6145      6.511   282.8977 1.2377e-01     8.8112      9.578     13.892    13.7468   999.3459 0.0000e+00
      9.769      0.014     4.5588     62.569     50.296  38.980237     0.6096      6.511   282.4888 1.2378e-01     8.7310      9.580     13.895    13.7469   999.3460 0.0000e+00
      9.772      0.012     4.5595     62.294     50.751  39.333432     0.5938      6.510   281.9980 1.2371e-01     8.6290      9.583     13.898    13.7470   999.3461 0.0000e+00
      9.775      0.012     4.5567     61.893     51.264  39.730987     0.5707      6.508   281.5242 1.2367e-01     8.5938      9.586     13.904    13.7471   999.3461 0.0000e+00
      9.778      0.012     4.5507     61.378     53.221  41.247681     0.5646      6.507   281.2335 1.2370e-01     8.5682      9.589     13.908    13.7473   999.3462 0.0000e+00
      9.781      0.013     4.5394     60.783     59.011  45.735629     0.5627      6.507   280.8924 1.2370e-01     8.5159      9.591     13.911    13.7478   999.3463 0.0000e+00
      9.784      0.013     4.5198     60.138     74.740  57.926402     0.5655      6.506   280.3256 1.2368e-01     8.4850      9.596     13.917    13.7481   999.3465 0.0000e+00
      9.788      0.014     4.4910     59.428    102.874  79.733109     0.5811      6.505   279.6280 1.2367e-01     8.4901      9.599     13.923    13.7479   999.3464 0.0000e+00
      9.792      0.014     4.4517     58.677    129.520 100.387189     0.5956      6.506   279.0834 1.2368e-01     8.5124      9.603     13.928    13.7478   999.3470 0.0000e+00
      9.795      0.014     4.4087     58.302    139.569 108.176916     0.6018      6.506   278.9032 1.2373e-01     8.5251      9.606     13.933    13.7479   999.3483 0.0000e+00
      9.799 -9.990e-29     4.3600 -9.990e-29 -9.990e-29 -9.990e-29 -9.990e-29 -9.990e-29 -9.990e-29 1.2374e-01 -9.990e-29      9.610     13.938    13.7485   999.3522 0.0000e+00
      9.803 -9.990e-29     4.3133 -9.990e-29 -9.990e-29 -9.990e-29 -9.990e-29 -9.990e-29 -9.990e-29 1.2369e-01 -9.990e-29      9.614     13.944    13.7493   999.3648 0.0000e+00
      9.806 -9.990e-29     4.2460 -9.990e-29 -9.990e-29 -9.990e-29 -9.990e-29 -9.990e-29 -9.990e-29 1.2369e-01 -9.990e-29      9.616     13.947    13.7503   999.3767 0.0000e+00
      9.806 -9.990e-29     4.1967 -9.990e-29 -9.990e-29 -9.990e-29 -9.990e-29 -9.990e-29 -9.990e-29 1.2370e-01 -9.990e-29      9.617     13.948    13.7511   999.3796 0.0000e+00
