* Sea-Bird SBE19plus  Data File:
* FileName = C:\DATA\110819_fcr50_0003.hex
* Software version 2.8.0.119 SB_Terminal.dll
* Temperature SN = 7809
* Conductivity SN = 7809
* System UpLoad Time = Nov 11 2019 10:23:37
* <ApplicationData>
* <Seaterm232>
* <SoftwareVersion>2.8.0.119</SoftwareVersion>
* <BuildDate>07-Nov-2018</BuildDate>
* </Seaterm232>
* </ApplicationData>
* cast   3 08 Nov 2019 13:55:28 samples 1760 to 2135, avg = 1, stop = mag switch
# nquan = 16
# nvalues = 289                         
# units = specified
# name 0 = depFM: Depth [fresh water, m]
# name 1 = dz/dtM: Descent Rate [m/s]
# name 2 = sbeox0ML/L: Oxygen, SBE 43 [ml/l]
# name 3 = sbeox0PS: Oxygen, SBE 43 [% saturation]
# name 4 = specc: Specific Conductance [uS/cm]
# name 5 = c0uS/cm: Conductivity [uS/cm]
# name 6 = flECO-AFL: Fluorescence, WET Labs ECO-AFL/FL [mg/m^3]
# name 7 = ph: pH
# name 8 = orp: Oxidation Reduction Potential [mV]
# name 9 = par/sat/log: PAR/Logarithmic, Satlantic
# name 10 = turbWETntu0: Turbidity, WET Labs ECO [NTU]
# name 11 = prdM: Pressure, Strain Gauge [db]
# name 12 = prdE: Pressure, Strain Gauge [psi]
# name 13 = tv290C: Temperature [ITS-90, deg C]
# name 14 = density00: Density [density, kg/m^3]
# name 15 = flag:  0.000e+00
# span 0 =     -0.531,      3.751       
# span 1 =     -0.019,      0.156       
# span 2 =     2.9364,     8.7053       
# span 3 =     43.138,    101.858       
# span 4 =      5.125,    215.199       
# span 5 =   3.108360, 157.135078       
# span 6 =    -0.5229,     3.4738       
# span 7 =      6.610,      8.720       
# span 8 =   136.5846,   255.2780       
# span 9 = 2.0022e+00, 2.0581e+03       
# span 10 =    -0.3321,     8.2647      
# span 11 =     -0.521,      3.679      
# span 12 =     -0.756,      5.337      
# span 13 =     4.4827,    11.5188      
# span 14 =   999.5817,   999.9719      
# span 15 = 0.0000e+00, 0.0000e+00      
# interval = seconds: 0.25
# start_time = Nov 08 2019 13:55:28 [Instrument's time stamp, header]
# bad_flag = -9.990e-29
# <Sensors count="9" >
#   <sensor Channel="1" >
#     <!-- Count, Temperature -->
#     <TemperatureSensor SensorID="58" >
#       <SerialNumber>7809</SerialNumber>
#       <CalibrationDate>24-Mar-19</CalibrationDate>
#       <A0>1.21792325e-003</A0>
#       <A1>2.81669265e-004</A1>
#       <A2>-1.60333336e-006</A2>
#       <A3>1.98414625e-007</A3>
#       <Slope>1.00000000</Slope>
#       <Offset>0.0000</Offset>
#     </TemperatureSensor>
#   </sensor>
#   <sensor Channel="2" >
#     <!-- Frequency 0, Conductivity -->
#     <ConductivitySensor SensorID="3" >
#       <SerialNumber>7809</SerialNumber>
#       <CalibrationDate>24-Mar-19</CalibrationDate>
#       <UseG_J>1</UseG_J>
#       <!-- Cell const and series R are applicable only for wide range sensors. -->
#       <SeriesR>0.0000</SeriesR>
#       <CellConst>2000.0000</CellConst>
#       <ConductivityType>0</ConductivityType>
#       <Coefficients equation="0" >
#         <A>0.00000000e+000</A>
#         <B>0.00000000e+000</B>
#         <C>0.00000000e+000</C>
#         <D>0.00000000e+000</D>
#         <M>0.0</M>
#         <CPcor>-9.57000000e-008</CPcor>
#       </Coefficients>
#       <Coefficients equation="1" >
#         <G>-1.00589325e+000</G>
#         <H>1.26816302e-001</H>
#         <I>-1.51560448e-004</I>
#         <J>2.67137274e-005</J>
#         <CPcor>-9.57000000e-008</CPcor>
#         <CTcor>3.2500e-006</CTcor>
#         <!-- WBOTC not applicable unless ConductivityType = 1. -->
#         <WBOTC>0.00000000e+000</WBOTC>
#       </Coefficients>
#       <Slope>1.00000000</Slope>
#       <Offset>0.00000</Offset>
#     </ConductivitySensor>
#   </sensor>
#   <sensor Channel="3" >
#     <!-- Count, Pressure, Strain Gauge -->
#     <PressureSensor SensorID="46" >
#       <SerialNumber>7809</SerialNumber>
#       <CalibrationDate>11-Mar-19</CalibrationDate>
#       <PA0>4.56561833e-002</PA0>
#       <PA1>4.85095118e-004</PA1>
#       <PA2>-2.88327090e-012</PA2>
#       <PTEMPA0>-5.48784562e+001</PTEMPA0>
#       <PTEMPA1>5.53756816e+001</PTEMPA1>
#       <PTEMPA2>-5.86727098e-001</PTEMPA2>
#       <PTCA0>5.25246745e+005</PTCA0>
#       <PTCA1>1.22304214e+001</PTCA1>
#       <PTCA2>-3.56745036e-001</PTCA2>
#       <PTCB0>2.51668750e+001</PTCB0>
#       <PTCB1>3.75000000e-004</PTCB1>
#       <PTCB2>0.00000000e+000</PTCB2>
#       <Offset>0.000000</Offset>
#     </PressureSensor>
#   </sensor>
#   <sensor Channel="4" >
#     <!-- A/D voltage 0, Oxygen, SBE 43 -->
#     <OxygenSensor SensorID="38" >
#       <SerialNumber>0434</SerialNumber>
#       <CalibrationDate>13-Apr-19</CalibrationDate>
#       <Use2007Equation>1</Use2007Equation>
#       <CalibrationCoefficients equation="0" >
#         <!-- Coefficients for Owens-Millard equation. -->
#         <Boc>0.0000</Boc>
#         <Soc>0.0000e+000</Soc>
#         <offset>0.0000</offset>
#         <Pcor>0.00e+000</Pcor>
#         <Tcor>0.0000</Tcor>
#         <Tau>0.0</Tau>
#       </CalibrationCoefficients>
#       <CalibrationCoefficients equation="1" >
#         <!-- Coefficients for Sea-Bird equation - SBE calibration in 2007 and later. -->
#         <Soc>4.2007e-001</Soc>
#         <offset>-0.6109</offset>
#         <A>-4.3656e-003</A>
#         <B> 1.7017e-004</B>
#         <C>-2.5341e-006</C>
#         <D0> 2.5826e+000</D0>
#         <D1> 1.92634e-004</D1>
#         <D2>-4.64803e-002</D2>
#         <E> 3.6000e-002</E>
#         <Tau20> 1.1800</Tau20>
#         <H1>-3.3000e-002</H1>
#         <H2> 5.0000e+003</H2>
#         <H3> 1.4500e+003</H3>
#       </CalibrationCoefficients>
#     </OxygenSensor>
#   </sensor>
#   <sensor Channel="5" >
#     <!-- A/D voltage 1, PAR/Logarithmic, Satlantic -->
#     <PARLog_SatlanticSensor SensorID="76" >
#       <SerialNumber>1122</SerialNumber>
#       <CalibrationDate>08-May-2019</CalibrationDate>
#       <a0>9.7456e-001</a0>
#       <a1>8.1640e-001</a1>
#       <Im>1.3589e+000</Im>
#       <Multiplier>1.0000e+000</Multiplier>
#     </PARLog_SatlanticSensor>
#   </sensor>
#   <sensor Channel="6" >
#     <!-- A/D voltage 2, pH -->
#     <pH_Sensor SensorID="43" >
#       <SerialNumber>0363</SerialNumber>
#       <CalibrationDate>15-Apr-19</CalibrationDate>
#       <Slope>4.5952</Slope>
#       <Offset>2.5370</Offset>
#     </pH_Sensor>
#   </sensor>
#   <sensor Channel="7" >
#     <!-- A/D voltage 3, Oxidation Reduction Potential -->
#     <OxidationReductionPotentialSensor SensorID="41" >
#       <SerialNumber>0363</SerialNumber>
#       <CalibrationDate>15-Apr-19</CalibrationDate>
#       <B>2.499480</B>
#       <M>-0.496195</M>
#       <Offset>0.0</Offset>
#     </OxidationReductionPotentialSensor>
#   </sensor>
#   <sensor Channel="8" >
#     <!-- A/D voltage 4, Fluorometer, WET Labs ECO-AFL/FL -->
#     <FluoroWetlabECO_AFL_FL_Sensor SensorID="20" >
#       <SerialNumber>FLNTURT-2496</SerialNumber>
#       <CalibrationDate>08-May-2019</CalibrationDate>
#       <ScaleFactor>5.00000000e+001</ScaleFactor>
#       <!-- Dark output -->
#       <Vblank>0.0550</Vblank>
#     </FluoroWetlabECO_AFL_FL_Sensor>
#   </sensor>
#   <sensor Channel="9" >
#     <!-- A/D voltage 5, Turbidity Meter, WET Labs, ECO-NTU -->
#     <TurbidityMeter SensorID="67" >
#       <SerialNumber>FLNTURT-2496</SerialNumber>
#       <CalibrationDate>08-May-2019</CalibrationDate>
#       <ScaleFactor>189.000000</ScaleFactor>
#       <!-- Dark output -->
#       <DarkVoltage>0.071000</DarkVoltage>
#     </TurbidityMeter>
#   </sensor>
# </Sensors>
# datcnv_date = Nov 11 2019 10:29:32, 7.26.7.129 [datcnv_vars = 15]
# datcnv_in = C:\DATA\110819_fcr20.hex C:\DATA\SBE19plusV2_7809.xmlcon
# datcnv_skipover = 0
# datcnv_ox_hysteresis_correction = yes
# datcnv_ox_tau_correction = yes
# filter_date = Nov 11 2019 10:29:59, 7.26.7.129
# filter_in = C:\DATA\110819_fcr20.cnv
# filter_low_pass_tc_A = 0.030
# filter_low_pass_tc_B = 0.150
# filter_low_pass_A_vars = sbeox0ML/L prdM prdE tv290C density00
# filter_low_pass_B_vars = depFM dz/dtM sbeox0PS specc c0uS/cm flECO-AFL ph orp par/sat/log turbWETntu0
# alignctd_date = Nov 11 2019 10:30:18, 7.26.7.129
# alignctd_in = C:\DATA\110819_fcr20.cnv
# alignctd_adv = dz/dtM 1.000, sbeox0PS 1.000, specc 1.000, c0uS/cm 1.000, flECO-AFL 1.000, ph 1.000, orp 1.000, turbWETntu0 1.000                                                                                                   
# file_type = ascii
*END*
     -0.531      0.009     8.6983     96.039      5.125   3.108360    -0.5229      6.610   218.7757 2.0581e+03    -0.3321     -0.521     -0.756     4.5144   999.9718 0.0000e+00
     -0.531      0.023     8.7032     95.848     13.791   8.603758    -0.5103      6.718   136.5846 2.0229e+03    -0.2493     -0.521     -0.756     4.5000   999.9717 0.0000e+00
     -0.530      0.045     8.7018     95.583     27.936  17.878671    -0.1640      7.029   153.4938 1.9762e+03     0.8900     -0.521     -0.756     4.5073   999.9719 0.0000e+00
     -0.523      0.072     8.7053     95.364     39.824  26.037975     0.4731      7.459   191.6912 1.8688e+03     2.9884     -0.519     -0.753     4.4827   999.9718 0.0000e+00
     -0.503      0.099     8.6803     95.215     43.808  29.183533     0.8124      7.834   195.0742 1.4862e+03     4.1159     -0.501     -0.726     4.5811   999.9718 0.0000e+00
     -0.467      0.121     8.4798     95.112     43.594  29.522924     0.8344      8.089   199.6457 1.1882e+03     4.1989     -0.459     -0.667     5.4077   999.9606 0.0000e+00
     -0.422      0.135     8.1847     95.028     43.155  29.634381     0.8430      8.262   203.0852 1.4114e+03     4.2548     -0.413     -0.600     6.6558   999.9283 0.0000e+00
     -0.377      0.135     7.9699     94.956     42.749  29.706665     1.0028      8.401   205.1707 1.6396e+03     4.9875     -0.369     -0.535     7.6433   999.8864 0.0000e+00
     -0.337      0.118     7.8201     94.921     42.336  29.699283     1.2933      8.511   206.2765 1.6359e+03     6.3395     -0.329     -0.476     8.3558   999.8441 0.0000e+00
     -0.304      0.089     7.7126     94.898     41.917  29.608870     1.4423      8.590   206.5612 1.6143e+03     7.0673     -0.294     -0.427     8.8873   999.8070 0.0000e+00
     -0.284      0.054     7.6218     94.864     41.477  29.438585     1.4593      8.647   206.3755 1.5598e+03     7.1336     -0.274     -0.397     9.3517   999.7719 0.0000e+00
     -0.277      0.022     7.5369     94.848     41.051  29.226849     1.5780      8.686   206.7845 1.4520e+03     7.2391     -0.267     -0.387     9.7769   999.7369 0.0000e+00
     -0.283     -0.003     7.4776     94.869     40.766  29.079344     1.7855      8.710   208.3235 1.3342e+03     7.4264     -0.273     -0.397    10.1071   999.7080 0.0000e+00
     -0.296     -0.017     7.4354     94.904     40.619  28.987668     1.8861      8.720   210.2698 1.2586e+03     7.5633     -0.290     -0.421    10.3429   999.6864 0.0000e+00
     -0.310     -0.019     7.4030     94.936     40.616  28.943285     1.8757      8.717   211.6460 1.2021e+03     7.5827     -0.305     -0.442    10.5067   999.6709 0.0000e+00
     -0.320     -0.011     7.3826     94.956     40.776  28.986818     1.8161      8.710   212.3163 1.1506e+03     7.3985     -0.316     -0.459    10.6105   999.6608 0.0000e+00
     -0.322      0.003     7.3747     94.960     40.961  29.069785     1.7379      8.704   213.0398 1.1370e+03     7.1060     -0.319     -0.464    10.6767   999.6543 0.0000e+00
     -0.314      0.018     7.3714     94.953     41.037  29.121505     1.7102      8.694   213.7693 1.1214e+03     6.9633     -0.308     -0.447    10.7103   999.6510 0.0000e+00
     -0.303      0.032     7.3858     94.933     40.970  29.104553     1.7064      8.679   213.9951 1.0799e+03     6.9518     -0.296     -0.429    10.6446   999.6574 0.0000e+00
     -0.292      0.044     7.4081     94.901     40.752  28.991759     1.6836      8.657   213.7050 1.0804e+03     6.9990     -0.289     -0.418    10.5256   999.6690 0.0000e+00
     -0.279      0.054     7.4189     94.879     40.482  28.836439     1.6604      8.630   213.1007 1.1134e+03     7.1080     -0.274     -0.396    10.4613   999.6752 0.0000e+00
     -0.266      0.064     7.4184     94.887     40.322  28.749455     1.6590      8.600   212.6252 1.1723e+03     7.1546     -0.260     -0.377    10.4642   999.6750 0.0000e+00
     -0.253      0.078     7.4082     94.927     40.313  28.764930     1.6581      8.568   212.3439 1.2590e+03     7.1373     -0.251     -0.364    10.5126   999.6704 0.0000e+00
     -0.233      0.097     7.3950     95.011     40.468  28.896663     1.6407      8.541   212.2807 1.2783e+03     7.2596     -0.232     -0.335    10.5721   999.6648 0.0000e+00
     -0.208      0.119     7.3842     95.143     40.769  29.136674     1.6477      8.521   212.7215 1.2576e+03     7.5507     -0.206     -0.299    10.6181   999.6605 0.0000e+00
     -0.175      0.140     7.3802     95.316     40.984  29.319209     1.6913      8.497   213.3720 1.3027e+03     7.7733     -0.176     -0.254    10.6499   999.6574 0.0000e+00
     -0.135      0.155     7.3779     95.524     40.869  29.263620     1.7169      8.471   213.8649 1.3999e+03     7.8217     -0.135     -0.195    10.6754   999.6551 0.0000e+00
     -0.086      0.156     7.3805     95.769     40.608  29.099098     1.7147      8.446   214.3786 1.4859e+03     7.8078     -0.086     -0.123    10.6985   999.6532 0.0000e+00
     -0.035      0.144     7.3863     96.061     40.583  29.106652     1.7518      8.425   214.9374 1.5229e+03     7.7369     -0.034     -0.049    10.7267   999.6508 0.0000e+00
      0.012      0.124     7.3922     96.384     40.804  29.291535     1.8359      8.409   215.3734 1.5034e+03     7.6202      0.017      0.024    10.7699   999.6470 0.0000e+00
      0.044      0.099     7.4030     96.706     41.054  29.494421     1.8900      8.395   215.6920 1.4546e+03     7.5761      0.054      0.078    10.8034   999.6438 0.0000e+00
      0.056      0.077     7.4177     97.006     41.245  29.656200     1.8955      8.380   215.9498 1.4136e+03     7.5972      0.058      0.085    10.8215   999.6419 0.0000e+00
      0.057      0.059     7.4351     97.299     41.395  29.788199     1.8848      8.365   216.2530 1.3477e+03     7.5145      0.053      0.077    10.8589   999.6382 0.0000e+00
      0.063      0.047     7.4546     97.591     41.498  29.884826     1.8813      8.354   216.6910 1.1615e+03     7.2961      0.060      0.087    10.8926   999.6350 0.0000e+00
      0.077      0.042     7.4770     98.067     41.538  29.936182     1.8879      8.345   217.2019 9.0054e+02     7.1526      0.074      0.108    10.9159   999.6328 0.0000e+00
      0.095      0.040     7.4928     99.096     41.543  29.964981     1.8874      8.335   217.6125 7.2899e+02     7.1235      0.093      0.135    10.9498   999.6295 0.0000e+00
      0.111      0.036     7.5104    100.458     41.528  29.979246     1.8398      8.326   217.9556 7.2924e+02     7.0751      0.111      0.161    10.9801   999.6266 0.0000e+00
      0.121      0.029     7.5288    101.480     41.497  29.981778     1.7553      8.316   218.4247 8.3605e+02     6.9938      0.122      0.177    11.0049   999.6242 0.0000e+00
      0.123      0.019     7.5392    101.858     41.483  29.995618     1.7150      8.304   218.9820 9.4684e+02     6.9606      0.122      0.177    11.0309   999.6216 0.0000e+00
      0.122      0.012     7.6204    101.511     41.487  30.019710     1.7170      8.291   219.4464 9.8564e+02     6.9683      0.119      0.172    11.0610   999.6185 0.0000e+00
      0.122      0.009     7.7500    100.394     41.461  30.019270     1.7440      8.278   219.7372 8.8878e+02     6.9552      0.118      0.171    11.0934   999.6152 0.0000e+00
      0.123      0.010     7.8237     98.550     41.401  29.990317     1.7905      8.264   219.8311 8.1804e+02     6.9341      0.121      0.175    11.1236   999.6121 0.0000e+00
      0.125      0.015     7.8505     96.124     41.298  29.923477     1.8197      8.251   219.2916 9.1996e+02     6.9101      0.123      0.178    11.1519   999.6091 0.0000e+00
      0.129      0.021     7.8212     93.461     41.099  29.782202     1.8362      8.240   218.2902 1.0356e+03     6.8940      0.126      0.182    11.1778   999.6065 0.0000e+00
      0.136      0.026     7.7288     90.971     40.954  29.678160     1.8345      8.229   217.7898 9.8404e+02     6.9023      0.133      0.195    11.2017   999.6041 0.0000e+00
      0.144      0.028     7.5825     88.818     41.042  29.744215     1.8075      8.216   217.7160 9.4699e+02     6.9119      0.142      0.204    11.2195   999.6023 0.0000e+00
      0.155      0.027     7.3845     86.952     41.222  29.882886     1.7794      8.204   217.5695 9.7368e+02     6.9129      0.151      0.218    11.2275   999.6014 0.0000e+00
      0.166      0.024     7.1657     85.386     41.314  29.958850     1.7633      8.191   217.4807 8.4178e+02     6.9139      0.165      0.239    11.2316   999.6009 0.0000e+00
      0.172      0.019     6.9701     84.130     41.316  29.964705     1.7606      8.180   217.5893 8.3123e+02     6.9241      0.171      0.249    11.2298   999.6011 0.0000e+00
      0.173      0.013     6.8106     83.137     41.303  29.953700     1.7803      8.170   217.6776 9.2728e+02     6.9706      0.169      0.245    11.2307   999.6011 0.0000e+00
      0.173      0.008     6.6624     82.358     41.308  29.952692     1.8195      8.160   217.6877 1.0921e+03     7.0497      0.170      0.246    11.2431   999.5999 0.0000e+00
      0.174      0.004     6.5399     81.767     41.318  29.952507     1.8369      8.151   217.7980 1.2571e+03     7.0944      0.171      0.248    11.2573   999.5985 0.0000e+00
      0.174      0.001     6.4451     81.381     41.324  29.951450     1.8253      8.143   218.0649 9.7281e+02     7.1179      0.171      0.248    11.2627   999.5979 0.0000e+00
      0.175      0.001     6.3700     81.166     41.309  29.939913     1.8098      8.133   218.4197 7.2931e+02     7.1698      0.172      0.249    11.2600   999.5981 0.0000e+00
      0.176      0.000     6.3131     81.010     41.305  29.939922     1.7879      8.124   218.7321 7.4855e+02     7.1644      0.174      0.252    11.2535   999.5988 0.0000e+00
      0.175      0.000     6.2672     80.858     41.317  29.951564     1.7688      8.116   218.9173 6.2401e+02     7.1186      0.173      0.250    11.2425   999.6000 0.0000e+00
      0.174      0.000     6.2395     80.724     41.318  29.953765     1.7606      8.108   219.1093 4.8483e+02     7.1409      0.171      0.248    11.2342   999.6009 0.0000e+00
      0.174      0.001     6.2273     80.598     41.335  29.966541     1.7489      8.101   219.4187 4.8117e+02     7.1062      0.171      0.248    11.2356   999.6007 0.0000e+00
      0.174      0.003     6.2164     80.470     41.352  29.979127     1.7224      8.093   219.8192 4.7838e+02     6.9602      0.170      0.247    11.2405   999.6002 0.0000e+00
      0.175      0.006     6.2022     80.361     41.352  29.979033     1.7012      8.087   221.1118 4.7504e+02     6.8835      0.171      0.248    11.2433   999.5999 0.0000e+00
      0.177      0.007     6.1928     80.298     41.335  29.965398     1.7005      8.079   222.7439 5.8365e+02     6.9003      0.174      0.251    11.2455   999.5997 0.0000e+00
      0.181      0.006     6.1836     80.267     41.308  29.941179     1.6796      8.069   222.6031 6.9392e+02     6.9004      0.177      0.257    11.2462   999.5996 0.0000e+00
      0.184      0.003     6.1725     80.215     41.318  29.940017     1.6296      8.060   221.4756 7.2727e+02     6.8853      0.180      0.261    11.2459   999.5997 0.0000e+00
      0.186     -0.002     6.1640     80.140     41.340  29.951337     1.5993      8.053   221.0698 7.7526e+02     6.9146      0.183      0.266    11.2456   999.5997 0.0000e+00
      0.186     -0.006     6.1583     80.042     41.344  29.951137     1.5912      8.046   221.2239 8.0183e+02     6.9595      0.185      0.269    11.2465   999.5996 0.0000e+00
      0.181     -0.010     6.1600     79.886     41.331  29.937597     1.6001      8.038   222.2207 8.0128e+02     7.0349      0.179      0.260    11.2408   999.6002 0.0000e+00
      0.174     -0.011     6.1571     79.691     41.305  29.914522     1.6288      8.031   223.3138 7.7270e+02     7.1382      0.169      0.246    11.2263   999.6017 0.0000e+00
      0.170     -0.010     6.1514     79.483     41.319  29.925955     1.6440      8.023   222.9982 7.3436e+02     7.1602      0.166      0.241    11.2209   999.6022 0.0000e+00
      0.168     -0.008     6.1464     79.242     41.344  29.948925     1.6360      8.014   222.4478 8.4735e+02     7.1364      0.166      0.241    11.2221   999.6021 0.0000e+00
      0.168     -0.003     6.1341     78.956     41.326  29.938437     1.6278      8.006   222.5098 9.2789e+02     7.1444      0.164      0.237    11.2142   999.6030 0.0000e+00
      0.168      0.001     6.1188     78.645     41.311  29.926059     1.6486      7.998   222.8008 9.2016e+02     7.2254      0.163      0.236    11.2058   999.6037 0.0000e+00
      0.170      0.002     6.1036     78.331     41.316  29.926173     1.6879      7.992   223.1271 1.0187e+03     7.3288      0.166      0.241    11.2103   999.6033 0.0000e+00
      0.172      0.002     6.0846     78.031     41.340  29.939800     1.7047      7.986   223.1861 1.0525e+03     7.3465      0.169      0.245    11.2184   999.6025 0.0000e+00
      0.174      0.001     6.0610     77.734     41.373  29.963913     1.7044      7.979   223.2561 1.0046e+03     7.3415      0.171      0.248    11.2210   999.6022 0.0000e+00
      0.174      0.000     6.0374     77.429     41.368  29.963911     1.7359      7.971   223.4563 9.4042e+02     7.3659      0.171      0.249    11.2194   999.6023 0.0000e+00
      0.172     -0.001     6.0129     77.159     41.331  29.939778     1.7918      7.963   223.6279 7.9406e+02     7.3790      0.169      0.245    11.2132   999.6030 0.0000e+00
      0.169     -0.001     5.9914     76.946     41.314  29.925945     1.8159      7.954   223.8686 7.0381e+02     7.3690      0.164      0.238    11.2075   999.6036 0.0000e+00
      0.168     -0.000     5.9697     76.775     41.318  29.923563     1.8194      7.946   225.0751 6.8774e+02     7.3438      0.163      0.237    11.2078   999.6035 0.0000e+00
      0.170      0.001     5.9433     76.633     41.307  29.910968     1.8247      7.936   226.6011 7.2605e+02     7.3365      0.166      0.241    11.2142   999.6029 0.0000e+00
      0.172      0.001     5.9209     76.514     41.292  29.900566     1.8279      7.926   226.5744 8.3347e+02     7.3786      0.169      0.246    11.2189   999.6024 0.0000e+00
      0.173      0.001     5.9063     76.412     41.318  29.924696     1.8331      7.917   226.0428 8.2891e+02     7.4269      0.171      0.248    11.2172   999.6026 0.0000e+00
      0.173      0.000     5.8940     76.321     41.344  29.948913     1.8438      7.908   226.1095 7.3192e+02     7.4293      0.170      0.247    11.2091   999.6034 0.0000e+00
      0.172     -0.001     5.8849     76.237     41.327  29.939569     1.9227      7.899   227.0372 7.0293e+02     7.4727      0.168      0.244    11.1998   999.6044 0.0000e+00
      0.171     -0.001     5.8753     76.119     41.325  29.938632     2.0674      7.891   228.1398 7.5439e+02     7.5915      0.167      0.243    11.2008   999.6043 0.0000e+00
      0.170     -0.001     5.8672     75.961     41.324  29.937580     2.1459      7.882   227.7398 7.2752e+02     7.6535      0.167      0.242    11.2096   999.6034 0.0000e+00
      0.170      0.001     5.8580     75.818     41.309  29.926838     2.1514      7.873   226.9327 5.6062e+02     7.6317      0.166      0.240    11.2168   999.6026 0.0000e+00
      0.170      0.004     5.8529     75.673     41.319  29.935662     2.1789      7.864   226.8134 4.5189e+02     7.6554      0.167      0.241    11.2210   999.6022 0.0000e+00
      0.170      0.008     5.8455     75.501     41.294  29.917368     2.2354      7.854   226.9856 4.6267e+02     7.7761      0.167      0.243    11.2222   999.6020 0.0000e+00
      0.171      0.012     5.8285     75.283     41.188  29.832558     2.2700      7.844   227.8091 5.0017e+02     7.8471      0.167      0.242    11.2195   999.6024 0.0000e+00
      0.175      0.013     5.8213     75.059     41.079  29.735113     2.2773      7.834   228.6827 4.6195e+02     7.8248      0.170      0.246    11.2189   999.6024 0.0000e+00
      0.182      0.012     5.8084     74.893     41.049  29.690960     2.2714      7.826   228.4292 4.1811e+02     7.8018      0.179      0.260    11.2226   999.6021 0.0000e+00
      0.189      0.010     5.7968     74.737     41.054  29.679395     2.2683      7.819   227.9263 4.5326e+02     7.6998      0.188      0.272    11.2250   999.6019 0.0000e+00
      0.192      0.006     5.7800     74.549     41.036  29.658725     2.2910      7.814   227.9370 4.7751e+02     7.5088      0.190      0.276    11.2189   999.6024 0.0000e+00
      0.191      0.001     5.7615     74.328     41.004  29.631394     2.3115      7.809   228.0426 4.7786e+02     7.3938      0.188      0.273    11.1921   999.6051 0.0000e+00
      0.188     -0.002     5.7580     74.088     40.969  29.602745     2.3166      7.803   228.1702 4.5605e+02     7.3898      0.185      0.267    11.1577   999.6087 0.0000e+00
      0.185     -0.002     5.7482     73.827     40.924  29.566139     2.3441      7.796   228.6197 3.8466e+02     7.4617      0.182      0.264    11.1404   999.6105 0.0000e+00
      0.184      0.000     5.7350     73.532     40.845  29.506057     2.3930      7.786   229.0042 3.2081e+02     7.5743      0.180      0.260    11.1347   999.6111 0.0000e+00
      0.184      0.002     5.7177     73.217     40.763  29.447362     2.4222      7.779   228.7751 3.0610e+02     7.6371      0.179      0.259    11.1307   999.6115 0.0000e+00
      0.187      0.003     5.6998     72.919     40.732  29.427545     2.4284      7.774   228.5171 3.1173e+02     7.6313      0.183      0.265    11.1257   999.6120 0.0000e+00
      0.192      0.004     5.6813     72.640     40.772  29.456806     2.3979      7.769   228.4652 3.9377e+02     7.5694      0.190      0.276    11.1201   999.6125 0.0000e+00
      0.193      0.008     5.6589     72.341     40.904  29.547341     2.3400      7.763   228.5777 4.9079e+02     7.4783      0.191      0.278    11.1150   999.6131 0.0000e+00
      0.190      0.016     5.6332     72.027     41.030  29.633863     2.3180      7.754   229.0173 4.3227e+02     7.4149      0.186      0.269    11.1156   999.6130 0.0000e+00
      0.188      0.027     5.6087     71.728     41.009  29.614592     2.3313      7.744   229.5644 3.3324e+02     7.3600      0.183      0.265    11.1233   999.6121 0.0000e+00
      0.193      0.038     5.5896     71.441     40.859  29.504687     2.4059      7.733   230.0301 3.0860e+02     7.3061      0.186      0.269    11.1240   999.6121 0.0000e+00
      0.208      0.050     5.5673     71.182     40.687  29.383706     2.5437      7.722   230.3458 3.1791e+02     7.2878      0.201      0.291    11.1150   999.6132 0.0000e+00
      0.231      0.060     5.5420     70.972     40.556  29.293967     2.6282      7.710   230.5424 3.3573e+02     7.3357      0.227      0.329    11.1085   999.6141 0.0000e+00
      0.253      0.065     5.5210     70.802     40.485  29.244544     2.6382      7.697   230.7729 3.3932e+02     7.3937      0.250      0.362    11.1042   999.6146 0.0000e+00
      0.270      0.065     5.4984     70.663     40.472  29.230309     2.6290      7.686   230.9819 3.4606e+02     7.3984      0.265      0.384    11.1000   999.6149 0.0000e+00
      0.284      0.063     5.4765     70.517     40.515  29.248740     2.6558      7.676   231.0900 3.8386e+02     7.4249      0.279      0.404    11.1053   999.6144 0.0000e+00
      0.298      0.061     5.4610     70.341     40.576  29.277025     2.7368      7.666   231.3052 4.4196e+02     7.5174      0.293      0.424    11.1130   999.6137 0.0000e+00
      0.310      0.061     5.4461     70.146     40.564  29.255026     2.7938      7.656   231.6052 4.6491e+02     7.5996      0.304      0.441    11.1179   999.6132 0.0000e+00
      0.324      0.061     5.4378     69.913     40.466  29.173087     2.7983      7.646   231.7921 4.4672e+02     7.6001      0.317      0.460    11.1143   999.6136 0.0000e+00
      0.341      0.058     5.4304     69.631     40.415  29.111171     2.7566      7.638   231.9297 4.4158e+02     7.4251      0.334      0.483    11.0948   999.6157 0.0000e+00
      0.361      0.053     5.4172     69.311     40.537  29.140899     2.6796      7.632   232.2372 4.5158e+02     7.1223      0.353      0.511    11.0734   999.6180 0.0000e+00
      0.381      0.051     5.4067     68.987     40.830  29.278655     2.6308      7.625   232.8429 4.3295e+02     6.9533      0.378      0.548    11.0554   999.6199 0.0000e+00
      0.391      0.055     5.3893     68.683     41.122  29.444196     2.6179      7.615   233.5739 3.8218e+02     6.9552      0.388      0.563    11.0465   999.6209 0.0000e+00
      0.391      0.061     5.3696     68.403     41.464  29.682990     2.5750      7.604   234.1924 3.3658e+02     7.0797      0.380      0.552    11.0330   999.6222 0.0000e+00
      0.396      0.068     5.3535     68.205     41.962  30.071928     2.4933      7.594   234.6430 3.2305e+02     7.2460      0.380      0.553    10.9527   999.6303 0.0000e+00
      0.420      0.075     5.3421     68.213     42.211  30.339600     2.4455      7.584   234.9779 3.1875e+02     7.3274      0.407      0.590    10.8315   999.6427 0.0000e+00
      0.455      0.084     5.3263     68.581     42.090  30.381321     2.4475      7.576   235.3159 3.0651e+02     7.3761      0.450      0.653    10.7811   999.6479 0.0000e+00
      0.484      0.092     5.3020     69.401     41.939  30.386151     2.4833      7.569   235.6327 2.9872e+02     7.3100      0.481      0.698    10.7821   999.6480 0.0000e+00
      0.503      0.093     5.2825     70.790     41.851  30.398119     2.5402      7.561   235.8831 2.7755e+02     7.1506      0.491      0.714    10.7980   999.6468 0.0000e+00
      0.523      0.089     5.2622     72.795     41.789  30.399203     2.5727      7.552   236.1918 2.5416e+02     7.1203      0.509      0.738    10.9136   999.6355 0.0000e+00
      0.546      0.086     5.2679     75.268     41.752  30.399300     2.5809      7.544   236.5272 2.4793e+02     7.1730      0.538      0.780    11.1008   999.6166 0.0000e+00
      0.567      0.088     5.3095     78.000     41.731  30.399316     2.6139      7.536   236.8405 2.4280e+02     7.2309      0.557      0.808    11.2418   999.6021 0.0000e+00
      0.586      0.095     5.4019     80.750     41.718  30.399419     2.6764      7.526   237.1402 2.3707e+02     7.2957      0.572      0.829    11.3259   999.5933 0.0000e+00
      0.608      0.101     5.5560     83.286     41.712  30.400554     2.7213      7.517   237.3976 2.3517e+02     7.3011      0.595      0.862    11.3773   999.5880 0.0000e+00
      0.636      0.106     5.7454     85.452     41.726  30.413034     2.7407      7.509   237.6305 2.2916e+02     7.2965      0.624      0.903    11.4060   999.5850 0.0000e+00
      0.668      0.112     5.9590     87.129     41.739  30.423419     2.7806      7.502   237.8915 2.1643e+02     7.4032      0.655      0.951    11.4226   999.5834 0.0000e+00
      0.701      0.117     6.1748     88.240     41.706  30.399201     2.8394      7.493   238.3151 2.1110e+02     7.5423      0.689      0.999    11.4324   999.5825 0.0000e+00
      0.730      0.119     6.3706     88.829     41.672  30.374038     2.8616      7.485   238.7085 2.1464e+02     7.5697      0.718      1.040    11.4390   999.5819 0.0000e+00
      0.757      0.116     6.5391     89.031     41.672  30.372989     2.8588      7.477   238.8620 2.0936e+02     7.5709      0.741      1.074    11.4419   999.5817 0.0000e+00
      0.787      0.109     6.6700     88.976     41.694  30.386520     2.8668      7.470   239.0532 1.9337e+02     7.6217      0.770      1.117    11.4417   999.5819 0.0000e+00
      0.821      0.101     6.7535     88.771     41.731  30.410720     2.8971      7.465   239.2999 1.8037e+02     7.6272      0.808      1.171    11.4419   999.5821 0.0000e+00
      0.850      0.094     6.7937     88.513     41.737  30.411767     2.9481      7.459   239.4350 1.7250e+02     7.5723      0.836      1.214    11.4423   999.5821 0.0000e+00
      0.870      0.089     6.8062     88.229     41.725  30.399182     2.9802      7.454   239.6548 1.6379e+02     7.5478      0.854      1.240    11.4401   999.5825 0.0000e+00
      0.885      0.088     6.8004     87.929     41.706  30.385452     2.9993      7.447   239.9774 1.6007e+02     7.5601      0.866      1.258    11.4374   999.5828 0.0000e+00
      0.900      0.089     6.7810     87.653     41.686  30.372666     3.0656      7.440   240.1529 1.5776e+02     7.6236      0.880      1.278    11.4352   999.5832 0.0000e+00
      0.921      0.089     6.7623     87.410     41.682  30.371504     3.1667      7.434   240.1425 1.4909e+02     7.7253      0.900      1.306    11.4301   999.5838 0.0000e+00
      0.951      0.089     6.7419     87.187     41.686  30.371407     3.2245      7.430   240.1956 1.4094e+02     7.7732      0.931      1.349    11.4238   999.5846 0.0000e+00
      0.985      0.087     6.7169     86.995     41.694  30.371493     3.2355      7.426   240.4511 1.3541e+02     7.8097      0.970      1.405    11.4231   999.5849 0.0000e+00
      1.010      0.083     6.6950     86.836     41.703  30.372532     3.2646      7.421   240.7361 1.3160e+02     7.7404      0.994      1.443    11.4282   999.5844 0.0000e+00
      1.024      0.078     6.6771     86.690     41.721  30.383966     3.3258      7.414   240.9737 1.2988e+02     7.5251      1.004      1.457    11.4310   999.5842 0.0000e+00
      1.035      0.074     6.6598     86.549     41.719  30.382821     3.3598      7.409   241.2592 1.2953e+02     7.4031      1.015      1.472    11.4272   999.5846 0.0000e+00
      1.049      0.075     6.6461     86.401     41.684  30.358697     3.3466      7.403   241.5208 1.2966e+02     7.4119      1.028      1.491    11.4184   999.5856 0.0000e+00
      1.067      0.081     6.6366     86.228     41.668  30.346102     3.2524      7.396   241.6419 1.2569e+02     7.4994      1.044      1.514    11.4111   999.5865 0.0000e+00
      1.091      0.091     6.6252     86.016     41.688  30.357439     3.0964      7.390   241.7778 1.1818e+02     7.6096      1.068      1.548    11.4091   999.5868 0.0000e+00
      1.118      0.100     6.6149     85.780     41.710  30.368863     3.0119      7.385   242.0450 1.1358e+02     7.6297      1.096      1.590    11.4105   999.5868 0.0000e+00
      1.147      0.105     6.6034     85.551     41.700  30.357316     2.9949      7.380   242.2911 1.0911e+02     7.6114      1.124      1.630    11.4129   999.5866 0.0000e+00
      1.177      0.106     6.5910     85.352     41.687  30.344730     2.9674      7.373   242.4308 1.0315e+02     7.6183      1.154      1.673    11.4126   999.5868 0.0000e+00
      1.206      0.104     6.5752     85.200     41.688  30.343586     2.9226      7.368   242.6149 9.8982e+01     7.6147      1.182      1.716    11.4078   999.5875 0.0000e+00
      1.232      0.101     6.5566     85.088     41.688  30.343482     2.8869      7.363   242.8825 9.5112e+01     7.6010      1.209      1.755    11.4014   999.5883 0.0000e+00
      1.255      0.096     6.5399     84.995     41.688  30.343472     2.8736      7.359   243.0854 9.1463e+01     7.5830      1.231      1.786    11.3962   999.5890 0.0000e+00
      1.277      0.091     6.5244     84.919     41.689  30.343472     2.8753      7.354   243.2610 8.8284e+01     7.5615      1.251      1.815    11.3925   999.5894 0.0000e+00
      1.301      0.087     6.5132     84.856     41.691  30.343473     2.9071      7.348   243.4569 8.4599e+01     7.5049      1.276      1.851    11.3907   999.5897 0.0000e+00
      1.324      0.087     6.5059     84.794     41.693  30.343482     2.9634      7.342   243.6476 8.1613e+01     7.4224      1.299      1.885    11.3905   999.5899 0.0000e+00
      1.344      0.090     6.4983     84.744     41.695  30.343585     3.0004      7.335   243.9319 7.9278e+01     7.3835      1.318      1.912    11.3904   999.5900 0.0000e+00
      1.364      0.097     6.4923     84.692     41.697  30.344715     3.0004      7.328   244.2260 7.6647e+01     7.3621      1.337      1.940    11.3897   999.5902 0.0000e+00
      1.386      0.105     6.4892     84.619     41.714  30.357145     2.9546      7.323   244.3645 7.4092e+01     7.4912      1.357      1.968    11.3881   999.5904 0.0000e+00
      1.412      0.111     6.4832     84.562     41.727  30.366966     2.8886      7.318   244.4018 7.0697e+01     7.8311      1.381      2.003    11.3863   999.5907 0.0000e+00
      1.447      0.114     6.4803     84.517     41.685  30.336550     2.8606      7.314   244.4193 6.6168e+01     8.0631      1.416      2.054    11.3847   999.5910 0.0000e+00
      1.485      0.114     6.4783     84.467     41.645  30.306658     2.8590      7.310   244.4901 6.2376e+01     8.0680      1.459      2.116    11.3838   999.5913 0.0000e+00
      1.518      0.112     6.4694     84.440     41.669  30.322820     2.8518      7.306   244.7419 5.9795e+01     7.9554      1.491      2.163    11.3845   999.5914 0.0000e+00
      1.543      0.108     6.4662     84.437     41.696  30.341596     2.8523      7.301   245.0545 5.7785e+01     7.8487      1.514      2.196    11.3854   999.5915 0.0000e+00
      1.564      0.105     6.4641     84.452     41.699  30.343303     2.8654      7.295   245.1728 5.6130e+01     7.8269      1.535      2.226    11.3851   999.5916 0.0000e+00
      1.585      0.104     6.4579     84.481     41.699  30.343458     2.8706      7.291   245.2250 5.4269e+01     7.8231      1.551      2.250    11.3842   999.5917 0.0000e+00
      1.611      0.104     6.4572     84.517     41.699  30.343473     2.8374      7.289   245.3424 5.1651e+01     7.7700      1.576      2.287    11.3829   999.5920 0.0000e+00
      1.641      0.103     6.4567     84.557     41.700  30.343483     2.7763      7.288   245.3871 4.8883e+01     7.6767      1.610      2.334    11.3816   999.5923 0.0000e+00
      1.674      0.098     6.4585     84.587     41.701  30.343586     2.7473      7.287   245.4216 4.6563e+01     7.6120      1.642      2.382    11.3810   999.5925 0.0000e+00
      1.704      0.090     6.4608     84.616     41.705  30.344715     2.7553      7.286   245.5873 4.4730e+01     7.6108      1.674      2.428    11.3808   999.5927 0.0000e+00
      1.726      0.082     6.4632     84.664     41.723  30.357130     2.7599      7.283   245.8423 4.3663e+01     7.6291      1.696      2.460    11.3809   999.5928 0.0000e+00
      1.739      0.078     6.4674     84.734     41.738  30.366780     2.7764      7.279   246.0958 4.3068e+01     7.6701      1.707      2.475    11.3806   999.5929 0.0000e+00
      1.749      0.082     6.4691     84.813     41.696  30.334476     2.8174      7.274   246.3297 4.2218e+01     7.7784      1.714      2.485    11.3795   999.5930 0.0000e+00
      1.763      0.093     6.4711     84.893     41.630  30.283817     2.8473      7.269   246.5185 4.0952e+01     7.8569      1.725      2.502    11.3780   999.5932 0.0000e+00
      1.786      0.108     6.4746     84.936     41.607  30.261907     2.8696      7.266   246.5720 3.9235e+01     7.8649      1.748      2.536    11.3762   999.5935 0.0000e+00
      1.819      0.119     6.4815     84.908     41.612  30.259919     2.9139      7.265   246.5463 3.6961e+01     7.9081      1.781      2.582    11.3751   999.5939 0.0000e+00
      1.862      0.124     6.4868     84.842     41.618  30.259783     2.9668      7.263   246.5515 3.4485e+01     8.0188      1.825      2.647    11.3743   999.5941 0.0000e+00
      1.907      0.119     6.4945     84.762     41.622  30.260249     2.9879      7.261   246.4628 3.2429e+01     8.0892      1.873      2.717    11.3710   999.5946 0.0000e+00
      1.942      0.109     6.5013     84.671     41.632  30.265551     2.9869      7.261   246.4205 3.1272e+01     8.0707      1.910      2.770    11.3640   999.5956 0.0000e+00
      1.963      0.098     6.4976     84.586     41.626  30.260441     2.9642      7.260   246.7288 3.0728e+01     7.9919      1.928      2.796    11.3565   999.5965 0.0000e+00
      1.975      0.089     6.4932     84.506     41.631  30.261911     2.9137      7.256   247.0923 3.0250e+01     7.8575      1.936      2.809    11.3508   999.5971 0.0000e+00
      1.987      0.085     6.4882     84.414     41.666  30.283322     2.8784      7.254   247.2026 2.9663e+01     7.7895      1.946      2.823    11.3469   999.5975 0.0000e+00
      2.006      0.085     6.4802     84.347     41.648  30.265497     2.8659      7.254   247.2022 2.8583e+01     7.8254      1.961      2.845    11.3456   999.5977 0.0000e+00
      2.036      0.086     6.4737     84.327     41.615  30.236745     2.8326      7.253   247.2597 2.7107e+01     7.7349      1.994      2.893    11.3455   999.5979 0.0000e+00
      2.067      0.087     6.4694     84.287     41.641  30.252949     2.7801      7.251   247.3806 2.5985e+01     7.4810      2.031      2.947    11.3440   999.5982 0.0000e+00
      2.092      0.084     6.4615     84.203     41.669  30.271052     2.7589      7.250   247.5456 2.5304e+01     7.3455      2.054      2.980    11.3382   999.5989 0.0000e+00
      2.110      0.078     6.4554     84.109     41.663  30.265271     2.7587      7.249   247.7066 2.4745e+01     7.3743      2.070      3.002    11.3313   999.5997 0.0000e+00
      2.125      0.069     6.4586     83.999     41.638  30.246500     2.8126      7.248   247.7780 2.4173e+01     7.4682      2.082      3.020    11.3264   999.6003 0.0000e+00
      2.140      0.061     6.4565     83.864     41.623  30.234452     2.9336      7.248   247.7210 2.3566e+01     7.5635      2.098      3.042    11.3224   999.6009 0.0000e+00
      2.155      0.056     6.4480     83.718     41.640  30.246510     2.9994      7.247   247.7049 2.2994e+01     7.5764      2.114      3.066    11.3202   999.6012 0.0000e+00
      2.169      0.053     6.4422     83.569     41.666  30.265384     2.9929      7.245   247.8414 2.2412e+01     7.5585      2.126      3.084    11.3190   999.6014 0.0000e+00
      2.184      0.053     6.4346     83.449     41.674  30.272287     2.9848      7.243   247.9096 2.1932e+01     7.5761      2.142      3.107    11.3179   999.6015 0.0000e+00
      2.195      0.053     6.4229     83.389     41.665  30.266517     2.9869      7.242   247.9267 2.1632e+01     7.5927      2.154      3.125    11.3167   999.6017 0.0000e+00
      2.204      0.054     6.4128     83.376     41.654  30.259084     2.9848      7.240   248.0486 2.1234e+01     7.5957      2.160      3.131    11.3155   999.6019 0.0000e+00
      2.218      0.058     6.3998     83.390     41.636  30.245864     2.9763      7.238   248.1790 2.0654e+01     7.6120      2.174      3.151    11.3163   999.6019 0.0000e+00
      2.236      0.063     6.3892     83.413     41.620  30.233589     2.9886      7.238   248.2978 2.0094e+01     7.6257      2.195      3.183    11.3180   999.6018 0.0000e+00
      2.253      0.070     6.3853     83.440     41.626  30.237570     2.9954      7.237   248.5384 1.9608e+01     7.6629      2.210      3.206    11.3190   999.6018 0.0000e+00
      2.269      0.080     6.3846     83.470     41.617  30.230544     2.9621      7.235   248.8517 1.9051e+01     7.7673      2.224      3.226    11.3193   999.6018 0.0000e+00
      2.289      0.091     6.3866     83.503     41.592  30.212085     2.9331      7.231   249.1612 1.8407e+01     7.8383      2.244      3.255    11.3190   999.6019 0.0000e+00
      2.313      0.101     6.3881     83.523     41.583  30.204751     2.9222      7.226   249.5275 1.7716e+01     7.8011      2.267      3.288    11.3187   999.6020 0.0000e+00
      2.341      0.111     6.3907     83.515     41.584  30.205328     2.8909      7.221   249.8385 1.6886e+01     7.7441      2.293      3.325    11.3180   999.6023 0.0000e+00
      2.373      0.120     6.3926     83.490     41.603  30.219058     2.8408      7.218   249.9965 1.5911e+01     7.7396      2.325      3.372    11.3171   999.6025 0.0000e+00
      2.408      0.127     6.3961     83.464     41.638  30.243852     2.8106      7.216   250.0614 1.5009e+01     7.7786      2.363      3.427    11.3164   999.6028 0.0000e+00
      2.443      0.128     6.3982     83.444     41.649  30.251290     2.8125      7.213   250.0206 1.4280e+01     7.7900      2.397      3.476    11.3158   999.6030 0.0000e+00
      2.475      0.123     6.3971     83.439     41.641  30.245532     2.9060      7.212   249.9328 1.3575e+01     7.8777      2.427      3.518    11.3157   999.6031 0.0000e+00
      2.508      0.111     6.3945     83.456     41.631  30.237685     3.0745      7.213   249.9463 1.2851e+01     8.1176      2.459      3.567    11.3156   999.6033 0.0000e+00
      2.543      0.095     6.3929     83.481     41.607  30.219870     3.1684      7.213   250.0120 1.2258e+01     8.2647      2.495      3.620    11.3146   999.6036 0.0000e+00
      2.568      0.080     6.3910     83.497     41.608  30.220495     3.1909      7.213   250.0391 1.1952e+01     8.2477      2.523      3.660    11.3140   999.6038 0.0000e+00
      2.581      0.070     6.3901     83.502     41.641  30.245243     3.2772      7.214   250.1875 1.1861e+01     8.1742      2.534      3.675    11.3141   999.6038 0.0000e+00
      2.586      0.066     6.3925     83.516     41.668  30.265271     3.4146      7.215   250.5155 1.1765e+01     8.0967      2.535      3.677    11.3136   999.6039 0.0000e+00
      2.594      0.068     6.3942     83.524     41.678  30.272287     3.4738      7.214   250.7357 1.1528e+01     8.0652      2.540      3.684    11.3133   999.6039 0.0000e+00
      2.611      0.075     6.3967     83.501     41.669  30.266622     3.4733      7.211   250.8709 1.1114e+01     8.0555      2.557      3.708    11.3133   999.6040 0.0000e+00
      2.636      0.084     6.3950     83.460     41.660  30.260231     3.4594      7.210   251.0315 1.0604e+01     8.0115      2.584      3.748    11.3135   999.6041 0.0000e+00
      2.666      0.089     6.3969     83.414     41.657  30.258463     3.2798      7.210   251.0433 1.0113e+01     7.8275      2.615      3.792    11.3140   999.6042 0.0000e+00
      2.695      0.088     6.3990     83.365     41.639  30.245253     2.9489      7.209   251.1001 9.6982e+00     7.5355      2.645      3.835    11.3144   999.6043 0.0000e+00
      2.720      0.083     6.3956     83.317     41.614  30.227418     2.7626      7.207   251.2869 9.4015e+00     7.3984      2.671      3.873    11.3149   999.6044 0.0000e+00
      2.737      0.078     6.3930     83.315     41.622  30.233185     2.7433      7.207   251.4092 9.2145e+00     7.4146      2.686      3.896    11.3158   999.6043 0.0000e+00
      2.750      0.076     6.3880     83.298     41.648  30.251530     2.7413      7.205   251.4603 9.0548e+00     7.4040      2.697      3.912    11.3163   999.6043 0.0000e+00
      2.764      0.078     6.3867     83.191     41.658  30.258854     2.7384      7.201   251.4745 8.8311e+00     7.4014      2.709      3.929    11.3161   999.6044 0.0000e+00
      2.781      0.081     6.3785     83.108     41.658  30.258287     2.7429      7.200   251.4954 8.5010e+00     7.4156      2.724      3.951    11.3161   999.6045 0.0000e+00
      2.806      0.085     6.3806     83.128     41.640  30.244671     2.7534      7.200   251.6260 8.1071e+00     7.3785      2.750      3.989    11.3162   999.6046 0.0000e+00
      2.836      0.086     6.3857     83.193     41.608  30.221124     2.7439      7.199   251.8496 7.7409e+00     7.3130      2.782      4.035    11.3156   999.6048 0.0000e+00
      2.863      0.084     6.3699     83.265     41.617  30.227407     2.7141      7.197   252.0487 7.4730e+00     7.2140      2.810      4.075    11.3151   999.6050 0.0000e+00
      2.883      0.079     6.3614     83.318     41.658  30.257186     2.6964      7.195   252.3126 7.2983e+00     7.1327      2.830      4.105    11.3147   999.6051 0.0000e+00
      2.898      0.075     6.3670     83.371     41.667  30.263900     2.6947      7.193   252.5446 7.1582e+00     7.1483      2.843      4.124    11.3143   999.6053 0.0000e+00
      2.911      0.074     6.3717     83.470     41.642  30.245130     2.7032      7.192   252.6162 6.9958e+00     7.1743      2.853      4.139    11.3139   999.6053 0.0000e+00
      2.927      0.077     6.3784     83.543     41.608  30.220600     2.7206      7.189   252.6632 6.7712e+00     7.1522      2.868      4.160    11.3136   999.6054 0.0000e+00
      2.948      0.082     6.3834     83.511     41.610  30.221130     2.7406      7.188   252.6822 6.5237e+00     7.1431      2.889      4.191    11.3133   999.6056 0.0000e+00
      2.972      0.090     6.3823     83.401     41.653  30.251541     2.7538      7.188   252.6746 6.3032e+00     7.1293      2.915      4.228    11.3128   999.6058 0.0000e+00
      2.997      0.095     6.3952     83.306     41.680  30.271031     2.7504      7.187   252.7427 6.0754e+00     7.0181      2.938      4.262    11.3128   999.6059 0.0000e+00
      3.022      0.095     6.4023     83.265     41.674  30.266407     2.7426      7.187   252.8168 5.8472e+00     6.8803      2.963      4.298    11.3127   999.6060 0.0000e+00
      3.049      0.090     6.3999     83.247     41.664  30.259078     2.7457      7.187   252.7961 5.6485e+00     6.8396      2.989      4.336    11.3123   999.6061 0.0000e+00
      3.076      0.081     6.3876     83.237     41.647  30.245878     2.7535      7.187   252.8369 5.4612e+00     6.8541      3.017      4.376    11.3116   999.6064 0.0000e+00
      3.099      0.072     6.3788     83.222     41.630  30.233718     2.7508      7.188   252.9659 5.3166e+00     6.8591      3.043      4.414    11.3110   999.6066 0.0000e+00
      3.114      0.064     6.3785     83.237     41.637  30.238958     2.7303      7.188   253.0658 5.2456e+00     6.9005      3.057      4.433    11.3109   999.6066 0.0000e+00
      3.122      0.056     6.3757     83.292     41.647  30.245775     2.7058      7.188   253.0982 5.1852e+00     7.0261      3.061      4.440    11.3103   999.6067 0.0000e+00
      3.131      0.048     6.3774     83.325     41.656  30.252687     2.6964      7.188   253.0997 5.0664e+00     7.1322      3.068      4.450    11.3099   999.6068 0.0000e+00
      3.146      0.043     6.3742     83.315     41.665  30.259074     2.6953      7.187   253.2557 4.9284e+00     7.1671      3.084      4.474    11.3095   999.6069 0.0000e+00
      3.161      0.043     6.3740     83.314     41.667  30.259545     2.7181      7.185   253.4357 4.8344e+00     7.2508      3.102      4.500    11.3093   999.6070 0.0000e+00
      3.170      0.048     6.3818     83.304     41.666  30.258392     2.7723      7.183   253.4694 4.7904e+00     7.3581      3.112      4.513    11.3094   999.6070 0.0000e+00
      3.175      0.053     6.3848     83.213     41.648  30.245135     2.8041      7.181   253.4909 4.7316e+00     7.3840      3.113      4.514    11.3092   999.6071 0.0000e+00
      3.186      0.054     6.3817     83.123     41.621  30.226161     2.8078      7.181   253.5238 4.5758e+00     7.3667      3.119      4.524    11.3091   999.6071 0.0000e+00
      3.206      0.055     6.3812     83.105     41.611  30.219343     2.7996      7.180   253.6093 4.3835e+00     7.2471      3.143      4.558    11.3083   999.6073 0.0000e+00
      3.228      0.056     6.3863     83.097     41.621  30.226151     2.7741      7.180   253.8360 4.2534e+00     7.0193      3.169      4.595    11.3072   999.6076 0.0000e+00
      3.244      0.058     6.3749     83.112     41.647  30.245025     2.7517      7.179   254.1996 4.1895e+00     6.9071      3.184      4.618    11.3077   999.6076 0.0000e+00
      3.253      0.058     6.3624     83.107     41.665  30.257185     2.7454      7.177   254.5639 4.1494e+00     6.9385      3.190      4.627    11.3087   999.6075 0.0000e+00
      3.262      0.057     6.3694     83.082     41.650  30.246264     2.7589      7.173   254.7136 4.0726e+00     7.0065      3.196      4.636    11.3089   999.6075 0.0000e+00
      3.276      0.056     6.3627     83.105     41.641  30.239880     2.7845      7.171   254.7186 3.9610e+00     7.1058      3.211      4.658    11.3086   999.6077 0.0000e+00
      3.294      0.055     6.3680     83.143     41.646  30.243455     2.8031      7.168   254.7971 3.8435e+00     7.1564      3.230      4.685    11.3082   999.6078 0.0000e+00
      3.312      0.050     6.3690     83.185     41.623  30.226036     2.8115      7.165   254.8880 3.7304e+00     7.1264      3.248      4.710    11.3079   999.6078 0.0000e+00
      3.329      0.043     6.3602     83.208     41.615  30.219635     2.8596      7.165   254.9578 3.6517e+00     7.0709      3.267      4.738    11.3077   999.6080 0.0000e+00
      3.341      0.034     6.3683     83.203     41.630  30.229507     2.9510      7.165   255.0381 3.6189e+00     6.9771      3.280      4.757    11.3075   999.6080 0.0000e+00
      3.345      0.028     6.3681     83.214     41.615  30.218490     2.9980      7.164   255.0843 3.6280e+00     6.9097      3.282      4.761    11.3072   999.6081 0.0000e+00
      3.343      0.026     6.3733     83.204     41.609  30.213337     2.9938      7.163   255.1733 3.6570e+00     6.9116      3.278      4.754    11.3067   999.6081 0.0000e+00
      3.343      0.030     6.3767     83.160     41.633  30.230660     2.9432      7.163   255.2532 3.6504e+00     6.9342      3.275      4.750    11.3059   999.6082 0.0000e+00
      3.351      0.038     6.3719     83.134     41.643  30.237573     2.8552      7.163   255.2761 3.5827e+00     6.9536      3.283      4.763    11.3048   999.6083 0.0000e+00
      3.365      0.051     6.3767     83.126     41.637  30.233470     2.8053      7.162   255.2780 3.4908e+00     6.9169      3.300      4.787    11.3040   999.6085 0.0000e+00
      3.382      0.067     6.3761     83.093     41.652  30.244495     2.7988      7.161   255.1902 3.3898e+00     6.8518      3.317      4.811    11.3034   999.6086 0.0000e+00
      3.401      0.083     6.3703     83.062     41.650  30.243975     2.8031      7.159   255.0742 3.2798e+00     6.8863      3.334      4.837    11.3029   999.6088 0.0000e+00
      3.421      0.096     6.3683     83.070     41.626  30.227181     2.8226      7.157   255.0805 3.1808e+00     7.0721      3.353      4.864    11.3026   999.6089 0.0000e+00
      3.446      0.104     6.3702     83.106     41.631  30.231806     2.8522      7.157   255.0943 3.0541e+00     7.2965      3.376      4.897    11.3029   999.6090 0.0000e+00
      3.479      0.106     6.3665     83.198     41.638  30.236439     2.8665      7.157   254.8966 2.8830e+00     7.3710      3.411      4.947    11.3033   999.6091 0.0000e+00
      3.516      0.104     6.3611     83.313     41.615  30.219745     2.8735      7.158   254.6695 2.7251e+00     7.3166      3.449      5.003    11.3045   999.6092 0.0000e+00
      3.547      0.099     6.3650     83.393     41.615  30.220323     2.9195      7.160   254.5858 2.6208e+00     7.2291      3.483      5.051    11.3061   999.6091 0.0000e+00
      3.568      0.090     6.3640     83.478     41.646  30.243433     2.9986      7.160   254.4864 2.5586e+00     7.1318      3.502      5.079    11.3066   999.6092 0.0000e+00
      3.583      0.078     6.3723     83.544     41.649  30.245348     3.0412      7.160   254.3280 2.4940e+00     7.0912      3.511      5.093    11.3064   999.6093 0.0000e+00
      3.601      0.070     6.3860     83.542     41.647  30.243471     3.0356      7.160   254.1329 2.4255e+00     7.0977      3.530      5.120    11.3065   999.6093 0.0000e+00
      3.619      0.066     6.3861     83.432     41.702  30.284201     2.9828      7.160   253.8483 2.3712e+00     7.1125      3.552      5.152    11.3066   999.6094 0.0000e+00
      3.633      0.066     6.3967     83.280     41.802  30.357071     2.9058      7.159   253.5546 2.3182e+00     7.1066      3.564      5.169    11.3067   999.6095 0.0000e+00
      3.647      0.063     6.4012     83.183     41.896  30.426523     2.8764      7.158   253.3356 2.2565e+00     7.0593      3.574      5.183    11.3070   999.6095 0.0000e+00
      3.665      0.057     6.4036     83.087     42.156  30.616300     2.8700      7.158   253.0927 2.1894e+00     7.0314      3.593      5.211    11.3070   999.6096 0.0000e+00
      3.685      0.049     6.3942     83.009     44.781  32.524732     2.8187      7.159   252.7682 2.1343e+00     7.0654      3.617      5.246    11.3071   999.6097 0.0000e+00
      3.700      0.042     6.3749     83.000     63.259  45.949397     2.7419      7.159   252.4236 2.1080e+00     7.1097      3.632      5.267    11.3075   999.6098 0.0000e+00
      3.707      0.034     6.3747     83.003     96.084  69.809761     2.7047      7.159   252.1100 2.0985e+00     7.1403      3.637      5.274    11.3089   999.6096 0.0000e+00
      3.710      0.026     6.3638     82.914    106.906  77.703122     2.7076      7.159   251.8164 2.0866e+00     7.1737      3.638      5.276    11.3108   999.6096 0.0000e+00
      3.713      0.019     6.3557     82.712    103.038  74.927858     2.7331      7.160   251.5400 2.0713e+00     7.1852      3.640      5.280    11.3123   999.6092 0.0000e+00
      3.717      0.015     6.3567     82.365    107.317  78.060073     2.7697      7.160   251.3493 2.0566e+00     7.1482      3.645      5.287    11.3124   999.6112 0.0000e+00
      3.722      0.013     6.3595     81.682    102.837  74.807986     2.7950      7.160   251.1456 2.0425e+00     7.0877      3.651      5.296    11.3170   999.6341 0.0000e+00
      3.726      0.012     6.3488     80.211    103.823  75.528831     2.8054      7.160   250.7981 2.0375e+00     7.0761      3.655      5.301    11.3410   999.6323 0.0000e+00
      3.728      0.011     6.3294     77.281    135.227  98.381420     2.8086      7.160   250.5886 2.0403e+00     7.1061      3.656      5.302    11.3628   999.6201 0.0000e+00
      3.730      0.010     6.3083     72.280    178.826 130.151239     2.8425      7.160   250.5911 2.0363e+00     7.1230      3.658      5.305    11.3669   999.6316 0.0000e+00
      3.732      0.010     6.2636     65.125    199.024 144.969670     2.9028      7.161   250.4849 2.0336e+00     7.1161      3.659      5.307    11.3706   999.6235 0.0000e+00
      3.734      0.011     6.1779     56.453    200.785 146.414577     2.9389      7.162   250.3371 2.0277e+00     7.1209      3.662      5.311    11.3723   999.6193 0.0000e+00
      3.737      0.012     5.9612     47.495    208.713 152.341640     2.9418      7.162   250.2663 2.0176e+00     7.1816      3.665      5.316    11.3683   999.6338 0.0000e+00
      3.741      0.012     5.6014     43.138    215.199 157.135078     2.9370      7.162   250.2320 2.0178e+00     7.2273      3.669      5.321    11.3767   999.6568 0.0000e+00
      3.745 -9.990e-29     4.9957 -9.990e-29 -9.990e-29 -9.990e-29 -9.990e-29 -9.990e-29 -9.990e-29 2.0151e+00 -9.990e-29      3.672      5.326    11.4147   999.6586 0.0000e+00
      3.748 -9.990e-29     4.3543 -9.990e-29 -9.990e-29 -9.990e-29 -9.990e-29 -9.990e-29 -9.990e-29 2.0055e+00 -9.990e-29      3.677      5.331    11.4595   999.6472 0.0000e+00
      3.750 -9.990e-29     3.5272 -9.990e-29 -9.990e-29 -9.990e-29 -9.990e-29 -9.990e-29 -9.990e-29 2.0022e+00 -9.990e-29      3.679      5.335    11.4982   999.6503 0.0000e+00
      3.751 -9.990e-29     2.9364 -9.990e-29 -9.990e-29 -9.990e-29 -9.990e-29 -9.990e-29 -9.990e-29 2.0032e+00 -9.990e-29      3.679      5.337    11.5188   999.6521 0.0000e+00
