* Sea-Bird SBE19plus  Data File:
* FileName = C:\DATA\112019_fcr_0002.hex
* Software version 2.8.0.119 SB_Terminal.dll
* Temperature SN = 7809
* Conductivity SN = 7809
* System UpLoad Time = Nov 20 2019 19:43:30
* <ApplicationData>
* <Seaterm232>
* <SoftwareVersion>2.8.0.119</SoftwareVersion>
* <BuildDate>07-Nov-2018</BuildDate>
* </Seaterm232>
* </ApplicationData>
* cast   2 20 Nov 2019 11:34:41 samples 1842 to 2359, avg = 1, stop = mag switch
# nquan = 16
# nvalues = 324                         
# units = specified
# name 0 = depFM: Depth [fresh water, m]
# name 1 = dz/dtM: Descent Rate [m/s]
# name 2 = sbeox0ML/L: Oxygen, SBE 43 [ml/l]
# name 3 = sbeox0PS: Oxygen, SBE 43 [% saturation]
# name 4 = specc: Specific Conductance [uS/cm]
# name 5 = c0uS/cm: Conductivity [uS/cm]
# name 6 = flECO-AFL: Fluorescence, WET Labs ECO-AFL/FL [mg/m^3]
# name 7 = ph: pH
# name 8 = orp: Oxidation Reduction Potential [mV]
# name 9 = par/sat/log: PAR/Logarithmic, Satlantic
# name 10 = turbWETntu0: Turbidity, WET Labs ECO [NTU]
# name 11 = prdM: Pressure, Strain Gauge [db]
# name 12 = prdE: Pressure, Strain Gauge [psi]
# name 13 = tv290C: Temperature [ITS-90, deg C]
# name 14 = density00: Density [density, kg/m^3]
# name 15 = flag:  0.000e+00
# span 0 =     -0.573,      7.095       
# span 1 =     -0.015,      0.257       
# span 2 =     6.3757,     8.7047       
# span 3 =     77.006,    103.332       
# span 4 =     33.610,     43.332       
# span 5 =  23.842014,  28.612512       
# span 6 =    -0.5431,     4.3010       
# span 7 =      5.412,      8.670       
# span 8 =   262.3795,   321.5748       
# span 9 = 1.2365e-01, 1.4657e+03       
# span 10 =    -0.6161,     7.8725      
# span 11 =     -0.563,      6.958      
# span 12 =     -0.817,     10.092      
# span 13 =     7.2454,    11.2961      
# span 14 =   999.5790,   999.9412      
# span 15 = 0.0000e+00, 0.0000e+00      
# interval = seconds: 0.25
# start_time = Nov 20 2019 11:34:41 [Instrument's time stamp, header]
# bad_flag = -9.990e-29
# <Sensors count="9" >
#   <sensor Channel="1" >
#     <!-- Count, Temperature -->
#     <TemperatureSensor SensorID="58" >
#       <SerialNumber>7809</SerialNumber>
#       <CalibrationDate>24-Mar-19</CalibrationDate>
#       <A0>1.21792325e-003</A0>
#       <A1>2.81669265e-004</A1>
#       <A2>-1.60333336e-006</A2>
#       <A3>1.98414625e-007</A3>
#       <Slope>1.00000000</Slope>
#       <Offset>0.0000</Offset>
#     </TemperatureSensor>
#   </sensor>
#   <sensor Channel="2" >
#     <!-- Frequency 0, Conductivity -->
#     <ConductivitySensor SensorID="3" >
#       <SerialNumber>7809</SerialNumber>
#       <CalibrationDate>24-Mar-19</CalibrationDate>
#       <UseG_J>1</UseG_J>
#       <!-- Cell const and series R are applicable only for wide range sensors. -->
#       <SeriesR>0.0000</SeriesR>
#       <CellConst>2000.0000</CellConst>
#       <ConductivityType>0</ConductivityType>
#       <Coefficients equation="0" >
#         <A>0.00000000e+000</A>
#         <B>0.00000000e+000</B>
#         <C>0.00000000e+000</C>
#         <D>0.00000000e+000</D>
#         <M>0.0</M>
#         <CPcor>-9.57000000e-008</CPcor>
#       </Coefficients>
#       <Coefficients equation="1" >
#         <G>-1.00589325e+000</G>
#         <H>1.26816302e-001</H>
#         <I>-1.51560448e-004</I>
#         <J>2.67137274e-005</J>
#         <CPcor>-9.57000000e-008</CPcor>
#         <CTcor>3.2500e-006</CTcor>
#         <!-- WBOTC not applicable unless ConductivityType = 1. -->
#         <WBOTC>0.00000000e+000</WBOTC>
#       </Coefficients>
#       <Slope>1.00000000</Slope>
#       <Offset>0.00000</Offset>
#     </ConductivitySensor>
#   </sensor>
#   <sensor Channel="3" >
#     <!-- Count, Pressure, Strain Gauge -->
#     <PressureSensor SensorID="46" >
#       <SerialNumber>7809</SerialNumber>
#       <CalibrationDate>11-Mar-19</CalibrationDate>
#       <PA0>4.56561833e-002</PA0>
#       <PA1>4.85095118e-004</PA1>
#       <PA2>-2.88327090e-012</PA2>
#       <PTEMPA0>-5.48784562e+001</PTEMPA0>
#       <PTEMPA1>5.53756816e+001</PTEMPA1>
#       <PTEMPA2>-5.86727098e-001</PTEMPA2>
#       <PTCA0>5.25246745e+005</PTCA0>
#       <PTCA1>1.22304214e+001</PTCA1>
#       <PTCA2>-3.56745036e-001</PTCA2>
#       <PTCB0>2.51668750e+001</PTCB0>
#       <PTCB1>3.75000000e-004</PTCB1>
#       <PTCB2>0.00000000e+000</PTCB2>
#       <Offset>0.000000</Offset>
#     </PressureSensor>
#   </sensor>
#   <sensor Channel="4" >
#     <!-- A/D voltage 0, Oxygen, SBE 43 -->
#     <OxygenSensor SensorID="38" >
#       <SerialNumber>0434</SerialNumber>
#       <CalibrationDate>13-Apr-19</CalibrationDate>
#       <Use2007Equation>1</Use2007Equation>
#       <CalibrationCoefficients equation="0" >
#         <!-- Coefficients for Owens-Millard equation. -->
#         <Boc>0.0000</Boc>
#         <Soc>0.0000e+000</Soc>
#         <offset>0.0000</offset>
#         <Pcor>0.00e+000</Pcor>
#         <Tcor>0.0000</Tcor>
#         <Tau>0.0</Tau>
#       </CalibrationCoefficients>
#       <CalibrationCoefficients equation="1" >
#         <!-- Coefficients for Sea-Bird equation - SBE calibration in 2007 and later. -->
#         <Soc>4.2007e-001</Soc>
#         <offset>-0.6109</offset>
#         <A>-4.3656e-003</A>
#         <B> 1.7017e-004</B>
#         <C>-2.5341e-006</C>
#         <D0> 2.5826e+000</D0>
#         <D1> 1.92634e-004</D1>
#         <D2>-4.64803e-002</D2>
#         <E> 3.6000e-002</E>
#         <Tau20> 1.1800</Tau20>
#         <H1>-3.3000e-002</H1>
#         <H2> 5.0000e+003</H2>
#         <H3> 1.4500e+003</H3>
#       </CalibrationCoefficients>
#     </OxygenSensor>
#   </sensor>
#   <sensor Channel="5" >
#     <!-- A/D voltage 1, PAR/Logarithmic, Satlantic -->
#     <PARLog_SatlanticSensor SensorID="76" >
#       <SerialNumber>1122</SerialNumber>
#       <CalibrationDate>08-May-2019</CalibrationDate>
#       <a0>9.7456e-001</a0>
#       <a1>8.1640e-001</a1>
#       <Im>1.3589e+000</Im>
#       <Multiplier>1.0000e+000</Multiplier>
#     </PARLog_SatlanticSensor>
#   </sensor>
#   <sensor Channel="6" >
#     <!-- A/D voltage 2, pH -->
#     <pH_Sensor SensorID="43" >
#       <SerialNumber>0363</SerialNumber>
#       <CalibrationDate>15-Apr-19</CalibrationDate>
#       <Slope>4.5952</Slope>
#       <Offset>2.5370</Offset>
#     </pH_Sensor>
#   </sensor>
#   <sensor Channel="7" >
#     <!-- A/D voltage 3, Oxidation Reduction Potential -->
#     <OxidationReductionPotentialSensor SensorID="41" >
#       <SerialNumber>0363</SerialNumber>
#       <CalibrationDate>15-Apr-19</CalibrationDate>
#       <B>2.499480</B>
#       <M>-0.496195</M>
#       <Offset>0.0</Offset>
#     </OxidationReductionPotentialSensor>
#   </sensor>
#   <sensor Channel="8" >
#     <!-- A/D voltage 4, Fluorometer, WET Labs ECO-AFL/FL -->
#     <FluoroWetlabECO_AFL_FL_Sensor SensorID="20" >
#       <SerialNumber>FLNTURT-2496</SerialNumber>
#       <CalibrationDate>08-May-2019</CalibrationDate>
#       <ScaleFactor>5.00000000e+001</ScaleFactor>
#       <!-- Dark output -->
#       <Vblank>0.0550</Vblank>
#     </FluoroWetlabECO_AFL_FL_Sensor>
#   </sensor>
#   <sensor Channel="9" >
#     <!-- A/D voltage 5, Turbidity Meter, WET Labs, ECO-NTU -->
#     <TurbidityMeter SensorID="67" >
#       <SerialNumber>FLNTURT-2496</SerialNumber>
#       <CalibrationDate>08-May-2019</CalibrationDate>
#       <ScaleFactor>189.000000</ScaleFactor>
#       <!-- Dark output -->
#       <DarkVoltage>0.071000</DarkVoltage>
#     </TurbidityMeter>
#   </sensor>
# </Sensors>
# datcnv_date = Nov 20 2019 19:47:42, 7.26.7.129 [datcnv_vars = 15]
# datcnv_in = C:\DATA\112019_fcr_0002.hex C:\DATA\SBE19plusV2_7809.xmlcon
# datcnv_skipover = 0
# datcnv_ox_hysteresis_correction = yes
# datcnv_ox_tau_correction = yes
# filter_date = Nov 20 2019 19:48:27, 7.26.7.129
# filter_in = C:\DATA\112019_fcr_0002.cnv
# filter_low_pass_tc_A = 0.030
# filter_low_pass_tc_B = 0.150
# filter_low_pass_A_vars = sbeox0ML/L prdM prdE tv290C density00
# filter_low_pass_B_vars = depFM dz/dtM sbeox0PS specc c0uS/cm flECO-AFL ph orp par/sat/log turbWETntu0
# alignctd_date = Nov 20 2019 19:49:41, 7.26.7.129
# alignctd_in = C:\DATA\112019_fcr_0002.cnv
# alignctd_adv = dz/dtM 1.000, sbeox0PS 1.000, specc 1.000, c0uS/cm 1.000, flECO-AFL 1.000, ph 1.000, orp 1.000, turbWETntu0 1.000                                                                                                   
# file_type = ascii
*END*
     -0.573      0.073     7.3575     96.081     33.610  23.842014    -0.5431      5.412   262.3795 3.4906e+02    -0.6161     -0.563     -0.816    11.2906   999.5792 0.0000e+00
     -0.567      0.122     7.3590     96.198     40.360  28.204168    -0.5136      6.759   262.9200 4.8873e+02    -0.4782     -0.562     -0.817    11.2820   999.5800 0.0000e+00
     -0.538      0.171     7.3567     96.314     41.399  28.472228    -0.0764      7.553   273.0457 6.3480e+02     1.2563     -0.542     -0.786    11.2961   999.5790 0.0000e+00
     -0.475      0.207     7.3728     96.418     41.235  27.971049     0.7193      8.038   281.3898 6.9179e+02     4.5277     -0.474     -0.688    11.1941   999.5947 0.0000e+00
     -0.389      0.225     7.4713     96.531     41.309  27.727624     1.1406      8.333   285.4253 7.1084e+02     6.3366     -0.380     -0.552    10.6532   999.6549 0.0000e+00
     -0.304      0.223     7.6095     96.668     41.741  27.812848     1.1682      8.501   285.8743 8.4669e+02     6.5112     -0.289     -0.419     9.9349   999.7231 0.0000e+00
     -0.239      0.202     7.7256     96.851     42.499  28.176454     1.1824      8.593   286.3031 1.0908e+03     6.5405     -0.224     -0.325     9.3493   999.7716 0.0000e+00
     -0.202      0.165     7.8220     97.086     43.145  28.507249     1.2945      8.644   287.5124 1.3184e+03     6.7243     -0.193     -0.281     8.8703   999.8081 0.0000e+00
     -0.180      0.121     7.8978     97.346     43.332  28.576450     1.5014      8.667   288.5364 1.4657e+03     7.0618     -0.180     -0.261     8.5195   999.8326 0.0000e+00
     -0.157      0.084     7.9527     97.639     43.146  28.442057     1.6204      8.670   289.3054 1.4410e+03     7.2133     -0.154     -0.223     8.2888   999.8482 0.0000e+00
     -0.135      0.059     7.9962     97.972     42.982  28.341662     1.6240      8.658   290.0138 1.2488e+03     7.1795     -0.126     -0.183     8.1348   999.8584 0.0000e+00
     -0.123      0.045     8.0411     98.281     43.127  28.441245     1.6138      8.637   290.9060 1.1706e+03     7.0137     -0.116     -0.170     8.0196   999.8657 0.0000e+00
     -0.122      0.035     8.0749     98.540     43.326  28.567462     1.6184      8.613   291.2314 1.2976e+03     6.7155     -0.121     -0.174     7.9505   999.8699 0.0000e+00
     -0.120      0.029     8.0980     98.760     43.188  28.471841     1.6271      8.588   287.4958 1.3799e+03     6.5570     -0.121     -0.175     7.9506   999.8698 0.0000e+00
     -0.112      0.032     8.1246     98.907     42.736  28.173381     1.6244      8.563   280.6703 1.3518e+03     6.5381     -0.110     -0.160     7.9738   999.8683 0.0000e+00
     -0.104      0.044     8.1508     98.967     42.289  27.877483     1.6194      8.536   277.4501 1.3286e+03     6.5201     -0.100     -0.145     7.9751   999.8685 0.0000e+00
     -0.098      0.060     8.1717     98.979     42.014  27.685913     1.6186      8.509   278.0716 1.3481e+03     6.5358     -0.100     -0.144     7.9663   999.8691 0.0000e+00
     -0.084      0.073     8.1946     98.838     41.866  27.570205     1.6156      8.486   279.2371 1.3732e+03     6.5322     -0.089     -0.129     7.9566   999.8697 0.0000e+00
     -0.058      0.081     8.2063     98.132     41.786  27.493606     1.6175      8.470   280.3580 1.3008e+03     6.5095     -0.059     -0.086     7.9609   999.8693 0.0000e+00
     -0.025      0.083     8.2090     96.820     41.766  27.457647     1.6162      8.460   281.5574 1.0127e+03     6.5226     -0.023     -0.034     7.9645   999.8691 0.0000e+00
      0.005      0.078     8.2114     95.644     41.785  27.452644     1.6086      8.453   282.9836 7.7971e+02     6.5261      0.010      0.015     7.9496   999.8700 0.0000e+00
      0.023      0.066     8.2221     95.086     41.775  27.433099     1.6121      8.448   284.2656 8.8375e+02     6.5195      0.025      0.036     7.9275   999.8714 0.0000e+00
      0.034      0.048     8.1815     95.011     41.761  27.411664     1.6145      8.443   285.1851 9.7897e+02     6.5081      0.033      0.047     7.8954   999.8732 0.0000e+00
      0.043      0.028     8.0393     95.214     41.739  27.383802     1.6125      8.434   285.9274 8.4166e+02     6.4866      0.044      0.063     7.8652   999.8751 0.0000e+00
      0.049      0.013     7.9313     95.575     41.706  27.349992     1.6315      8.424   286.7882 7.4501e+02     6.4892      0.050      0.073     7.8464   999.8763 0.0000e+00
      0.049      0.004     7.8989     95.981     41.770  27.383534     1.6618      8.412   287.8489 8.4136e+02     6.5397      0.049      0.073     7.8327   999.8770 0.0000e+00
      0.044     -0.001     7.9000     96.264     41.910  27.472123     1.6756      8.400   288.7718 1.0108e+03     6.5734      0.043      0.063     7.8186   999.8778 0.0000e+00
      0.038     -0.005     7.9237     96.164     42.001  27.532852     1.6769      8.389   289.3432 1.0973e+03     6.5357      0.036      0.053     7.8014   999.8788 0.0000e+00
      0.036     -0.007     7.9593     95.454     42.023  27.546788     1.6599      8.381   289.7670 1.0483e+03     6.5101      0.035      0.050     7.7852   999.8797 0.0000e+00
      0.038     -0.007     8.0004     94.244     41.978  27.513728     1.6256      8.376   290.2823 9.5749e+02     6.5257      0.037      0.054     7.7734   999.8804 0.0000e+00
      0.040     -0.008     8.0311     92.849     41.891  27.450352     1.6096      8.371   290.8423 9.3174e+02     6.5287      0.040      0.059     7.7716   999.8806 0.0000e+00
      0.038     -0.010     8.0338     91.515     41.845  27.414978     1.6135      8.364   291.3744 1.0098e+03     6.5122      0.039      0.057     7.7763   999.8803 0.0000e+00
      0.033     -0.014     7.9685     90.323     41.832  27.403252     1.6293      8.357   291.9841 1.0816e+03     6.4905      0.033      0.048     7.7765   999.8804 0.0000e+00
      0.028     -0.015     7.8576     89.277     41.787  27.372019     1.6537      8.350   292.7079 1.1304e+03     6.4961      0.027      0.039     7.7706   999.8806 0.0000e+00
      0.023     -0.014     7.7357     88.428     41.757  27.354576     1.6657      8.342   293.3281 1.2052e+03     6.5476      0.022      0.033     7.7614   999.8810 0.0000e+00
      0.017     -0.010     7.6233     87.747     41.792  27.382690     1.6707      8.334   293.7188 1.2138e+03     6.5558      0.015      0.022     7.7545   999.8814 0.0000e+00
      0.013     -0.003     7.5280     87.161     41.802  27.394716     1.7140      8.327   294.0761 1.1550e+03     6.4966      0.010      0.014     7.7508   999.8816 0.0000e+00
      0.014      0.006     7.4358     86.692     41.766  27.373092     1.7983      8.320   294.5513 1.0529e+03     6.4879      0.013      0.019     7.7489   999.8817 0.0000e+00
      0.019      0.015     7.3665     86.341     41.765  27.375018     1.8580      8.313   294.9902 9.5660e+02     6.5158      0.019      0.028     7.7516   999.8815 0.0000e+00
      0.023      0.021     7.3131     86.088     41.822  27.418013     1.8716      8.305   295.3386 9.7499e+02     6.5058      0.022      0.031     7.7593   999.8810 0.0000e+00
      0.030      0.022     7.2594     86.029     41.863  27.448818     1.8247      8.295   295.6663 1.0401e+03     6.4329      0.026      0.039     7.7670   999.8807 0.0000e+00
      0.040      0.017     7.2204     86.241     41.839  27.430246     1.7333      8.283   295.8550 9.4639e+02     6.3220      0.040      0.058     7.7677   999.8807 0.0000e+00
      0.050      0.009     7.1941     86.667     41.779  27.383804     1.6854      8.272   295.9848 8.2723e+02     6.2792      0.051      0.075     7.7679   999.8808 0.0000e+00
      0.052     -0.000     7.1666     87.257     41.712  27.331404     1.6786      8.264   296.2899 8.6428e+02     6.3083      0.053      0.077     7.7780   999.8802 0.0000e+00
      0.048     -0.007     7.1557     87.944     41.682  27.304249     1.6696      8.257   296.7913 9.4454e+02     6.3137      0.048      0.070     7.7869   999.8797 0.0000e+00
      0.039     -0.010     7.1794     88.621     41.694  27.309259     1.6631      8.243   297.3141 1.0542e+03     6.3122      0.038      0.055     7.7813   999.8800 0.0000e+00
      0.029     -0.008     7.2168     89.206     41.716  27.328524     1.6682      8.224   297.7067 1.0774e+03     6.3888      0.026      0.038     7.7703   999.8805 0.0000e+00
      0.024     -0.003     7.2692     89.611     41.731  27.346846     1.6800      8.206   298.0114 9.5062e+02     6.4856      0.020      0.030     7.7595   999.8811 0.0000e+00
      0.027      0.005     7.3332     89.755     41.716  27.340458     1.6838      8.192   298.3311 8.9681e+02     6.5322      0.025      0.036     7.7494   999.8817 0.0000e+00
      0.035      0.012     7.3917     89.661     41.683  27.314742     1.6710      8.181   298.6471 9.7534e+02     6.5917      0.036      0.052     7.7439   999.8820 0.0000e+00
      0.042      0.017     7.4421     89.452     41.654  27.289687     1.6461      8.174   298.9059 1.0487e+03     6.6808      0.043      0.062     7.7513   999.8817 0.0000e+00
      0.046      0.019     7.4760     89.246     41.663  27.291303     1.6345      8.169   299.1374 1.0216e+03     6.7251      0.047      0.067     7.7679   999.8808 0.0000e+00
      0.050      0.017     7.4867     89.108     41.731  27.334283     1.6351      8.165   299.2954 1.1127e+03     6.7344      0.049      0.071     7.7713   999.8806 0.0000e+00
      0.053      0.014     7.4755     89.050     41.778  27.365220     1.6102      8.160   299.3534 1.2409e+03     6.6942      0.052      0.074     7.7634   999.8810 0.0000e+00
      0.058      0.012     7.4560     89.040     41.753  27.348126     1.5673      8.156   299.3224 1.0171e+03     6.5992      0.057      0.081     7.7553   999.8814 0.0000e+00
      0.062      0.011     7.4384     89.060     41.711  27.317941     1.5500      8.151   299.2647 7.5834e+02     6.5694      0.062      0.090     7.7492   999.8818 0.0000e+00
      0.064      0.012     7.4264     89.110     41.714  27.317487     1.5566      8.146   299.3446 7.1521e+02     6.5956      0.063      0.091     7.7479   999.8820 0.0000e+00
      0.064      0.014     7.4231     89.160     41.749  27.342639     1.5871      8.141   299.5131 7.2930e+02     6.6869      0.062      0.090     7.7494   999.8819 0.0000e+00
      0.066      0.016     7.4230     89.178     41.778  27.368271     1.6416      8.136   299.6681 8.6604e+02     6.8536      0.063      0.091     7.7490   999.8819 0.0000e+00
      0.072      0.017     7.4245     89.157     41.778  27.373617     1.6778      8.130   299.8412 9.6136e+02     6.9406      0.069      0.100     7.7446   999.8823 0.0000e+00
      0.080      0.019     7.4311     89.092     41.733  27.343832     1.6863      8.125   300.1438 8.4006e+02     6.9524      0.079      0.115     7.7398   999.8825 0.0000e+00
      0.086      0.020     7.4360     88.994     41.707  27.325377     1.6753      8.120   300.4872 8.5018e+02     6.8974      0.085      0.123     7.7420   999.8824 0.0000e+00
      0.090      0.018     7.4350     88.903     41.731  27.340817     1.6397      8.115   300.6377 1.0201e+03     6.7672      0.088      0.128     7.7532   999.8818 0.0000e+00
      0.094      0.015     7.4324     88.833     41.731  27.340183     1.6110      8.111   300.8455 9.7676e+02     6.7216      0.091      0.134     7.7612   999.8814 0.0000e+00
      0.098      0.011     7.4271     88.756     41.699  27.317708     1.6147      8.107   301.1935 8.5174e+02     6.7399      0.097      0.141     7.7592   999.8815 0.0000e+00
      0.101      0.008     7.4182     88.655     41.711  27.322863     1.6327      8.105   301.4033 9.2676e+02     6.7259      0.100      0.145     7.7558   999.8817 0.0000e+00
      0.101      0.006     7.4093     88.524     41.738  27.339061     1.6472      8.102   301.5753 1.0811e+03     6.7167      0.099      0.144     7.7566   999.8816 0.0000e+00
      0.102      0.004     7.4053     88.374     41.715  27.323210     1.6509      8.100   301.8093 1.0665e+03     6.7270      0.100      0.145     7.7571   999.8816 0.0000e+00
      0.102      0.002     7.3996     88.240     41.709  27.321554     1.6431      8.098   302.0828 9.1100e+02     6.7510      0.100      0.146     7.7542   999.8818 0.0000e+00
      0.103      0.002     7.3915     88.119     41.793  27.382476     1.6311      8.095   302.4725 8.0162e+02     6.7785      0.101      0.147     7.7510   999.8819 0.0000e+00
      0.103      0.002     7.3819     87.982     41.940  27.488797     1.6267      8.091   302.8224 7.5877e+02     6.8299      0.102      0.148     7.7487   999.8821 0.0000e+00
      0.103      0.002     7.3668     87.792     42.077  27.591938     1.6250      8.087   303.0430 9.5771e+02     6.9133      0.101      0.147     7.7471   999.8822 0.0000e+00
      0.103      0.002     7.3567     87.547     42.188  27.677856     1.6185      8.081   303.3325 1.2923e+03     6.9679      0.101      0.147     7.7487   999.8821 0.0000e+00
      0.104      0.002     7.3456     87.273     42.312  27.766263     1.6172      8.076   303.6560 1.2397e+03     6.9981      0.102      0.148     7.7560   999.8817 0.0000e+00
      0.106      0.002     7.3334     86.955     42.514  27.899497     1.6174      8.071   303.7715 9.1079e+02     7.0162      0.103      0.150     7.7682   999.8811 0.0000e+00
      0.106     -0.001     7.3155     86.580     42.796  28.083271     1.6129      8.065   303.6098 7.7305e+02     6.9901      0.104      0.151     7.7850   999.8802 0.0000e+00
      0.107     -0.006     7.2887     86.143     42.971  28.211686     1.6064      8.058   303.5086 8.2096e+02     6.9451      0.104      0.152     7.8038   999.8791 0.0000e+00
      0.108     -0.011     7.2669     85.672     42.961  28.246646     1.6081      8.051   303.7520 8.1728e+02     6.9302      0.107      0.156     7.8125   999.8786 0.0000e+00
      0.106     -0.013     7.2396     85.211     42.889  28.252213     1.6241      8.046   304.1433 7.9003e+02     6.9084      0.108      0.156     7.8120   999.8788 0.0000e+00
      0.097     -0.012     7.2110     84.739     42.867  28.279053     1.6351      8.041   304.4545 8.0650e+02     6.8455      0.097      0.141     7.8026   999.8793 0.0000e+00
      0.087     -0.009     7.1733     84.250     42.883  28.317407     1.6287      8.036   304.6753 7.5595e+02     6.7920      0.081      0.119     7.8081   999.8791 0.0000e+00
      0.082     -0.004     7.1199     83.773     42.876  28.335274     1.6166      8.031   304.8341 6.3935e+02     6.7536      0.078      0.112     7.8679   999.8756 0.0000e+00
      0.086      0.002     7.0717     83.345     42.894  28.368203     1.6270      8.027   304.9985 5.6472e+02     6.8071      0.083      0.119     7.9427   999.8711 0.0000e+00
      0.093      0.007     7.0239     82.995     42.914  28.398319     1.6593      8.022   305.1998 5.2620e+02     6.9474      0.091      0.133     7.9896   999.8684 0.0000e+00
      0.098      0.009     6.9778     82.692     42.870  28.382176     1.6788      8.017   305.3752 5.1569e+02     6.9752      0.098      0.143     8.0161   999.8668 0.0000e+00
      0.100      0.005     6.9336     82.418     42.817  28.363381     1.6803      8.009   305.3983 6.0557e+02     6.9140      0.098      0.142     8.0408   999.8653 0.0000e+00
      0.101     -0.001     6.8912     82.179     42.772  28.361433     1.6598      8.003   305.3068 7.0964e+02     6.8625      0.098      0.143     8.0674   999.8637 0.0000e+00
      0.101     -0.006     6.8618     81.980     42.716  28.358655     1.6300      7.999   305.3017 7.9111e+02     6.8110      0.100      0.145     8.0875   999.8625 0.0000e+00
      0.098     -0.005     6.8341     81.791     42.629  28.329817     1.6148      7.994   305.3357 8.5070e+02     6.7832      0.099      0.144     8.1003   999.8617 0.0000e+00
      0.090      0.003     6.8095     81.597     42.507  28.266587     1.6063      7.989   305.2884 8.1274e+02     6.7557      0.089      0.129     8.1137   999.8608 0.0000e+00
      0.082      0.016     6.7835     81.435     42.435  28.228648     1.6131      7.984   305.1602 8.3775e+02     6.7414      0.075      0.108     8.1471   999.8586 0.0000e+00
      0.086      0.033     6.7599     81.303     42.465  28.251807     1.6453      7.977   305.0761 8.7491e+02     6.9055      0.080      0.117     8.1965   999.8555 0.0000e+00
      0.101      0.051     6.7404     81.166     42.524  28.292815     1.6752      7.967   305.1314 7.9305e+02     7.2329      0.098      0.143     8.2318   999.8533 0.0000e+00
      0.121      0.067     6.7180     80.998     42.598  28.343774     1.6797      7.952   305.2260 7.1382e+02     7.4220      0.117      0.170     8.2501   999.8522 0.0000e+00
      0.145      0.079     6.7042     80.799     42.719  28.423801     1.6737      7.932   305.3602 6.5637e+02     7.4225      0.143      0.207     8.2621   999.8516 0.0000e+00
      0.170      0.081     6.6935     80.584     42.839  28.499016     1.6723      7.915   305.6354 6.6571e+02     7.3694      0.168      0.245     8.2643   999.8516 0.0000e+00
      0.191      0.076     6.6838     80.371     42.931  28.555241     1.6808      7.903   305.9734 6.8442e+02     7.2714      0.186      0.270     8.2632   999.8518 0.0000e+00
      0.212      0.066     6.6685     80.154     42.992  28.596010     1.6890      7.895   306.1771 5.8885e+02     7.1888      0.209      0.302     8.2684   999.8515 0.0000e+00
      0.231      0.052     6.6515     79.899     43.002  28.611241     1.6934      7.891   306.2913 5.2229e+02     7.1573      0.231      0.334     8.2692   999.8516 0.0000e+00
      0.243      0.039     6.6352     79.632     42.982  28.612512     1.7259      7.891   306.4936 5.2657e+02     6.9879      0.239      0.346     8.2606   999.8523 0.0000e+00
      0.248      0.028     6.6178     79.376     42.950  28.611387     1.7788      7.890   306.7304 4.6797e+02     6.6815      0.245      0.355     8.2537   999.8528 0.0000e+00
      0.249      0.019     6.6033     79.121     42.892  28.597666     1.8037      7.889   306.9173 3.9238e+02     6.5321      0.245      0.357     8.2524   999.8529 0.0000e+00
      0.249      0.013     6.5785     78.897     42.817  28.573537     1.8012      7.889   307.0327 3.6202e+02     6.5261      0.242      0.351     8.2612   999.8523 0.0000e+00
      0.253      0.009     6.5522     78.699     42.782  28.573472     1.8002      7.889   307.1796 3.6047e+02     6.4780      0.247      0.358     8.2806   999.8512 0.0000e+00
      0.259      0.010     6.5300     78.495     42.794  28.596906     1.8088      7.889   307.4887 3.8456e+02     6.3755      0.256      0.372     8.3034   999.8497 0.0000e+00
      0.260      0.015     6.5014     78.322     42.790  28.603082     1.8193      7.885   307.8451 4.2902e+02     6.3030      0.257      0.372     8.3330   999.8477 0.0000e+00
      0.258      0.023     6.4783     78.211     42.753  28.584703     1.8145      7.880   308.0462 4.6772e+02     6.2900      0.251      0.364     8.3663   999.8455 0.0000e+00
      0.260      0.030     6.4595     78.123     42.715  28.565052     1.8022      7.872   308.1992 4.5646e+02     6.4150      0.251      0.364     8.3957   999.8436 0.0000e+00
      0.271      0.036     6.4381     78.037     42.695  28.555830     1.8007      7.865   308.5772 4.3095e+02     6.7004      0.263      0.382     8.4145   999.8424 0.0000e+00
      0.288      0.043     6.4207     77.959     42.662  28.536658     1.8048      7.859   309.0877 4.1955e+02     6.9223      0.283      0.410     8.4214   999.8421 0.0000e+00
      0.304      0.049     6.4134     77.896     42.547  28.460150     1.8083      7.851   309.6400 3.9809e+02     7.0011      0.299      0.434     8.4282   999.8416 0.0000e+00
      0.315      0.058     6.4052     77.851     42.355  28.328729     1.8083      7.839   310.3519 3.8159e+02     7.0303      0.309      0.449     8.4355   999.8412 0.0000e+00
      0.325      0.071     6.3966     77.786     42.207  28.216643     1.8314      7.819   311.0701 4.2720e+02     7.1113      0.318      0.461     8.4405   999.8409 0.0000e+00
      0.337      0.086     6.3906     77.694     42.205  28.183549     1.8882      7.799   311.5257 4.6661e+02     7.2263      0.329      0.477     8.4433   999.8408 0.0000e+00
      0.357      0.103     6.3838     77.619     42.269  28.182360     1.9317      7.785   311.8172 3.9315e+02     7.2410      0.344      0.499     8.4438   999.8408 0.0000e+00
      0.389      0.119     6.3827     77.590     42.174  28.075322     1.9410      7.780   312.0999 3.1875e+02     7.1903      0.376      0.546     8.4432   999.8408 0.0000e+00
      0.432      0.135     6.3788     77.591     41.705  27.714148     1.9489      7.776   312.4489 3.0816e+02     7.2360      0.425      0.616     8.4348   999.8416 0.0000e+00
      0.475      0.152     6.3757     77.552     41.014  27.178113     1.9749      7.770   312.9394 3.2378e+02     7.3676      0.470      0.683     8.3940   999.8446 0.0000e+00
      0.509      0.168     6.3782     77.352     40.618  26.796728     1.9948      7.761   313.2976 3.2281e+02     7.4376      0.500      0.725     8.3304   999.8489 0.0000e+00
      0.543      0.181     6.3839     77.035     40.626  26.655697     2.0077      7.754   313.3384 2.7328e+02     7.4276      0.527      0.763     8.2848   999.8520 0.0000e+00
      0.589      0.189     6.3927     77.006     40.761  26.614772     2.1217      7.750   313.2602 2.3286e+02     7.3122      0.572      0.829     8.2350   999.8552 0.0000e+00
      0.649      0.193     6.4075     77.751     40.901  26.619011     2.3417      7.748   313.2118 2.1094e+02     7.1237      0.635      0.920     8.1507   999.8604 0.0000e+00
      0.713      0.193     6.4172     79.509     41.017  26.643412     2.4737      7.747   313.2705 1.9255e+02     7.0169      0.701      1.017     8.0010   999.8697 0.0000e+00
      0.769      0.188     6.4073     82.220     41.082  26.655981     2.4871      7.744   313.5405 1.8257e+02     6.9385      0.760      1.103     7.7933   999.8823 0.0000e+00
      0.811      0.180     6.4153     85.641     41.089  26.644069     2.5039      7.739   313.8085 1.6786e+02     6.8312      0.798      1.157     7.6237   999.8921 0.0000e+00
      0.844      0.172     6.4871     89.529     41.076  26.626251     2.5553      7.732   313.8436 1.5274e+02     6.7682      0.826      1.199     7.5238   999.8976 0.0000e+00
      0.879      0.167     6.6452     93.517     41.092  26.630875     2.5977      7.726   313.8788 1.4530e+02     6.7661      0.859      1.244     7.4670   999.9008 0.0000e+00
      0.921      0.169     6.8886     97.106     41.106  26.636531     2.6084      7.718   314.0620 1.3703e+02     6.8056      0.900      1.305     7.4364   999.9027 0.0000e+00
      0.970      0.177     7.1837     99.921     41.100  26.631185     2.6067      7.712   314.2511 1.2383e+02     6.7873      0.952      1.381     7.4179   999.9040 0.0000e+00
      1.019      0.185     7.5222    101.815     41.100  26.629672     2.7330      7.707   314.3596 1.1178e+02     6.7749      1.000      1.450     7.4076   999.9048 0.0000e+00
      1.066      0.189     7.8778    102.885     41.083  26.618240     2.9916      7.701   314.5130 1.0363e+02     6.8845      1.045      1.515     7.4012   999.9053 0.0000e+00
      1.114      0.188     8.1897    103.332     41.086  26.619848     3.1325      7.694   314.7289 9.6030e+01     6.9329      1.092      1.583     7.3975   999.9057 0.0000e+00
      1.165      0.183     8.4327    103.327     41.134  26.649104     3.1447      7.686   314.8193 8.7910e+01     6.9009      1.143      1.658     7.3953   999.9060 0.0000e+00
      1.214      0.179     8.5880    103.043     41.144  26.654758     3.1481      7.679   314.8308 8.1951e+01     6.8901      1.192      1.731     7.3939   999.9063 0.0000e+00
      1.258      0.175     8.6702    102.642     41.099  26.624758     3.1551      7.673   314.8689 7.6555e+01     6.8355      1.235      1.791     7.3940   999.9065 0.0000e+00
      1.299      0.172     8.7047    102.223     41.067  26.603593     3.1603      7.668   314.9352 7.0770e+01     6.7657      1.274      1.848     7.3938   999.9068 0.0000e+00
      1.339      0.167     8.6983    101.793     41.045  26.589194     3.1512      7.664   315.0304 6.6547e+01     6.7347      1.313      1.904     7.3918   999.9071 0.0000e+00
      1.381      0.161     8.6707    101.348     41.025  26.577546     3.1407      7.661   315.0729 6.2300e+01     6.7226      1.354      1.963     7.3900   999.9074 0.0000e+00
      1.426      0.155     8.6329    100.934     41.044  26.589647     3.1367      7.657   315.0189 5.7785e+01     6.7180      1.399      2.028     7.3893   999.9076 0.0000e+00
      1.470      0.148     8.5990    100.590     41.074  26.608626     3.1374      7.654   314.9803 5.4078e+01     6.7120      1.444      2.095     7.3886   999.9078 0.0000e+00
      1.506      0.139     8.5634    100.274     41.088  26.616682     3.1494      7.651   315.0358 5.1097e+01     6.6816      1.480      2.146     7.3888   999.9080 0.0000e+00
      1.537      0.127     8.5237     99.928     41.100  26.623602     3.2213      7.647   315.1743 4.8577e+01     6.5479      1.507      2.185     7.3901   999.9080 0.0000e+00
      1.567      0.114     8.4868     99.595     41.109  26.628850     3.3473      7.644   315.3645 4.6298e+01     6.3405      1.537      2.229     7.3910   999.9082 0.0000e+00
      1.596      0.105     8.4594     99.310     41.090  26.616682     3.4334      7.641   315.5290 4.4511e+01     6.2388      1.568      2.274     7.3903   999.9083 0.0000e+00
      1.621      0.100     8.4376     99.065     41.070  26.603370     3.4647      7.637   315.6144 4.3086e+01     6.2685      1.592      2.308     7.3881   999.9086 0.0000e+00
      1.641      0.100     8.4049     98.865     41.056  26.594785     3.4833      7.631   315.6231 4.1663e+01     6.4700      1.608      2.333     7.3861   999.9088 0.0000e+00
      1.663      0.104     8.3764     98.674     41.028  26.576329     3.5025      7.625   315.6341 4.0154e+01     6.8074      1.628      2.362     7.3855   999.9089 0.0000e+00
      1.688      0.110     8.3537     98.509     41.019  26.570551     3.5143      7.618   315.7474 3.8359e+01     7.0047      1.652      2.396     7.3861   999.9090 0.0000e+00
      1.719      0.118     8.3309     98.426     41.048  26.588369     3.5216      7.612   315.9599 3.6226e+01     7.0204      1.684      2.441     7.3865   999.9091 0.0000e+00
      1.754      0.126     8.3169     98.374     41.070  26.601426     3.5127      7.606   316.1386 3.4254e+01     6.9970      1.721      2.497     7.3868   999.9093 0.0000e+00
      1.787      0.132     8.3007     98.316     41.073  26.601540     3.4063      7.600   316.2734 3.2542e+01     6.9194      1.752      2.542     7.3872   999.9094 0.0000e+00
      1.822      0.134     8.2821     98.276     41.057  26.589741     3.2328      7.594   316.4714 3.0806e+01     6.7698      1.785      2.589     7.3864   999.9096 0.0000e+00
      1.857      0.132     8.2799     98.256     41.052  26.585652     3.1485      7.585   316.5537 2.9192e+01     6.6958      1.824      2.645     7.3853   999.9098 0.0000e+00
      1.891      0.124     8.2766     98.251     41.099  26.615541     3.1587      7.576   316.4085 2.7752e+01     6.7130      1.855      2.690     7.3840   999.9101 0.0000e+00
      1.925      0.111     8.2700     98.265     41.127  26.633902     3.2959      7.571   316.2639 2.6309e+01     6.6167      1.885      2.734     7.3817   999.9103 0.0000e+00
      1.958      0.095     8.2682     98.290     41.102  26.617322     3.5415      7.571   316.1822 2.5155e+01     6.3838      1.924      2.791     7.3793   999.9105 0.0000e+00
      1.983      0.080     8.2663     98.301     41.082  26.605410     3.6740      7.572   316.1950 2.4656e+01     6.2573      1.951      2.830     7.3784   999.9108 0.0000e+00
      1.995      0.067     8.2663     98.287     41.099  26.616765     3.6847      7.573   316.3324 2.4515e+01     6.2993      1.958      2.840     7.3785   999.9109 0.0000e+00
      2.001      0.057     8.2668     98.258     41.115  26.627726     3.6182      7.573   316.4673 2.4235e+01     6.4329      1.961      2.845     7.3779   999.9109 0.0000e+00
      2.011      0.049     8.2707     98.206     41.090  26.611042     3.4771      7.570   316.5344 2.3731e+01     6.6275      1.970      2.856     7.3781   999.9109 0.0000e+00
      2.026      0.044     8.2715     98.112     41.080  26.605377     3.3923      7.568   316.4559 2.3113e+01     6.7189      1.986      2.880     7.3790   999.9110 0.0000e+00
      2.043      0.042     8.2695     97.995     41.106  26.622680     3.3818      7.568   316.3784 2.2531e+01     6.6851      2.004      2.907     7.3797   999.9110 0.0000e+00
      2.056      0.043     8.2672     97.877     41.116  26.629916     3.3585      7.568   316.4587 2.2254e+01     6.5800      2.018      2.928     7.3802   999.9111 0.0000e+00
      2.063      0.046     8.2641     97.765     41.114  26.629426     3.3108      7.568   316.5667 2.2217e+01     6.3985      2.025      2.937     7.3803   999.9111 0.0000e+00
      2.066      0.055     8.2553     97.698     41.096  26.616746     3.2815      7.567   316.7371 2.1997e+01     6.2927      2.025      2.936     7.3804   999.9111 0.0000e+00
      2.075      0.070     8.2439     97.708     41.077  26.603491     3.2824      7.564   316.9700 2.1400e+01     6.3165      2.031      2.945     7.3810   999.9111 0.0000e+00
      2.093      0.091     8.2349     97.741     41.067  26.596056     3.3556      7.559   317.0598 2.0581e+01     6.5559      2.050      2.973     7.3822   999.9111 0.0000e+00
      2.121      0.116     8.2235     97.734     41.060  26.590287     3.4987      7.553   317.0486 1.9627e+01     6.9588      2.079      3.013     7.3830   999.9112 0.0000e+00
      2.157      0.137     8.2160     97.709     41.073  26.597180     3.5820      7.546   317.1781 1.8505e+01     7.1567      2.113      3.063     7.3822   999.9114 0.0000e+00
      2.199      0.152     8.2194     97.699     41.103  26.615951     3.5835      7.540   317.4218 1.7291e+01     7.1459      2.155      3.126     7.3808   999.9117 0.0000e+00
      2.246      0.159     8.2258     97.683     41.119  26.626919     3.5680      7.534   317.4998 1.6103e+01     7.1236      2.202      3.194     7.3801   999.9120 0.0000e+00
      2.293      0.161     8.2233     97.641     41.080  26.602904     3.5244      7.528   317.5187 1.5094e+01     7.1169      2.250      3.263     7.3787   999.9122 0.0000e+00
      2.333      0.158     8.2206     97.580     41.043  26.579361     3.4551      7.524   317.6501 1.4301e+01     7.1297      2.290      3.320     7.3753   999.9126 0.0000e+00
      2.369      0.152     8.2215     97.533     41.068  26.596045     3.4062      7.521   317.7117 1.3571e+01     7.1477      2.322      3.368     7.3743   999.9128 0.0000e+00
      2.405      0.145     8.2202     97.540     41.096  26.614293     3.3850      7.517   317.7473 1.2812e+01     7.1368      2.357      3.419     7.3762   999.9129 0.0000e+00
      2.442      0.139     8.2162     97.580     41.089  26.609661     3.3720      7.514   317.8229 1.2116e+01     7.0973      2.396      3.475     7.3774   999.9130 0.0000e+00
      2.477      0.133     8.2103     97.619     41.080  26.603477     3.3532      7.513   317.7659 1.1545e+01     7.0295      2.430      3.525     7.3779   999.9131 0.0000e+00
      2.511      0.127     8.2036     97.651     41.080  26.602967     3.3312      7.513   317.6595 1.1003e+01     6.9722      2.462      3.570     7.3787   999.9133 0.0000e+00
      2.545      0.124     8.2053     97.655     41.081  26.603487     3.3226      7.511   317.8280 1.0501e+01     6.9626      2.499      3.623     7.3792   999.9134 0.0000e+00
      2.575      0.127     8.2110     97.608     41.091  26.609774     3.3971      7.506   318.1679 1.0136e+01     6.9785      2.529      3.666     7.3785   999.9136 0.0000e+00
      2.598      0.137     8.2129     97.539     41.102  26.615532     3.5465      7.502   318.3279 9.8162e+00     7.0013      2.547      3.694     7.3778   999.9137 0.0000e+00
      2.625      0.146     8.2173     97.511     41.097  26.609660     3.6291      7.500   318.2996 9.3429e+00     6.9759      2.569      3.725     7.3780   999.9138 0.0000e+00
      2.665      0.151     8.2178     97.504     41.089  26.602224     3.6242      7.498   318.1705 8.6794e+00     6.9330      2.609      3.784     7.3785   999.9140 0.0000e+00
      2.719      0.150     8.2143     97.490     41.070  26.589064     3.5475      7.498   317.9707 7.9891e+00     6.8766      2.667      3.867     7.3780   999.9143 0.0000e+00
      2.772      0.143     8.2045     97.516     41.054  26.577424     3.4216      7.498   317.8629 7.4697e+00     6.7853      2.725      3.952     7.3762   999.9146 0.0000e+00
      2.811      0.133     8.2044     97.541     41.072  26.588383     3.3501      7.497   317.9862 7.1721e+00     6.7478      2.765      4.009     7.3732   999.9151 0.0000e+00
      2.834      0.122     8.2078     97.541     41.083  26.594675     3.3421      7.495   318.1703 7.0034e+00     6.7505      2.782      4.034     7.3701   999.9153 0.0000e+00
      2.849      0.115     8.2010     97.534     41.076  26.590051     3.4025      7.492   318.1955 6.8362e+00     6.7515      2.792      4.050     7.3684   999.9154 0.0000e+00
      2.869      0.110     8.2080     97.489     41.085  26.595913     3.5087      7.489   318.2051 6.5801e+00     6.7605      2.810      4.075     7.3672   999.9155 0.0000e+00
      2.899      0.107     8.2106     97.415     41.094  26.602110     3.5598      7.487   318.2868 6.2227e+00     6.7944      2.838      4.116     7.3662   999.9157 0.0000e+00
      2.939      0.101     8.2084     97.362     41.093  26.601534     3.5688      7.486   318.2372 5.8510e+00     6.8002      2.881      4.178     7.3656   999.9160 0.0000e+00
      2.979      0.089     8.2109     97.308     41.073  26.588950     3.5662      7.485   318.1207 5.6030e+00     6.7320      2.928      4.246     7.3651   999.9162 0.0000e+00
      3.004      0.071     8.2066     97.218     41.054  26.576847     3.4757      7.485   318.0831 5.5211e+00     6.6579      2.952      4.283     7.3649   999.9164 0.0000e+00
      3.011      0.050     8.1976     97.160     41.061  26.582091     3.3165      7.485   318.0403 5.5273e+00     6.5926      2.955      4.286     7.3653   999.9164 0.0000e+00
      3.010      0.029     8.1935     97.151     41.070  26.588906     3.2271      7.484   318.0329 5.5352e+00     6.5321      2.950      4.280     7.3654   999.9163 0.0000e+00
      3.010      0.014     8.1932     97.154     41.080  26.595807     3.2099      7.484   318.0809 5.5222e+00     6.5170      2.949      4.278     7.3654   999.9163 0.0000e+00
      3.012      0.009     8.1798     97.161     41.088  26.602089     3.1866      7.484   318.0185 5.4997e+00     6.5738      2.954      4.284     7.3661   999.9163 0.0000e+00
      3.016      0.014     8.1749     97.155     41.084  26.601417     3.1624      7.484   317.9662 5.4812e+00     6.6942      2.960      4.292     7.3671   999.9163 0.0000e+00
      3.018      0.028     8.1769     97.153     41.061  26.587680     3.1596      7.481   318.1371 5.4705e+00     6.7604      2.959      4.292     7.3681   999.9162 0.0000e+00
      3.020      0.050     8.1750     97.176     41.024  26.562889     3.1620      7.475   318.3637 5.4455e+00     6.7179      2.960      4.293     7.3690   999.9162 0.0000e+00
      3.026      0.075     8.1780     97.201     41.020  26.555445     3.2001      7.469   318.4698 5.3424e+00     6.7711      2.963      4.298     7.3704   999.9161 0.0000e+00
      3.045      0.099     8.1753     97.203     41.040  26.561108     3.2826      7.464   318.4732 5.0743e+00     6.9441      2.977      4.319     7.3725   999.9161 0.0000e+00
      3.082      0.116     8.1735     97.193     41.061  26.567915     3.3268      7.459   318.4040 4.6874e+00     7.0075      3.019      4.379     7.3748   999.9162 0.0000e+00
      3.130      0.124     8.1770     97.197     41.079  26.574293     3.3269      7.456   318.3222 4.3534e+00     6.9805      3.073      4.457     7.3746   999.9165 0.0000e+00
      3.174      0.123     8.1812     97.214     41.084  26.574775     3.3352      7.456   318.3452 4.1456e+00     6.9130      3.118      4.522     7.3683   999.9170 0.0000e+00
      3.205      0.115     8.1831     97.214     41.082  26.573736     3.3585      7.457   318.4230 4.0191e+00     6.8148      3.147      4.564     7.3582   999.9176 0.0000e+00
      3.225      0.104     8.1827     97.183     41.061  26.561728     3.3827      7.457   318.4890 3.9242e+00     6.7763      3.163      4.587     7.3493   999.9182 0.0000e+00
      3.241      0.095     8.1845     97.126     41.052  26.556475     3.4030      7.457   318.6264 3.8220e+00     6.7743      3.177      4.608     7.3427   999.9186 0.0000e+00
      3.260      0.094     8.1880     97.045     41.080  26.573674     3.4653      7.456   318.7937 3.6958e+00     6.9547      3.196      4.635     7.3390   999.9188 0.0000e+00
      3.283      0.102     8.1884     96.952     41.091  26.579347     3.5724      7.453   318.9642 3.5571e+00     7.2862      3.218      4.667     7.3400   999.9189 0.0000e+00
      3.312      0.117     8.1842     96.854     41.066  26.561620     3.6312      7.448   319.1391 3.4087e+00     7.4397      3.246      4.709     7.3435   999.9189 0.0000e+00
      3.343      0.135     8.1799     96.766     41.048  26.549670     3.6387      7.443   319.1866 3.2527e+00     7.4335      3.279      4.756     7.3443   999.9190 0.0000e+00
      3.378      0.150     8.1725     96.692     41.068  26.561744     3.6537      7.439   319.0223 3.0790e+00     7.4081      3.311      4.800     7.3417   999.9193 0.0000e+00
      3.418      0.161     8.1654     96.595     41.098  26.580710     3.7694      7.436   318.8735 2.8695e+00     7.4286      3.347      4.854     7.3397   999.9196 0.0000e+00
      3.467      0.168     8.1572     96.493     41.111  26.588661     3.9809      7.434   318.9362 2.6495e+00     7.5167      3.399      4.929     7.3383   999.9199 0.0000e+00
      3.517      0.170     8.1483     96.444     41.121  26.594429     4.1044      7.432   319.0060 2.4648e+00     7.6207      3.453      5.008     7.3375   999.9202 0.0000e+00
      3.562      0.168     8.1453     96.420     41.111  26.587003     4.1265      7.429   319.0295 2.3179e+00     7.6702      3.495      5.070     7.3372   999.9204 0.0000e+00
      3.602      0.159     8.1364     96.379     41.073  26.562315     4.1437      7.428   319.0485 2.1794e+00     7.5258      3.531      5.122     7.3369   999.9206 0.0000e+00
      3.641      0.143     8.1242     96.350     41.055  26.549709     4.1656      7.428   318.9768 2.0527e+00     7.2834      3.569      5.177     7.3359   999.9208 0.0000e+00
      3.680      0.124     8.1225     96.342     41.075  26.561465     4.1829      7.428   318.9376 1.9484e+00     7.1972      3.610      5.236     7.3345   999.9211 0.0000e+00
      3.715      0.110     8.1233     96.348     41.102  26.577568     4.1880      7.426   319.0907 1.8683e+00     7.2051      3.648      5.290     7.3343   999.9213 0.0000e+00
      3.739      0.105     8.1168     96.360     41.067  26.554068     4.1407      7.422   319.2795 1.8315e+00     7.1171      3.672      5.326     7.3340   999.9214 0.0000e+00
      3.750      0.106     8.1151     96.350     41.032  26.531110     4.0532      7.419   319.2414 1.8135e+00     6.9845      3.678      5.336     7.3325   999.9215 0.0000e+00
      3.762      0.108     8.1153     96.327     41.068  26.553760     4.0051      7.417   319.0591 1.7604e+00     6.9458      3.682      5.342     7.3311   999.9216 0.0000e+00
      3.792      0.108     8.1153     96.312     41.101  26.574158     3.9841      7.415   318.8821 1.6592e+00     6.9770      3.710      5.381     7.3298   999.9219 0.0000e+00
      3.839      0.105     8.1187     96.311     41.121  26.587400     3.8597      7.415   318.7369 1.5397e+00     6.9359      3.766      5.461     7.3291   999.9221 0.0000e+00
      3.884      0.098     8.1171     96.342     41.120  26.586988     3.6364      7.416   318.6797 1.4569e+00     6.8094      3.818      5.537     7.3287   999.9224 0.0000e+00
      3.909      0.089     8.1141     96.392     41.091  26.569173     3.5126      7.417   318.7069 1.4282e+00     6.7580      3.840      5.569     7.3276   999.9226 0.0000e+00
      3.916      0.081     8.1142     96.443     41.079  26.562336     3.5074      7.417   318.8935 1.4207e+00     6.7729      3.842      5.571     7.3258   999.9227 0.0000e+00
      3.919      0.082     8.1124     96.510     41.086  26.567758     3.5384      7.415   319.1292 1.4124e+00     6.8593      3.841      5.572     7.3257   999.9227 0.0000e+00
      3.928      0.094     8.1153     96.566     41.091  26.571285     3.5930      7.413   319.1476 1.3921e+00     7.0162      3.848      5.581     7.3273   999.9226 0.0000e+00
      3.950      0.114     8.1212     96.589     41.045  26.541535     3.6309      7.411   319.1164 1.3297e+00     7.0967      3.865      5.604     7.3279   999.9227 0.0000e+00
      3.991      0.133     8.1227     96.590     41.022  26.525271     3.6404      7.408   319.1817 1.2186e+00     7.1440      3.909      5.669     7.3287   999.9228 0.0000e+00
      4.046      0.143     8.1304     96.580     41.086  26.564972     3.6299      7.407   319.0764 1.1103e+00     7.1943      3.971      5.760     7.3301   999.9231 0.0000e+00
      4.095      0.143     8.1359     96.569     41.106  26.577452     3.5473      7.407   318.7897 1.0522e+00     7.1803      4.021      5.832     7.3308   999.9233 0.0000e+00
      4.131      0.133     8.1364     96.555     41.062  26.549270     3.4047      7.407   318.6412 1.0181e+00     7.0735      4.053      5.879     7.3313   999.9234 0.0000e+00
      4.158      0.118     8.1373     96.527     41.050  26.541452     3.3276      7.406   318.7440 9.7689e-01     6.9523      4.078      5.915     7.3292   999.9236 0.0000e+00
      4.180      0.108     8.1362     96.491     41.059  26.546364     3.3440      7.404   318.9139 9.5158e-01     6.9598      4.101      5.948     7.3266   999.9239 0.0000e+00
      4.199      0.108     8.1354     96.470     41.061  26.545216     3.4983      7.401   318.9749 9.3721e-01     7.2295      4.117      5.972     7.3267   999.9240 0.0000e+00
      4.220      0.113     8.1345     96.438     41.039  26.527563     3.7454      7.399   318.9652 8.9337e-01     7.6573      4.134      5.996     7.3271   999.9240 0.0000e+00
      4.250      0.121     8.1330     96.391     41.039  26.523263     3.8612      7.398   318.9686 8.2565e-01     7.8725      4.164      6.039     7.3266   999.9242 0.0000e+00
      4.290      0.130     8.1275     96.368     41.095  26.556663     3.8668      7.396   319.0159 7.6874e-01     7.8318      4.207      6.101     7.3255   999.9244 0.0000e+00
      4.331      0.138     8.1284     96.351     41.088  26.550726     3.9083      7.394   319.1060 7.3132e-01     7.5917      4.251      6.165     7.3229   999.9248 0.0000e+00
      4.365      0.140     8.1278     96.310     41.035  26.514926     3.9732      7.393   319.1122 7.0834e-01     7.2303      4.282      6.210     7.3181   999.9252 0.0000e+00
      4.398      0.135     8.1210     96.262     41.021  26.504466     4.0002      7.393   319.0048 6.8686e-01     7.0347      4.310      6.250     7.3130   999.9255 0.0000e+00
      4.435      0.125     8.1221     96.231     40.995  26.487698     4.0012      7.393   318.9260 6.4917e-01     6.9971      4.349      6.307     7.3094   999.9260 0.0000e+00
      4.472      0.112     8.1220     96.202     41.017  26.502510     4.0459      7.394   318.8474 6.0710e-01     6.9386      4.390      6.368     7.3076   999.9263 0.0000e+00
      4.500      0.099     8.1180     96.154     41.100  26.556666     4.1331      7.394   318.8293 5.8607e-01     6.8514      4.416      6.404     7.3061   999.9264 0.0000e+00
      4.520      0.085     8.1133     96.098     41.122  26.571503     4.1800      7.395   318.8784 5.7143e-01     6.7951      4.432      6.429     7.3046   999.9266 0.0000e+00
      4.538      0.072     8.1112     96.053     41.094  26.555026     4.1622      7.395   318.8398 5.5077e-01     6.7494      4.453      6.459     7.3039   999.9267 0.0000e+00
      4.552      0.063     8.1103     96.020     41.081  26.547770     4.0050      7.396   318.7925 5.4849e-01     6.8234      4.466      6.478     7.3042   999.9267 0.0000e+00
      4.563      0.064     8.1050     95.990     41.080  26.547217     3.7442      7.396   318.9080 5.4965e-01     7.0677      4.473      6.489     7.3051   999.9268 0.0000e+00
      4.577      0.074     8.0993     95.934     41.082  26.548339     3.6094      7.394   319.1180 5.2748e-01     7.2118      4.488      6.511     7.3062   999.9268 0.0000e+00
      4.591      0.092     8.0954     95.845     41.106  26.561334     3.5893      7.390   319.2668 5.0364e-01     7.1897      4.502      6.530     7.3080   999.9268 0.0000e+00
      4.609      0.111     8.0925     95.802     41.138  26.577444     3.5790      7.387   319.3312 4.8959e-01     7.1608      4.514      6.547     7.3097   999.9267 0.0000e+00
      4.641      0.127     8.0902     95.836     41.108  26.552787     3.6330      7.386   319.3800 4.6474e-01     7.2224      4.545      6.592     7.3105   999.9268 0.0000e+00
      4.689      0.139     8.0878     95.851     41.059  26.516975     3.7474      7.385   319.4265 4.2275e-01     7.3450      4.598      6.670     7.3104   999.9271 0.0000e+00
      4.738      0.146     8.0763     95.821     41.076  26.525111     3.8098      7.384   319.3782 3.8458e-01     7.3970      4.651      6.747     7.3076   999.9275 0.0000e+00
      4.777      0.148     8.0719     95.831     41.076  26.524275     3.8231      7.383   319.3978 3.6846e-01     7.3929      4.688      6.800     7.3019   999.9280 0.0000e+00
      4.807      0.145     8.0816     95.879     41.050  26.506859     3.9513      7.382   319.4920 3.5698e-01     7.3609      4.712      6.835     7.2945   999.9285 0.0000e+00
      4.838      0.140     8.0854     95.888     41.048  26.504863     4.1809      7.380   319.4842 3.3130e-01     7.2725      4.743      6.879     7.2886   999.9289 0.0000e+00
      4.873      0.135     8.0781     95.874     41.043  26.500143     4.3010      7.378   319.4753 2.9965e-01     7.2088      4.780      6.933     7.2861   999.9292 0.0000e+00
      4.909      0.131     8.0792     95.854     41.067  26.513225     4.2945      7.376   319.5560 2.6667e-01     7.1804      4.813      6.981     7.2852   999.9294 0.0000e+00
      4.947      0.127     8.0892     95.829     41.106  26.536152     4.1367      7.376   319.6855 2.4859e-01     7.1264      4.852      7.037     7.2846   999.9296 0.0000e+00
      4.982      0.122     8.0864     95.821     41.090  26.523567     3.8675      7.376   319.7514 2.4653e-01     7.0793      4.890      7.091     7.2837   999.9299 0.0000e+00
      5.011      0.118     8.0861     95.832     41.036  26.487947     3.7274      7.376   319.7496 2.3650e-01     7.0373      4.917      7.130     7.2815   999.9301 0.0000e+00
      5.034      0.117     8.0855     95.827     41.033  26.486141     3.6997      7.375   319.8357 2.2400e-01     6.9792      4.936      7.160     7.2781   999.9304 0.0000e+00
      5.058      0.119     8.0825     95.798     41.057  26.501733     3.6716      7.373   319.9320 2.1475e-01     7.0647      4.958      7.191     7.2755   999.9306 0.0000e+00
      5.088      0.124     8.0822     95.784     41.033  26.486131     3.6470      7.370   319.9676 2.0566e-01     7.2849      4.988      7.235     7.2732   999.9309 0.0000e+00
      5.123      0.134     8.0849     95.800     41.035  26.487834     3.6370      7.367   320.0951 1.9599e-01     7.3808      5.024      7.287     7.2718   999.9311 0.0000e+00
      5.159      0.144     8.0854     95.824     41.088  26.522310     3.6369      7.366   320.2684 1.8391e-01     7.3721      5.059      7.337     7.2720   999.9312 0.0000e+00
      5.198      0.152     8.0801     95.819     41.088  26.522310     3.6366      7.365   320.3421 1.7505e-01     7.3759      5.096      7.391     7.2725   999.9314 0.0000e+00
      5.239      0.154     8.0795     95.795     41.036  26.487843     3.6591      7.364   320.2976 1.6085e-01     7.3289      5.137      7.450     7.2727   999.9316 0.0000e+00
      5.283      0.153     8.0808     95.782     41.036  26.486231     3.7103      7.362   320.2469 1.4226e-01     7.2293      5.180      7.512     7.2725   999.9319 0.0000e+00
      5.326      0.149     8.0850     95.780     41.063  26.502820     3.7433      7.360   320.2451 1.3498e-01     7.1551      5.224      7.578     7.2729   999.9321 0.0000e+00
      5.364      0.141     8.0836     95.775     41.057  26.498088     3.7554      7.360   320.1905 1.3414e-01     7.1196      5.262      7.632     7.2736   999.9322 0.0000e+00
      5.396      0.131     8.0801     95.750     41.048  26.492464     3.8221      7.361   320.1025 1.2916e-01     6.9973      5.291      7.675     7.2721   999.9324 0.0000e+00
      5.427      0.123     8.0806     95.725     41.058  26.498258     3.9344      7.361   320.1279 1.2453e-01     6.7906      5.322      7.719     7.2698   999.9326 0.0000e+00
      5.458      0.120     8.0803     95.719     41.067  26.504694     3.9954      7.359   320.2389 1.2384e-01     6.7172      5.355      7.766     7.2685   999.9328 0.0000e+00
      5.484      0.122     8.0815     95.702     41.070  26.506834     3.9962      7.357   320.4120 1.2378e-01     6.7662      5.379      7.802     7.2681   999.9330 0.0000e+00
      5.509      0.129     8.0784     95.667     41.097  26.524135     3.9172      7.356   320.5863 1.2376e-01     6.9227      5.400      7.832     7.2678   999.9331 0.0000e+00
      5.539      0.137     8.0746     95.623     41.097  26.523553     3.7777      7.355   320.6260 1.2378e-01     7.2010      5.429      7.874     7.2677   999.9333 0.0000e+00
      5.579      0.146     8.0765     95.552     41.062  26.499802     3.7044      7.354   320.7201 1.2372e-01     7.3788      5.469      7.932     7.2682   999.9335 0.0000e+00
      5.623      0.158     8.0748     95.470     41.051  26.490733     3.6987      7.350   320.9491 1.2366e-01     7.4007      5.514      7.999     7.2686   999.9336 0.0000e+00
      5.666      0.174     8.0705     95.402     41.034  26.477340     3.6571      7.345   321.1586 1.2374e-01     7.3338      5.558      8.061     7.2687   999.9338 0.0000e+00
      5.706      0.193     8.0689     95.330     41.019  26.464752     3.5652      7.340   321.2732 1.2383e-01     7.2263      5.596      8.116     7.2680   999.9341 0.0000e+00
      5.747      0.210     8.0622     95.265     41.023  26.465413     3.5148      7.337   321.3025 1.2384e-01     7.1815      5.631      8.167     7.2667   999.9343 0.0000e+00
      5.802      0.227     8.0540     95.248     41.056  26.485327     3.5158      7.335   321.3411 1.2377e-01     7.1864      5.681      8.240     7.2646   999.9347 0.0000e+00
      5.873      0.244     8.0509     95.274     41.103  26.515206     3.4737      7.333   321.3960 1.2372e-01     7.1214      5.760      8.354     7.2611   999.9352 0.0000e+00
      5.947      0.256     8.0451     95.301     41.094  26.509452     3.3792      7.332   321.3635 1.2372e-01     6.9850      5.837      8.466     7.2571   999.9358 0.0000e+00
      6.013      0.257     8.0380     95.323     41.048  26.479197     3.3176      7.333   321.2065 1.2376e-01     6.9138      5.895      8.551     7.2540   999.9362 0.0000e+00
      6.080      0.247     8.0371     95.346     41.030  26.466614     3.3104      7.334   321.1325 1.2381e-01     6.9485      5.959      8.644     7.2533   999.9366 0.0000e+00
      6.149      0.231     8.0414     95.352     41.059  26.484190     3.3175      7.334   321.2428 1.2380e-01     7.0110      6.034      8.752     7.2536   999.9369 0.0000e+00
      6.209      0.217     8.0436     95.348     41.088  26.501375     3.3435      7.333   321.4217 1.2373e-01     7.0143      6.096      8.840     7.2533   999.9372 0.0000e+00
      6.255      0.211     8.0444     95.344     41.063  26.484063     3.3992      7.330   321.5748 1.2373e-01     6.9883      6.135      8.898     7.2526   999.9374 0.0000e+00
      6.296      0.210     8.0485     95.309     41.034  26.465200     3.4442      7.326   321.5459 1.2375e-01     6.9926      6.171      8.950     7.2512   999.9377 0.0000e+00
      6.341      0.212     8.0487     95.259     41.032  26.463641     3.4636      7.323   321.4154 1.2379e-01     6.9679      6.215      9.012     7.2490   999.9380 0.0000e+00
      6.398      0.217     8.0475     95.228     41.033  26.465216     3.5031      7.323   321.2875 1.2379e-01     6.9844      6.271      9.096     7.2472   999.9384 0.0000e+00
      6.464      0.221     8.0500     95.203     41.060  26.484235     3.5578      7.323   321.1181 1.2374e-01     7.0944      6.339      9.195     7.2464   999.9387 0.0000e+00
      6.530      0.221     8.0462     95.183     41.089  26.503262     3.5792      7.323   321.0883 1.2372e-01     7.1830      6.407      9.293     7.2459   999.9391 0.0000e+00
      6.589      0.217     8.0395     95.166     41.092  26.504939     3.5797      7.322   321.1855 1.2372e-01     7.2363      6.466      9.378     7.2454   999.9394 0.0000e+00
      6.637      0.211     8.0392     95.139     41.092  26.504510     3.6072      7.320   321.0892 1.2372e-01     7.2469      6.511      9.443     7.2467   999.9396 0.0000e+00
      6.682      0.205     8.0352     95.107     41.082  26.498075     3.6512      7.319   320.6973 1.2374e-01     7.2139      6.551      9.501     7.2493   999.9396 0.0000e+00
      6.731      0.201     8.0338     95.074     41.071  26.490578     3.6697      7.319   320.2337 1.2374e-01     7.1969      6.598      9.570     7.2495   999.9399 0.0000e+00
      6.785      0.196     8.0334     95.044     41.049  26.477313     3.6748      7.319   319.9581 1.2369e-01     7.2056      6.654      9.650     7.2485   999.9402 0.0000e+00
      6.841      0.188     8.0307     95.033     41.026  26.464573     3.6345      7.320   319.7736 1.2365e-01     7.2208      6.711      9.733     7.2484   999.9405 0.0000e+00
      6.894      0.172     8.0278     95.037     41.022  26.463423     3.5285      7.321   319.4657 1.2365e-01     7.2163      6.762      9.807     7.2482   999.9407 0.0000e+00
      6.942      0.147     8.0251     95.019     41.021  26.463422     3.4604      7.323   319.1610 1.2370e-01     7.1845      6.810      9.877     7.2476   999.9410 0.0000e+00
      6.980      0.118     8.0220     94.996     41.022  26.464556     3.4619      7.324   318.9283 1.2375e-01     7.1640      6.850      9.935     7.2489   999.9411 0.0000e+00
      7.003      0.088     8.0195     94.990     41.042  26.477141     3.5288      7.326   318.6313 1.2374e-01     7.0995      6.873      9.967     7.2520   999.9410 0.0000e+00
      7.014      0.063     8.0226     94.974     41.061  26.488691     3.6449      7.327   318.2373 1.2379e-01     6.9295      6.880      9.979     7.2542   999.9410 0.0000e+00
      7.020      0.045     8.0192     94.926     41.043  26.477312     3.7038      7.328   317.8629 1.2387e-01     6.7790      6.884      9.985     7.2547   999.9410 0.0000e+00
      7.025      0.036     8.0159     94.869     41.025  26.466445     3.6948      7.328   317.6325 1.2385e-01     6.7225      6.888      9.990     7.2546   999.9410 0.0000e+00
      7.031      0.035     8.0175     94.848     41.051  26.484185     3.6667      7.328   317.4310 1.2379e-01     6.7052      6.894      9.999     7.2545   999.9410 0.0000e+00
      7.040      0.037     8.0166     94.869     41.076  26.501488     3.5288      7.329   317.2338 1.2377e-01     6.6022      6.902     10.011     7.2540   999.9411 0.0000e+00
      7.052      0.038     8.0122     94.887     41.049  26.485320     3.2849      7.331   317.1403 1.2375e-01     6.3952      6.915     10.030     7.2535   999.9412 0.0000e+00
      7.066      0.037     8.0053     94.890     41.037  26.479028     3.1451      7.332   316.9888 1.2372e-01     6.2668      6.930     10.051     7.2538   999.9412 0.0000e+00
      7.077      0.033     8.0025     94.891     41.051  26.488857     3.1376      7.333   316.7794 1.2370e-01     6.2621      6.942     10.068     7.2557   999.9412 0.0000e+00
      7.086      0.027     8.0067     94.889     41.032  26.477270     3.1859      7.335   316.6731 1.2375e-01     6.2734      6.951     10.081     7.2575   999.9412 0.0000e+00
      7.091      0.024     8.0079     94.886     41.014  26.465817     3.2264      7.335   316.6501 1.2380e-01     6.2716      6.954     10.086     7.2586   999.9411 0.0000e+00
      7.093 -9.990e-29     8.0069 -9.990e-29 -9.990e-29 -9.990e-29 -9.990e-29 -9.990e-29 -9.990e-29 1.2378e-01 -9.990e-29      6.956     10.088     7.2603   999.9410 0.0000e+00
      7.094 -9.990e-29     8.0074 -9.990e-29 -9.990e-29 -9.990e-29 -9.990e-29 -9.990e-29 -9.990e-29 1.2380e-01 -9.990e-29      6.957     10.090     7.2617   999.9410 0.0000e+00
      7.095 -9.990e-29     8.0065 -9.990e-29 -9.990e-29 -9.990e-29 -9.990e-29 -9.990e-29 -9.990e-29 1.2385e-01 -9.990e-29      6.957     10.091     7.2625   999.9409 0.0000e+00
      7.095 -9.990e-29     8.0060 -9.990e-29 -9.990e-29 -9.990e-29 -9.990e-29 -9.990e-29 -9.990e-29 1.2385e-01 -9.990e-29      6.958     10.092     7.2631   999.9409 0.0000e+00
