* Sea-Bird SBE19plus  Data File:
* FileName = C:\DATA\061418_bvr50_0001.hex
* Software version 2.6.3.104 SB_Terminal.dll
* Temperature SN = 7809
* Conductivity SN = 7809
* System UpLoad Time = Jun 14 2018 16:25:17
* <ApplicationData>
* <Seaterm232>
* <SoftwareVersion>2.6.3.104</SoftwareVersion>
* <BuildDate>30-Jun-2017</BuildDate>
* </Seaterm232>
* </ApplicationData>
* cast   1 11 Jun 2018 13:39:59 samples 1 to 886, avg = 1, stop = mag switch
# nquan = 15
# nvalues = 682                         
# units = specified
# name 0 = depFM: Depth [fresh water, m]
# name 1 = dz/dtM: Descent Rate [m/s]
# name 2 = sbeox0Mg/L: Oxygen, SBE 43 [mg/l]
# name 3 = sbeox0PS: Oxygen, SBE 43 [% saturation]
# name 4 = specc: Specific Conductance [uS/cm]
# name 5 = c0uS/cm: Conductivity [uS/cm]
# name 6 = flECO-AFL: Fluorescence, WET Labs ECO-AFL/FL [mg/m^3]
# name 7 = ph: pH
# name 8 = orp: Oxidation Reduction Potential [mV]
# name 9 = par/sat/log: PAR/Logarithmic, Satlantic
# name 10 = turbWETntu0: Turbidity, WET Labs ECO [NTU]
# name 11 = prdM: Pressure, Strain Gauge [db]
# name 12 = prdE: Pressure, Strain Gauge [psi]
# name 13 = tv290C: Temperature [ITS-90, deg C]
# name 14 = flag:  0.000e+00
# span 0 =     -0.610,      9.632       
# span 1 =     -0.013,      0.277       
# span 2 =     3.9494,     9.9690       
# span 3 =     36.212,    114.207       
# span 4 =      0.646,     42.404       
# span 5 =   0.595761,  32.319757       
# span 6 =    -0.1979,     3.0911       
# span 7 =      5.915,      7.552       
# span 8 = -1225.1554,   357.9396       
# span 9 = 1.2558e-01, 2.9880e+02       
# span 10 =    -0.2314,     6.4110      
# span 11 =     -0.599,      9.446      
# span 12 =     -0.868,     13.700      
# span 13 =    10.3903,    24.6814      
# span 14 = 0.0000e+00, 0.0000e+00      
# interval = seconds: 0.25
# start_time = Jun 11 2018 13:39:59 [Instrument's time stamp, header]
# bad_flag = -9.990e-29
# <Sensors count="9" >
#   <sensor Channel="1" >
#     <!-- Count, Temperature -->
#     <TemperatureSensor SensorID="58" >
#       <SerialNumber>7809</SerialNumber>
#       <CalibrationDate>09-Mar-18</CalibrationDate>
#       <A0>1.21093245e-003</A0>
#       <A1>2.84356597e-004</A1>
#       <A2>-1.94507398e-006</A2>
#       <A3>2.12806664e-007</A3>
#       <Slope>1.00000000</Slope>
#       <Offset>0.0000</Offset>
#     </TemperatureSensor>
#   </sensor>
#   <sensor Channel="2" >
#     <!-- Frequency 0, Conductivity -->
#     <ConductivitySensor SensorID="3" >
#       <SerialNumber>7809</SerialNumber>
#       <CalibrationDate>09-Mar-18</CalibrationDate>
#       <UseG_J>1</UseG_J>
#       <!-- Cell const and series R are applicable only for wide range sensors. -->
#       <SeriesR>0.0000</SeriesR>
#       <CellConst>2000.0000</CellConst>
#       <ConductivityType>0</ConductivityType>
#       <Coefficients equation="0" >
#         <A>0.00000000e+000</A>
#         <B>0.00000000e+000</B>
#         <C>0.00000000e+000</C>
#         <D>0.00000000e+000</D>
#         <M>0.0</M>
#         <CPcor>-9.57000000e-008</CPcor>
#       </Coefficients>
#       <Coefficients equation="1" >
#         <G>-1.00672082e+000</G>
#         <H>1.26906489e-001</H>
#         <I>-1.40584351e-004</I>
#         <J>2.47837121e-005</J>
#         <CPcor>-9.57000000e-008</CPcor>
#         <CTcor>3.2500e-006</CTcor>
#         <!-- WBOTC not applicable unless ConductivityType = 1. -->
#         <WBOTC>0.00000000e+000</WBOTC>
#       </Coefficients>
#       <Slope>1.00000000</Slope>
#       <Offset>0.00000</Offset>
#     </ConductivitySensor>
#   </sensor>
#   <sensor Channel="3" >
#     <!-- Count, Pressure, Strain Gauge -->
#     <PressureSensor SensorID="46" >
#       <SerialNumber>7809</SerialNumber>
#       <CalibrationDate>07-Mar-18</CalibrationDate>
#       <PA0>-4.08176359e-002</PA0>
#       <PA1>4.85188419e-004</PA1>
#       <PA2>-3.51168169e-012</PA2>
#       <PTEMPA0>-5.37806900e+001</PTEMPA0>
#       <PTEMPA1>5.36620721e+001</PTEMPA1>
#       <PTEMPA2>4.87214332e-002</PTEMPA2>
#       <PTCA0>5.25213435e+005</PTCA0>
#       <PTCA1>1.79532409e+000</PTCA1>
#       <PTCA2>-2.84353509e-001</PTCA2>
#       <PTCB0>2.51668750e+001</PTCB0>
#       <PTCB1>3.75000000e-004</PTCB1>
#       <PTCB2>0.00000000e+000</PTCB2>
#       <Offset>0.000000</Offset>
#     </PressureSensor>
#   </sensor>
#   <sensor Channel="4" >
#     <!-- A/D voltage 0, pH -->
#     <pH_Sensor SensorID="43" >
#       <SerialNumber>0363</SerialNumber>
#       <CalibrationDate>16-Mar-18</CalibrationDate>
#       <Slope>4.6194</Slope>
#       <Offset>2.5947</Offset>
#     </pH_Sensor>
#   </sensor>
#   <sensor Channel="5" >
#     <!-- A/D voltage 1, Oxidation Reduction Potential -->
#     <OxidationReductionPotentialSensor SensorID="41" >
#       <SerialNumber>0363</SerialNumber>
#       <CalibrationDate>16-Mar-18</CalibrationDate>
#       <B>2.499480</B>
#       <M>-0.496195</M>
#       <Offset>0.0</Offset>
#     </OxidationReductionPotentialSensor>
#   </sensor>
#   <sensor Channel="6" >
#     <!-- A/D voltage 2, Oxygen, SBE 43 -->
#     <OxygenSensor SensorID="38" >
#       <SerialNumber>0434</SerialNumber>
#       <CalibrationDate>13-Mar-18</CalibrationDate>
#       <Use2007Equation>1</Use2007Equation>
#       <CalibrationCoefficients equation="0" >
#         <!-- Coefficients for Owens-Millard equation. -->
#         <Boc>0.0000</Boc>
#         <Soc>0.0000e+000</Soc>
#         <offset>0.0000</offset>
#         <Pcor>0.00e+000</Pcor>
#         <Tcor>0.0000</Tcor>
#         <Tau>0.0</Tau>
#       </CalibrationCoefficients>
#       <CalibrationCoefficients equation="1" >
#         <!-- Coefficients for Sea-Bird equation - SBE calibration in 2007 and later. -->
#         <Soc>4.5718e-001</Soc>
#         <offset>-0.6113</offset>
#         <A>-4.0649e-003</A>
#         <B> 2.0945e-004</B>
#         <C>-3.3182e-006</C>
#         <D0> 2.5826e+000</D0>
#         <D1> 1.92634e-004</D1>
#         <D2>-4.64803e-002</D2>
#         <E> 3.6000e-002</E>
#         <Tau20> 1.2200</Tau20>
#         <H1>-3.3000e-002</H1>
#         <H2> 5.0000e+003</H2>
#         <H3> 1.4500e+003</H3>
#       </CalibrationCoefficients>
#     </OxygenSensor>
#   </sensor>
#   <sensor Channel="7" >
#     <!-- A/D voltage 3, PAR/Logarithmic, Satlantic -->
#     <PARLog_SatlanticSensor SensorID="76" >
#       <SerialNumber>1122</SerialNumber>
#       <CalibrationDate>22-Jun-2017</CalibrationDate>
#       <a0>9.6090e-001</a0>
#       <a1>8.0780e-001</a1>
#       <Im>1.3589e+000</Im>
#       <Multiplier>1.0000e+000</Multiplier>
#     </PARLog_SatlanticSensor>
#   </sensor>
#   <sensor Channel="8" >
#     <!-- A/D voltage 4, Fluorometer, WET Labs ECO-AFL/FL -->
#     <FluoroWetlabECO_AFL_FL_Sensor SensorID="20" >
#       <SerialNumber>FLNTURT-2496</SerialNumber>
#       <CalibrationDate>25-Jan-2017</CalibrationDate>
#       <ScaleFactor>5.30000000e+001</ScaleFactor>
#       <!-- Dark output -->
#       <Vblank>0.0560</Vblank>
#     </FluoroWetlabECO_AFL_FL_Sensor>
#   </sensor>
#   <sensor Channel="9" >
#     <!-- A/D voltage 5, Turbidity Meter, WET Labs, ECO-NTU -->
#     <TurbidityMeter SensorID="67" >
#       <SerialNumber>FLNTURT-2496</SerialNumber>
#       <CalibrationDate>25-Jan-2017</CalibrationDate>
#       <ScaleFactor>176.000000</ScaleFactor>
#       <!-- Dark output -->
#       <DarkVoltage>0.072000</DarkVoltage>
#     </TurbidityMeter>
#   </sensor>
# </Sensors>
# datcnv_date = Jun 14 2018 16:42:56, 7.26.7.114 [datcnv_vars = 14]
# datcnv_in = C:\DATA\061118_fcr50.hex C:\DATA\SBE19plusV2_7809.xmlcon
# datcnv_skipover = 0
# datcnv_ox_hysteresis_correction = yes
# datcnv_ox_tau_correction = yes
# filter_date = Jun 14 2018 16:44:33, 7.26.7.114
# filter_in = C:\DATA\061118_fcr50.cnv
# filter_low_pass_tc_A = 0.030
# filter_low_pass_tc_B = 0.150
# filter_low_pass_A_vars = prdM prdE tv290C
# filter_low_pass_B_vars = depFM dz/dtM sbeox0Mg/L sbeox0PS specc c0uS/cm flECO-AFL ph orp par/sat/log turbWETntu0
# alignctd_date = Jun 14 2018 16:45:24, 7.26.7.114
# alignctd_in = C:\DATA\061118_fcr50.cnv
# alignctd_adv = dz/dtM 1.000, sbeox0Mg/L 1.000, sbeox0PS 1.000, specc 1.000, c0uS/cm 1.000, flECO-AFL 1.000, ph 1.000, orp 1.000, turbWETntu0 1.000                                                                                 
# file_type = ascii
*END*
     -0.610 6.4806e-31     8.5642     96.261      0.704   0.649223    -0.1686      5.932 -1130.7372 2.3921e+02    -0.2118     -0.598     -0.867    21.1001 0.0000e+00
     -0.610 7.1287e-30     8.5643     96.262      0.705   0.650167    -0.1784      5.925 -1157.6805 2.3514e+02    -0.2250     -0.598     -0.867    21.1001 0.0000e+00
     -0.610 7.8416e-29     8.5642     96.261      0.717   0.661584    -0.1938      5.940 -1153.6800 2.3421e+02    -0.2142     -0.598     -0.867    21.1003 0.0000e+00
     -0.610 8.6257e-28     8.5651     96.272      0.716   0.660439    -0.1979      5.953 -1140.7871 2.3268e+02    -0.1724     -0.598     -0.868    21.1003 0.0000e+00
     -0.610 9.4883e-27     8.5654     96.275      0.690   0.636322    -0.1911      5.951 -1137.2201 2.3102e+02    -0.0864     -0.599     -0.868    21.1004 0.0000e+00
     -0.610 1.0437e-25     8.5647     96.268      0.677   0.623641    -0.1847      5.947 -1135.0716 2.3180e+02     0.0016     -0.598     -0.868    21.1006 0.0000e+00
     -0.610 1.1481e-24     8.5639     96.258      0.687   0.633931    -0.1759      5.945 -1135.3732 2.3551e+02     0.0380     -0.598     -0.868    21.1007 0.0000e+00
     -0.610 1.2629e-23     8.5632     96.250      0.687   0.633913    -0.1769      5.933 -1145.4278 2.4249e+02    -0.0426     -0.598     -0.867    21.1008 0.0000e+00
     -0.610 1.3892e-22     8.5637     96.255      0.676   0.623421    -0.1782      5.926 -1157.6955 2.4634e+02    -0.1797     -0.598     -0.867    21.1008 0.0000e+00
     -0.610 1.5281e-21     8.5642     96.258      0.687   0.633902    -0.1632      5.938 -1161.6117 2.4689e+02    -0.2168     -0.598     -0.868    21.1008 0.0000e+00
     -0.610 1.6809e-20     8.5637     96.252      0.687   0.633817    -0.1532      5.948 -1164.0404 2.5044e+02    -0.1862     -0.598     -0.867    21.1007 0.0000e+00
     -0.610 1.8490e-19     8.5652     96.268      0.675   0.622382    -0.1579      5.950 -1165.2932 2.5091e+02    -0.1749     -0.598     -0.867    21.1007 0.0000e+00
     -0.610 2.0339e-18     8.5679     96.298      0.675   0.622477    -0.1737      5.951 -1168.1550 2.4277e+02    -0.1727     -0.598     -0.868    21.0999 0.0000e+00
     -0.610 2.2373e-17     8.5701     96.323      0.689   0.634959    -0.1793      5.953 -1172.4867 2.3685e+02    -0.1601     -0.598     -0.868    21.0989 0.0000e+00
     -0.610 2.4610e-16     8.5705     96.328      0.701   0.646479    -0.1705      5.953 -1174.0450 2.4036e+02    -0.1751     -0.598     -0.867    21.0985 0.0000e+00
     -0.610 2.7071e-15     8.5696     96.318      0.689   0.634939    -0.1682      5.951 -1173.9189 2.4247e+02    -0.2006     -0.598     -0.867    21.0982 0.0000e+00
     -0.610 2.9778e-14     8.5696     96.319      0.675   0.622258    -0.1698      5.938 -1189.1156 2.3715e+02    -0.1937     -0.598     -0.867    21.0981 0.0000e+00
     -0.610 3.2756e-13     8.5694     96.317      0.673   0.619971    -0.1711      5.915 -1220.0383 2.3136e+02    -0.1836     -0.598     -0.867    21.0984 0.0000e+00
     -0.610 3.6032e-12     8.5676     96.297      0.659   0.607290    -0.1742      5.919 -1225.1554 2.2209e+02    -0.1692     -0.597     -0.866    21.0987 0.0000e+00
     -0.610 3.9635e-11     8.5655     96.274      0.646   0.595761    -0.1805      5.945 -1198.7603 2.0212e+02    -0.1726     -0.598     -0.867    21.0988 0.0000e+00
     -0.609 4.3598e-10     8.5655     96.274      0.659   0.607394    -0.1828      5.952 -1173.3839 1.7169e+02    -0.1943     -0.598     -0.867    21.0990 0.0000e+00
     -0.609 4.7958e-09     8.5666     96.287      0.674   0.621116    -0.1744      5.941 -1157.7793 1.3795e+02    -0.1870     -0.597     -0.866    21.0988 0.0000e+00
     -0.609 5.2754e-08     8.5655     96.275      0.689   0.634857    -0.1620      5.933 -1143.9632 1.1400e+02    -0.1767     -0.597     -0.866    21.0993 0.0000e+00
     -0.609 5.8030e-07     8.5638     96.255      0.702   0.646709    -0.1614      5.936 -1131.9513 1.0899e+02    -0.1913     -0.597     -0.866    21.0990 0.0000e+00
     -0.609      0.000     8.5647     96.266      0.692   0.637596    -0.1667      5.951 -1124.2228 1.1759e+02    -0.2108     -0.597     -0.865    21.0999 0.0000e+00
     -0.609      0.000     8.5671     96.294      0.707   0.651492    -0.1624      5.975 -1118.2324 1.2710e+02    -0.2293     -0.597     -0.866    21.0988 0.0000e+00
     -0.609      0.001     8.5677     96.306      1.020   0.941553    -0.1647      6.003 -1078.7948 1.3596e+02    -0.2314     -0.597     -0.866    21.1010 0.0000e+00
     -0.609      0.006     8.5614     96.302      4.340   4.017864    -0.1759      6.153  -617.5303 1.4944e+02    -0.2066     -0.597     -0.866    21.0979 0.0000e+00
     -0.609      0.023     8.5239     96.309     13.310  12.411655    -0.1784      6.507   119.6588 1.6767e+02    -0.1739     -0.598     -0.867    21.1033 0.0000e+00
     -0.609      0.058     8.4348     96.331     24.266  22.872224    -0.1768      6.915   349.0809 1.8770e+02    -0.1404     -0.596     -0.865    21.0945 0.0000e+00
     -0.606      0.108     8.3247     96.357     31.151  29.716120    -0.1742      7.255   259.2261 2.0848e+02    -0.1379     -0.598     -0.867    21.1086 0.0000e+00
     -0.588      0.167     8.2338     96.391     32.906  31.740118    -0.1465      7.470   251.1186 2.2970e+02    -0.0512     -0.592     -0.859    21.0852 0.0000e+00
     -0.537      0.221     8.1696     96.456     32.591  31.724225     0.1854      7.550   249.6766 2.4875e+02     1.5783     -0.537     -0.780    21.2000 0.0000e+00
     -0.454      0.260     8.1321     96.597     32.269  31.620211     0.8049      7.552   249.1901 2.6531e+02     4.6721     -0.451     -0.653    21.8793 0.0000e+00
     -0.354      0.277     8.1226     96.863     32.072  31.562466     1.1417      7.511   250.1413 2.8080e+02     6.3792     -0.347     -0.504    22.6940 0.0000e+00
     -0.259      0.269     8.1359     97.247     31.962  31.534292     1.1692      7.440   252.8314 2.9182e+02     6.4110     -0.241     -0.350    23.2618 0.0000e+00
     -0.187      0.236     8.1632     97.701     31.917  31.533716     1.2478      7.357   255.0444 2.9698e+02     5.0255     -0.175     -0.254    23.7124 0.0000e+00
     -0.140      0.190     8.1961     98.168     31.849  31.492055     1.4027      7.287   256.4199 2.9880e+02     2.4751     -0.133     -0.194    24.0307 0.0000e+00
     -0.106      0.141     8.2296     98.617     31.750  31.411661     1.4889      7.232   258.0195 2.9871e+02     1.0872     -0.100     -0.146    24.2293 0.0000e+00
     -0.081      0.099     8.2617     99.033     31.715  31.387315     1.4913      7.187   259.4146 2.9727e+02     0.9403     -0.076     -0.111    24.3426 0.0000e+00
     -0.065      0.069     8.2903     99.389     31.711  31.388228     1.4854      7.156   260.1241 2.9535e+02     0.8826     -0.062     -0.089    24.4042 0.0000e+00
     -0.053      0.048     8.3212     99.762     31.681  31.359195     1.4910      7.135   260.4021 2.9400e+02     0.8166     -0.054     -0.077    24.4383 0.0000e+00
     -0.043      0.032     8.3812    100.469     31.679  31.353819     1.5042      7.115   260.1952 2.9212e+02     0.7526     -0.041     -0.060    24.4635 0.0000e+00
     -0.037      0.017     8.4659    101.461     31.721  31.386730     1.5078      7.091   259.6876 2.8838e+02     0.7502     -0.035     -0.051    24.4813 0.0000e+00
     -0.034      0.005     8.5121    101.984     31.785  31.439566     1.4983      7.067   259.9428 2.6937e+02     0.7262     -0.034     -0.049    24.4873 0.0000e+00
     -0.034     -0.003     8.4685    101.432     31.840  31.484580     1.4903      7.046   261.0441 2.3517e+02     0.6754     -0.032     -0.046    24.4881 0.0000e+00
     -0.037     -0.009     8.3314     99.770     31.849  31.486411     1.4938      7.031   261.8185 2.1631e+02     0.6863     -0.032     -0.047    24.4832 0.0000e+00
     -0.047     -0.012     8.1327     97.378     31.829  31.461696     1.4948      7.023   262.2503 2.1575e+02     0.7055     -0.047     -0.069    24.4684 0.0000e+00
     -0.054     -0.013     7.8974     94.552     31.810  31.439785     1.4837      7.023   262.9098 2.1594e+02     0.6938     -0.059     -0.085    24.4504 0.0000e+00
     -0.054     -0.011     7.6408     91.481     31.781  31.411995     1.4778      7.026   263.9415 2.1533e+02     0.6977     -0.052     -0.074    24.4334 0.0000e+00
     -0.053     -0.008     7.3973     88.577     31.744  31.379732     1.4790      7.028   265.2601 2.1515e+02     0.7823     -0.050     -0.072    24.4228 0.0000e+00
     -0.056     -0.004     7.1918     86.125     31.728  31.367246     1.4800      7.029   266.1200 2.1405e+02     0.8622     -0.056     -0.082    24.4178 0.0000e+00
     -0.058     -0.004     7.0327     84.221     31.748  31.388044     1.4812      7.029   266.5088 2.1240e+02     0.8699     -0.058     -0.084    24.4101 0.0000e+00
     -0.057     -0.005     6.9207     82.882     31.800  31.440676     1.4749      7.033   267.1217 2.1109e+02     0.8766     -0.056     -0.082    24.4103 0.0000e+00
     -0.057     -0.006     6.8421     81.941     31.855  31.495556     1.4769      7.040   268.0232 2.0965e+02     0.8822     -0.054     -0.079    24.4220 0.0000e+00
     -0.059     -0.005     6.7786     81.182     31.904  31.543528     1.4970      7.046   269.0630 2.0812e+02     0.8767     -0.057     -0.082    24.4276 0.0000e+00
     -0.063     -0.004     6.7240     80.532     31.935  31.576136     1.5060      7.050   270.3156 2.0710e+02     0.8701     -0.063     -0.090    24.4262 0.0000e+00
     -0.065     -0.004     6.6732     79.933     31.927  31.572270     1.4946      7.055   271.6398 2.0656e+02     0.8026     -0.066     -0.095    24.4290 0.0000e+00
     -0.065     -0.003     6.6220     79.333     31.909  31.560309     1.4879      7.059   272.5980 2.0627e+02     0.7014     -0.065     -0.094    24.4295 0.0000e+00
     -0.064     -0.000     6.5792     78.835     31.902  31.558539     1.4892      7.062   273.0388 2.0629e+02     0.6839     -0.063     -0.091    24.4275 0.0000e+00
     -0.063      0.002     6.5557     78.565     31.889  31.550882     1.4918      7.067   273.1835 2.0651e+02     0.7137     -0.061     -0.089    24.4307 0.0000e+00
     -0.063      0.002     6.5549     78.565     31.865  31.531244     1.4999      7.070   273.3149 2.0689e+02     0.7247     -0.062     -0.089    24.4377 0.0000e+00
     -0.063      0.001     6.5769     78.836     31.841  31.511623     1.5138      7.070   273.5088 2.0729e+02     0.7870     -0.062     -0.090    24.4471 0.0000e+00
     -0.063      0.001     6.6200     79.360     31.830  31.504173     1.5322      7.069   273.8080 2.0756e+02     0.8869     -0.061     -0.089    24.4575 0.0000e+00
     -0.063      0.001     6.6783     80.065     31.828  31.504683     1.5377      7.069   274.1785 2.0783e+02     0.9254     -0.061     -0.088    24.4658 0.0000e+00
     -0.063      0.001     6.7423     80.838     31.839  31.517800     1.5346      7.067   274.6334 2.0832e+02     0.9172     -0.062     -0.089    24.4718 0.0000e+00
     -0.063      0.001     6.8039     81.580     31.856  31.535754     1.5406      7.064   275.1790 2.0886e+02     0.8489     -0.062     -0.089    24.4767 0.0000e+00
     -0.062      0.001     6.8564     82.208     31.852  31.531230     1.5463      7.061   275.5268 2.0941e+02     0.7413     -0.061     -0.088    24.4819 0.0000e+00
     -0.061      0.000     6.8929     82.639     31.849  31.526611     1.5478      7.060   275.7403 2.1006e+02     0.6838     -0.060     -0.087    24.4861 0.0000e+00
     -0.061     -0.001     6.9085     82.820     31.869  31.543417     1.5497      7.062   276.2124 2.1039e+02     0.6719     -0.060     -0.087    24.4897 0.0000e+00
     -0.061     -0.002     6.9050     82.771     31.873  31.543901     1.5412      7.062   276.8460 2.1019e+02     0.6898     -0.060     -0.087    24.4933 0.0000e+00
     -0.062     -0.002     6.8905     82.593     31.863  31.532460     1.5188      7.057   277.4655 2.0990e+02     0.6868     -0.061     -0.088    24.4925 0.0000e+00
     -0.064     -0.002     6.8734     82.384     31.864  31.532091     1.5003      7.050   278.1958 2.0990e+02     0.6660     -0.064     -0.092    24.4874 0.0000e+00
     -0.065     -0.002     6.8589     82.211     31.872  31.539438     1.4913      7.047   278.9653 2.0990e+02     0.6824     -0.065     -0.094    24.4825 0.0000e+00
     -0.065     -0.001     6.8485     82.091     31.888  31.557790     1.4844      7.050   279.5423 2.0989e+02     0.6710     -0.064     -0.093    24.4779 0.0000e+00
     -0.065      0.000     6.8405     82.001     31.891  31.563456     1.4722      7.055   280.0093 2.0998e+02     0.6195     -0.064     -0.093    24.4747 0.0000e+00
     -0.065      0.001     6.8343     81.935     31.868  31.544450     1.4629      7.060   280.5680 2.1008e+02     0.6095     -0.063     -0.091    24.4724 0.0000e+00
     -0.065      0.001     6.8292     81.880     31.839  31.518516     1.4724      7.065   281.0481 2.1008e+02     0.6420     -0.063     -0.092    24.4719 0.0000e+00
     -0.064      0.001     6.8207     81.785     31.821  31.503928     1.4864      7.070   281.2550 2.0981e+02     0.6761     -0.062     -0.091    24.4751 0.0000e+00
     -0.064      0.000     6.8041     81.589     31.811  31.495091     1.4943      7.076   281.3490 2.0971e+02     0.6862     -0.063     -0.090    24.4800 0.0000e+00
     -0.064 1.8612e-08     6.7800     81.299     31.792  31.475175     1.4939      7.081   281.4958 2.0976e+02     0.6729     -0.062     -0.091    24.4858 0.0000e+00
     -0.064 2.0474e-07     6.7517     80.954     31.772  31.453645     1.4811      7.086   281.6536 2.0978e+02     0.6670     -0.063     -0.090    24.4912 0.0000e+00
     -0.064 2.0474e-07     6.7205     80.572     31.747  31.425301     1.4780      7.091   281.7943 2.0980e+02     0.6459     -0.063     -0.091    24.4947 0.0000e+00
     -0.064 1.8612e-08     6.6865     80.155     31.712  31.386499     1.4849      7.095   281.9067 2.0975e+02     0.6019     -0.063     -0.091    24.4973 0.0000e+00
     -0.064 1.6920e-09     6.6505     79.715     31.695  31.365536     1.4819      7.099   281.9804 2.0978e+02     0.5915     -0.063     -0.091    24.4970 0.0000e+00
     -0.064 1.5382e-10     6.6110     79.230     31.697  31.362371     1.4778      7.103   282.1685 2.0984e+02     0.6119     -0.063     -0.091    24.4926 0.0000e+00
     -0.064 1.3984e-11     6.5639     78.654     31.688  31.348220     1.4813      7.105   282.5455 2.0996e+02     0.6358     -0.063     -0.091    24.4867 0.0000e+00
     -0.064 1.2712e-12     6.5118     78.016     31.667  31.321438     1.4875      7.107   283.0117 2.1023e+02     0.6663     -0.063     -0.091    24.4805 0.0000e+00
     -0.064 1.1557e-13     6.4579     77.356     31.644  31.292579     1.4893      7.107   283.5039 2.1046e+02     0.6757     -0.063     -0.091    24.4740 0.0000e+00
     -0.064 1.0506e-14     6.4001     76.646     31.612  31.253310     1.4838      7.107   283.8503 2.1050e+02     0.6576     -0.063     -0.092    24.4671 0.0000e+00
     -0.064 9.5473e-16     6.3376     75.880     31.594  31.227679     1.4857      7.107   284.0168 2.1048e+02     0.6609     -0.062     -0.091    24.4588 0.0000e+00
     -0.064 8.2728e-17     6.2726     75.085     31.611  31.236697     1.5120      7.109   284.2266 2.1052e+02     0.7464     -0.062     -0.090    24.4494 0.0000e+00
     -0.064 -3.722e-17     6.2075     74.290     31.617  31.235322     1.5444      7.112   284.4932 2.1064e+02     0.8665     -0.063     -0.091    24.4390 0.0000e+00
     -0.064 -4.956e-16     6.1455     73.533     31.600  31.211045     1.5553      7.114   284.7455 2.1077e+02     0.8928     -0.062     -0.090    24.4274 0.0000e+00
     -0.064 -5.459e-15     6.0889     72.841     31.592  31.197178     1.5520      7.115   285.0402 2.1076e+02     0.8517     -0.063     -0.091    24.4149 0.0000e+00
     -0.064 -6.005e-14     6.0368     72.204     31.596  31.194669     1.5321      7.116   285.3893 2.1062e+02     0.7967     -0.063     -0.091    24.4027 0.0000e+00
     -0.064 -6.605e-13     5.9868     71.594     31.587  31.180700     1.4989      7.116   285.6963 2.1046e+02     0.7155     -0.062     -0.090    24.3907 0.0000e+00
     -0.064 -1.211e-12     5.9374     70.992     31.567  31.155287     1.4817      7.116   285.8270 2.1047e+02     0.6637     -0.062     -0.090    24.3793 0.0000e+00
     -0.064 -6.605e-13     5.8908     70.423     31.558  31.141421     1.4801      7.116   285.8509 2.1051e+02     0.6591     -0.062     -0.090    24.3694 0.0000e+00
     -0.064 -6.005e-14     5.8509     69.936     31.563  31.140057     1.4978      7.116   285.9859 2.1058e+02     0.6899     -0.062     -0.090    24.3599 0.0000e+00
     -0.064 -5.460e-15     5.8160     69.508     31.567  31.138788     1.5398      7.117   286.1683 2.1074e+02     0.7300     -0.063     -0.091    24.3509 0.0000e+00
     -0.064 -4.964e-16     5.7823     69.094     31.559  31.126072     1.5647      7.117   286.3355 2.1081e+02     0.7168     -0.062     -0.090    24.3421 0.0000e+00
     -0.064 -4.513e-17     5.7502     68.701     31.551  31.113317     1.5595      7.117   286.5455 2.1078e+02     0.6831     -0.062     -0.090    24.3331 0.0000e+00
     -0.064 -4.102e-18     5.7204     68.335     31.554  31.111582     1.5505      7.116   286.8145 2.1054e+02     0.6591     -0.062     -0.090    24.3243 0.0000e+00
     -0.064 -3.730e-19     5.6918     67.984     31.552  31.105074     1.5484      7.114   287.0930 2.1047e+02     0.6403     -0.062     -0.090    24.3161 0.0000e+00
     -0.064 -3.390e-20     5.6638     67.642     31.549  31.098136     1.5520      7.114   287.2455 2.1071e+02     0.6379     -0.062     -0.090    24.3083 0.0000e+00
     -0.063 -3.078e-21     5.6355     67.297     31.546  31.091198     1.5585      7.115   287.4538 2.1088e+02     0.6301     -0.062     -0.089    24.3003 0.0000e+00
     -0.063 -2.356e-22     5.6065     66.943     31.543  31.084686     1.5615      7.117   287.7183 2.1107e+02     0.6077     -0.062     -0.090    24.2928 0.0000e+00
     -0.063 4.6505e-22     5.5787     66.605     31.545  31.082907     1.5606      7.119   287.9474 2.1126e+02     0.6722     -0.062     -0.089    24.2860 0.0000e+00
     -0.063 5.3934e-21     5.5527     66.287     31.535  31.069686     1.5567      7.120   288.3310 2.1128e+02     0.8298     -0.062     -0.090    24.2795 0.0000e+00
     -0.063 5.9353e-20     5.5259     65.961     31.520  31.051837     1.5516      7.123   288.6578 2.1120e+02     0.8960     -0.062     -0.090    24.2733 0.0000e+00
     -0.063 6.5288e-19     5.4966     65.606     31.529  31.057610     1.5546      7.126   288.8008 2.1118e+02     0.8624     -0.062     -0.089    24.2674 0.0000e+00
     -0.063 7.1817e-18     5.4671     65.247     31.551  31.075980     1.5561      7.129   288.9409 2.1134e+02     0.7899     -0.062     -0.089    24.2622 0.0000e+00
     -0.063 7.8999e-17     5.4420     64.941     31.562  31.083418     1.5515      7.130   289.0615 2.1148e+02     0.6908     -0.062     -0.089    24.2572 0.0000e+00
     -0.063 8.6899e-16     5.4209     64.681     31.567  31.084033     1.5536      7.130   289.1413 2.1149e+02     0.6408     -0.061     -0.089    24.2525 0.0000e+00
     -0.063 9.5589e-15     5.4004     64.428     31.571  31.083408     1.5537      7.131   289.2167 2.1149e+02     0.6429     -0.062     -0.090    24.2474 0.0000e+00
     -0.063 1.0515e-13     5.3796     64.173     31.567  31.075855     1.5613      7.132   289.4573 2.1139e+02     0.6545     -0.062     -0.090    24.2419 0.0000e+00
     -0.063 1.1566e-12     5.3606     63.938     31.552  31.056218     1.5903      7.130   289.8130 2.1158e+02     0.6595     -0.062     -0.089    24.2361 0.0000e+00
     -0.063 1.2723e-11     5.3456     63.749     31.537  31.036486     1.6199      7.124   289.9899 2.1180e+02     0.6734     -0.062     -0.089    24.2299 0.0000e+00
     -0.063 1.3995e-10     5.3328     63.588     31.533  31.027788     1.6344      7.116   290.0480 2.1177e+02     0.6995     -0.061     -0.089    24.2231 0.0000e+00
     -0.063 1.5395e-09     5.3190     63.416     31.523  31.014557     1.6009      7.107   290.1709 2.1174e+02     0.7015     -0.062     -0.089    24.2162 0.0000e+00
     -0.063 1.6934e-08     5.3050     63.241     31.516  31.003521     1.5355      7.100   290.4435 2.1152e+02     0.6667     -0.062     -0.090    24.2090 0.0000e+00
     -0.062 1.8628e-07     5.2919     63.078     31.537  31.021361     1.5056      7.095   290.9350 2.1147e+02     0.6443     -0.061     -0.088    24.2014 0.0000e+00
     -0.062 1.8628e-07     5.2780     62.907     31.559  31.039731     1.5060      7.088   291.4678 2.1169e+02     0.6752     -0.061     -0.088    24.1945 0.0000e+00
     -0.062 1.6962e-08     5.2628     62.720     31.558  31.035104     1.5030      7.082   291.7228 2.1182e+02     0.7052     -0.062     -0.089    24.1880 0.0000e+00
     -0.062 1.8473e-09     5.2479     62.536     31.555  31.028915     1.5067      7.078   291.7813 2.1183e+02     0.7011     -0.061     -0.088    24.1817 0.0000e+00
     -0.062 3.5268e-09     5.2342     62.366     31.558  31.028404     1.5324      7.077   291.9176 2.1172e+02     0.6865     -0.061     -0.089    24.1761 0.0000e+00
     -0.062 3.7268e-08     5.2205     62.197     31.563  31.028925     1.5564      7.076   292.1656 2.1172e+02     0.6811     -0.061     -0.088    24.1708 0.0000e+00
     -0.062 4.0981e-07     5.2068     62.027     31.573  31.035209     1.5576      7.076   292.3702 2.1188e+02     0.6980     -0.061     -0.088    24.1654 0.0000e+00
     -0.062      0.000     5.1933     61.858     31.582  31.040869     1.5466      7.078   292.5854 2.1199e+02     0.7071     -0.062     -0.089    24.1602 0.0000e+00
     -0.062      0.000     5.1803     61.695     31.579  31.033847     1.5436      7.081   292.8744 2.1195e+02     0.6687     -0.061     -0.088    24.1552 0.0000e+00
     -0.062      0.001     5.1694     61.556     31.564  31.013807     1.5492      7.086   293.1115 2.1182e+02     0.6312     -0.061     -0.088    24.1493 0.0000e+00
     -0.062      0.001     5.1595     61.430     31.544  30.989087     1.5506      7.090   293.3869 2.1183e+02     0.6507     -0.060     -0.087    24.1429 0.0000e+00
     -0.062      0.001     5.1497     61.305     31.549  30.988974     1.5601      7.093   293.7093 2.1190e+02     0.6596     -0.061     -0.088    24.1363 0.0000e+00
     -0.061      0.001     5.1417     61.201     31.578  31.012436     1.5896      7.095   293.9115 2.1202e+02     0.6470     -0.060     -0.087    24.1293 0.0000e+00
     -0.061      0.001     5.1382     61.151     31.589  31.018735     1.6138      7.097   294.0257 2.1226e+02     0.6514     -0.060     -0.087    24.1221 0.0000e+00
     -0.060      0.001     5.1367     61.125     31.576  31.001615     1.6231      7.100   294.2288 2.1236e+02     0.6511     -0.059     -0.086    24.1144 0.0000e+00
     -0.060      0.001     5.1319     61.060     31.575  30.995957     1.6097      7.103   294.4743 2.1229e+02     0.6437     -0.059     -0.085    24.1064 0.0000e+00
     -0.060      0.000     5.1253     60.973     31.597  31.013817     1.5722      7.105   294.5854 2.1228e+02     0.6228     -0.059     -0.086    24.0990 0.0000e+00
     -0.060 1.8628e-08     5.1193     60.895     31.615  31.027039     1.5549      7.105   294.6262 2.1233e+02     0.6119     -0.060     -0.087    24.0917 0.0000e+00
     -0.060 2.0490e-07     5.1135     60.818     31.621  31.028799     1.5563      7.105   294.6230 2.1224e+02     0.6345     -0.059     -0.086    24.0847 0.0000e+00
     -0.060 2.0490e-07     5.1063     60.725     31.632  31.035093     1.5524      7.105   294.5473 2.1218e+02     0.6519     -0.059     -0.085    24.0782 0.0000e+00
     -0.060 1.8627e-08     5.0967     60.602     31.642  31.039618     1.5547      7.104   294.5708 2.1238e+02     0.6698     -0.059     -0.086    24.0716 0.0000e+00
     -0.060 1.6934e-09     5.0866     60.471     31.628  31.020000     1.5558      7.101   294.7353 2.1253e+02     0.6981     -0.059     -0.085    24.0651 0.0000e+00
     -0.060 1.5395e-10     5.0789     60.368     31.602  30.988409     1.5474      7.099   294.9013 2.1246e+02     0.6891     -0.059     -0.086    24.0581 0.0000e+00
     -0.060 1.3995e-11     5.0732     60.288     31.596  30.975179     1.5456      7.096   295.1148 2.1245e+02     0.6832     -0.060     -0.086    24.0509 0.0000e+00
     -0.060 1.2723e-12     5.0664     60.193     31.616  30.987037     1.5525      7.096   295.3387 2.1254e+02     0.7491     -0.059     -0.086    24.0428 0.0000e+00
     -0.060 1.1566e-13     5.0589     60.090     31.642  31.004765     1.5476      7.099   295.3713 2.1258e+02     0.8441     -0.059     -0.085    24.0334 0.0000e+00
     -0.060 1.0515e-14     5.0529     60.004     31.645  30.998992     1.5324      7.099   295.2503 2.1259e+02     0.8859     -0.059     -0.085    24.0235 0.0000e+00
     -0.060 9.5590e-16     5.0482     59.934     31.635  30.980727     1.5342      7.099   295.1665 2.1274e+02     0.8884     -0.059     -0.086    24.0123 0.0000e+00
     -0.060 8.6900e-17     5.0426     59.854     31.636  30.974434     1.5510      7.098   295.3050 2.1288e+02     0.9049     -0.059     -0.086    24.0003 0.0000e+00
     -0.061 7.9000e-18     5.0362     59.764     31.656  30.986408     1.5603      7.095   295.5470 2.1267e+02     0.9021     -0.060     -0.086    23.9880 0.0000e+00
     -0.061 7.1820e-19     5.0312     59.691     31.676  30.998468     1.5552      7.090   295.5981 2.1246e+02     0.8852     -0.060     -0.086    23.9748 0.0000e+00
     -0.061 6.5290e-20     5.0269     59.627     31.679  30.993224     1.5535      7.086   295.5788 2.1253e+02     0.8835     -0.060     -0.086    23.9617 0.0000e+00
     -0.060 5.9355e-21     5.0227     59.562     31.680  30.986505     1.5774      7.083   295.6570 2.1264e+02     0.8201     -0.059     -0.086    23.9493 0.0000e+00
     -0.060 5.3960e-22     5.0194     59.508     31.682  30.980733     1.6044      7.079   295.6837 2.1275e+02     0.6990     -0.059     -0.085    23.9369 0.0000e+00
     -0.060 4.9052e-23     5.0162     59.455     31.697  30.986929     1.6134      7.076   295.6435 2.1279e+02     0.6404     -0.060     -0.086    23.9245 0.0000e+00
     -0.060 4.4593e-24     5.0127     59.400     31.717  30.997900     1.6129      7.074   295.6877 2.1269e+02     0.6604     -0.059     -0.086    23.9122 0.0000e+00
     -0.060 4.0539e-25     5.0088     59.339     31.714  30.986354     1.5984      7.071   295.8742 2.1241e+02     0.6660     -0.059     -0.085    23.8995 0.0000e+00
     -0.060 3.6854e-26     5.0038     59.264     31.711  30.974326     1.5762      7.071   296.0911 2.1224e+02     0.6166     -0.059     -0.085    23.8864 0.0000e+00
     -0.060 3.3554e-27     4.9985     59.186     31.726  30.979481     1.5559      7.072   296.3306 2.1246e+02     0.5816     -0.060     -0.086    23.8734 0.0000e+00
     -0.060 3.5996e-28     4.9934     59.108     31.741  30.985151     1.5368      7.073   296.6192 2.1266e+02     0.6100     -0.059     -0.085    23.8604 0.0000e+00
     -0.060 6.3693e-28     4.9888     59.037     31.745  30.979371     1.5282      7.075   296.7414 2.1267e+02     0.7156     -0.059     -0.086    23.8469 0.0000e+00
     -0.061 6.7042e-27     4.9832     58.956     31.748  30.973078     1.5347      7.079   296.7758 2.1274e+02     0.8511     -0.060     -0.087    23.8329 0.0000e+00
     -0.061 7.3719e-26     4.9765     58.861     31.756  30.972559     1.5507      7.083   296.8633 2.1276e+02     0.9053     -0.060     -0.086    23.8186 0.0000e+00
     -0.061 8.1090e-25     4.9704     58.774     31.765  30.973080     1.5572      7.088   296.9385 2.1262e+02     0.8824     -0.060     -0.086    23.8037 0.0000e+00
     -0.060 8.9200e-24     4.9651     58.697     31.780  30.979374     1.5489      7.091   297.2553 2.1260e+02     0.8490     -0.059     -0.086    23.7888 0.0000e+00
     -0.060 9.8119e-23     4.9607     58.631     31.794  30.985149     1.5422      7.091   297.7682 2.1267e+02     0.7769     -0.059     -0.086    23.7745 0.0000e+00
     -0.060 1.0793e-21     4.9563     58.567     31.796  30.979377     1.5411      7.091   297.9775 2.1264e+02     0.6819     -0.059     -0.085    23.7609 0.0000e+00
     -0.060 1.1872e-20     4.9513     58.496     31.797  30.973086     1.5442      7.091   297.9793 2.1264e+02     0.6465     -0.059     -0.086    23.7479 0.0000e+00
     -0.060 1.3060e-19     4.9467     58.431     31.803  30.972576     1.5515      7.090   298.0476 2.1280e+02     0.6542     -0.059     -0.085    23.7352 0.0000e+00
     -0.060 1.4366e-18     4.9432     58.377     31.810  30.973202     1.5743      7.088   298.1154 2.1302e+02     0.6840     -0.059     -0.086    23.7226 0.0000e+00
     -0.060 1.5802e-17     4.9398     58.325     31.825  30.980649     1.6091      7.085   298.1959 2.1305e+02     0.7006     -0.060     -0.086    23.7109 0.0000e+00
     -0.060 1.7382e-16     4.9372     58.284     31.850  30.999094     1.6230      7.083   298.3332 2.1286e+02     0.6717     -0.059     -0.086    23.6999 0.0000e+00
     -0.060 1.9121e-15     4.9347     58.243     31.864  31.005688     1.6134      7.081   298.4851 2.1286e+02     0.6407     -0.059     -0.086    23.6893 0.0000e+00
     -0.060 2.1033e-14     4.9302     58.180     31.861  30.996858     1.5845      7.080   298.5706 2.1307e+02     0.6910     -0.059     -0.086    23.6788 0.0000e+00
     -0.060 2.3136e-13     4.9257     58.120     31.952  31.082843     1.5405      7.078   298.5924 2.1309e+02     0.8227     -0.059     -0.085    23.6686 0.0000e+00
     -0.060 2.5450e-12     4.9265     58.167     32.136  31.283227     1.5135      7.077   298.6614 2.1310e+02     0.8903     -0.059     -0.085    23.6581 0.0000e+00
     -0.060 2.7995e-11     4.9739     58.888     32.214  31.450954     1.5061      7.077   298.8894 2.1320e+02     0.8669     -0.060     -0.086    23.6482 0.0000e+00
     -0.060 3.0794e-10     5.1639     61.424     32.128  31.523244     1.5156      7.078   299.2843 2.1323e+02     0.7841     -0.059     -0.085    23.6379 0.0000e+00
     -0.060 3.3874e-09     5.5562     66.375     31.978  31.522437     1.5454      7.081   299.6501 2.1326e+02     0.6830     -0.059     -0.085    23.6286 0.0000e+00
     -0.060 3.7261e-08     6.0998     73.063     31.865  31.504922     1.5627      7.083   299.8707 2.1329e+02     0.6519     -0.059     -0.085    23.6211 0.0000e+00
     -0.060 4.0987e-07     6.6929     80.288     31.807  31.502134     1.5594      7.084   299.9732 2.1322e+02     0.6515     -0.060     -0.086    23.7554 0.0000e+00
     -0.060      0.000     7.2522     87.072     31.762  31.488806     1.5524      7.086   300.0282 2.1322e+02     0.7084     -0.059     -0.085    24.0701 0.0000e+00
     -0.060      0.000     7.7273     92.820     31.727  31.470841     1.5416      7.089   300.0195 2.1334e+02     0.8217     -0.059     -0.085    24.3215 0.0000e+00
     -0.060      0.001     8.0901     97.205     31.723  31.475467     1.5397      7.091   299.8685 2.1349e+02     0.8617     -0.059     -0.085    24.4485 0.0000e+00
     -0.060      0.001     8.3150     99.923     31.723  31.481239     1.5478      7.094   299.8375 2.1359e+02     0.8561     -0.059     -0.085    24.5262 0.0000e+00
     -0.060      0.001     8.3979    100.928     31.716  31.477135     1.5477      7.096   299.9881 2.1352e+02     0.8454     -0.059     -0.085    24.5703 0.0000e+00
     -0.059      0.001     8.3729    100.631     31.727  31.489354     1.5562      7.100   300.0551 2.1343e+02     0.7929     -0.058     -0.085    24.5935 0.0000e+00
     -0.059      0.002     8.2878     99.608     31.740  31.501960     1.5865      7.105   299.9592 2.1338e+02     0.7406     -0.058     -0.084    24.6054 0.0000e+00
     -0.058      0.004     8.1824     98.341     31.740  31.502538     1.6109      7.107   299.7752 2.1335e+02     0.7319     -0.057     -0.083    24.6150 0.0000e+00
     -0.058      0.006     8.0808     97.117     31.735  31.496345     1.6212      7.105   299.6373 2.1345e+02     0.7187     -0.057     -0.083    24.6193 0.0000e+00
     -0.057      0.007     7.9913     96.038     31.730  31.490580     1.6105      7.100   299.5828 2.1355e+02     0.6713     -0.057     -0.083    24.6208 0.0000e+00
     -0.054      0.007     7.9154     95.122     31.738  31.496344     1.5730      7.094   299.6313 2.1363e+02     0.6168     -0.053     -0.077    24.6203 0.0000e+00
     -0.050      0.007     7.8518     94.358     31.744  31.502534     1.5545      7.085   299.7941 2.1374e+02     0.6094     -0.049     -0.071    24.6198 0.0000e+00
     -0.048      0.007     7.7967     93.698     31.743  31.501909     1.5613      7.076   299.9162 2.1377e+02     0.6431     -0.047     -0.068    24.6188 0.0000e+00
     -0.047      0.006     7.7466     93.090     31.731  31.488792     1.5542      7.067   299.9891 2.1379e+02     0.6576     -0.046     -0.067    24.6164 0.0000e+00
     -0.046      0.004     7.7006     92.524     31.718  31.470952     1.5419      7.059   300.0736 2.1371e+02     0.6631     -0.045     -0.065    24.6132 0.0000e+00
     -0.046      0.002     7.6566     91.976     31.731  31.476727     1.5413      7.052   300.0774 2.1361e+02     0.6789     -0.044     -0.064    24.6127 0.0000e+00
     -0.046      0.001     7.6124     91.433     31.755  31.495099     1.5463      7.049   300.0344 2.1376e+02     0.6957     -0.045     -0.065    24.6166 0.0000e+00
     -0.045      0.001     7.5724     90.954     31.762  31.502547     1.5653      7.046   299.9847 2.1393e+02     0.6832     -0.044     -0.064    24.6145 0.0000e+00
     -0.045      0.001     7.5391     90.564     31.759  31.503275     1.5970      7.043   299.8203 2.1405e+02     0.6511     -0.044     -0.064    24.6060 0.0000e+00
     -0.045      0.001     7.5117     90.245     31.756  31.503909     1.6180      7.040   299.5956 2.1418e+02     0.6429     -0.044     -0.064    24.5925 0.0000e+00
     -0.045      0.001     7.4911     90.003     31.759  31.510212     1.6260      7.040   299.6763 2.1431e+02     0.6446     -0.044     -0.064    24.5806 0.0000e+00
     -0.045      0.001     7.4766     89.834     31.763  31.515986     1.6281      7.040   300.0222 2.1455e+02     0.6416     -0.044     -0.064    24.5842 0.0000e+00
     -0.044      0.001     7.4701     89.759     31.756  31.510214     1.6255      7.040   300.1652 2.1471e+02     0.6368     -0.044     -0.063    24.5931 0.0000e+00
     -0.044      0.001     7.4715     89.778     31.749  31.503930     1.6320      7.041   300.0277 2.1463e+02     0.6168     -0.044     -0.063    24.5982 0.0000e+00
     -0.044      0.001     7.4761     89.837     31.747  31.503514     1.6418      7.044   299.8224 2.1451e+02     0.6143     -0.044     -0.063    24.6029 0.0000e+00
     -0.044      0.002     7.4828     89.921     31.748  31.505189     1.6336      7.047   299.7474 2.1450e+02     0.6368     -0.043     -0.062    24.6065 0.0000e+00
     -0.044      0.002     7.4932     90.046     31.766  31.524183     1.6246      7.047   299.8958 2.1458e+02     0.6437     -0.044     -0.063    24.6068 0.0000e+00
     -0.043      0.003     7.5065     90.209     31.784  31.542638     1.6248      7.046   300.1538 2.1471e+02     0.6374     -0.043     -0.062    24.6076 0.0000e+00
     -0.042      0.003     7.5201     90.375     31.778  31.537812     1.6177      7.045   300.1993 2.1499e+02     0.6215     -0.041     -0.059    24.6111 0.0000e+00
     -0.040      0.004     7.5318     90.517     31.769  31.529333     1.6122      7.050   299.7578 2.1527e+02     0.6345     -0.040     -0.057    24.6126 0.0000e+00
     -0.040      0.005     7.5426     90.647     31.743  31.503629     1.5863      7.062   299.1180 2.1541e+02     0.6733     -0.040     -0.057    24.6128 0.0000e+00
     -0.040      0.008     7.5524     90.762     31.721  31.481066     1.5258      7.079   298.9162 2.1553e+02     0.6623     -0.039     -0.057    24.6143 0.0000e+00
     -0.039      0.012     7.5549     90.796     31.749  31.510557     1.4873      7.103   299.1244 2.1616e+02     0.6244     -0.039     -0.056    24.6160 0.0000e+00
     -0.036      0.017     7.5467     90.714     31.775  31.542658     1.4883      7.127   299.1399 2.1369e+02     0.6114     -0.038     -0.054    24.6174 0.0000e+00
     -0.031      0.022     7.5368     90.615     31.777  31.551665     1.5008      7.148   298.8454 2.0624e+02     0.6581     -0.031     -0.045    24.6175 0.0000e+00
     -0.023      0.028     7.5336     90.594     31.775  31.555960     1.5002      7.163   298.5749 1.9957e+02     0.7613     -0.022     -0.032    24.6138 0.0000e+00
     -0.014      0.033     7.5366     90.641     31.746  31.531094     1.4898      7.157   298.1073 1.9572e+02     0.8214     -0.013     -0.019    24.6151 0.0000e+00
     -0.006      0.036     7.5429     90.723     31.717  31.505059     1.4947      7.138   297.4938 1.9568e+02     0.8364     -0.005     -0.008    24.6273 0.0000e+00
      0.003      0.038     7.5502     90.815     31.705  31.495206     1.5326      7.115   297.0069 1.9094e+02     0.8204      0.001      0.002    24.6410 0.0000e+00
      0.015      0.039     7.5606     90.944     31.683  31.475473     1.5893      7.085   296.4360 1.8201e+02     0.7497      0.014      0.020    24.6505 0.0000e+00
      0.026      0.039     7.5759     91.134     31.663  31.456988     1.6195      7.060   296.0982 1.8100e+02     0.6830      0.028      0.040    24.6565 0.0000e+00
      0.036      0.038     7.5886     91.293     31.666  31.462234     1.6220      7.049   296.0203 1.8091e+02     0.6547      0.035      0.050    24.6602 0.0000e+00
      0.046      0.037     7.5915     91.330     31.678  31.475399     1.6387      7.047   296.0956 1.8255e+02     0.7132      0.046      0.066    24.6629 0.0000e+00
      0.055      0.034     7.5828     91.226     31.692  31.489149     1.6747      7.056   296.3202 1.8552e+02     0.8098      0.054      0.078    24.6654 0.0000e+00
      0.063      0.032     7.5659     91.023     31.705  31.501473     1.6891      7.076   296.4997 1.7805e+02     0.8471      0.061      0.088    24.6688 0.0000e+00
      0.072      0.030     7.5486     90.815     31.700  31.497388     1.6742      7.102   296.5447 1.6717e+02     0.8581      0.071      0.102    24.6724 0.0000e+00
      0.078      0.029     7.5369     90.675     31.706  31.503266     1.6507      7.128   296.3492 1.6399e+02     0.8207      0.076      0.112    24.6740 0.0000e+00
      0.083      0.029     7.5319     90.616     31.711  31.509040     1.6169      7.154   296.2004 1.6515e+02     0.7308      0.082      0.119    24.6741 0.0000e+00
      0.089      0.030     7.5285     90.577     31.705  31.503682     1.5778      7.177   296.3797 1.6530e+02     0.6867      0.087      0.126    24.6739 0.0000e+00
      0.097      0.031     7.5210     90.490     31.703  31.501998     1.5546      7.192   296.6243 1.6272e+02     0.6845      0.095      0.139    24.6738 0.0000e+00
      0.106      0.033     7.5091     90.349     31.689  31.488681     1.5476      7.202   296.4913 1.6166e+02     0.7045      0.104      0.150    24.6740 0.0000e+00
      0.116      0.035     7.4959     90.190     31.669  31.469687     1.5487      7.215   296.3206 1.6358e+02     0.7764      0.113      0.164    24.6754 0.0000e+00
      0.126      0.039     7.4853     90.064     31.662  31.462862     1.5581      7.225   296.4529 1.6135e+02     0.8510      0.124      0.180    24.6770 0.0000e+00
      0.134      0.043     7.4775     89.970     31.668  31.469675     1.5605      7.230   296.7142 1.5755e+02     0.8744      0.133      0.192    24.6782 0.0000e+00
      0.142      0.044     7.4708     89.890     31.687  31.488557     1.5502      7.225   296.9850 1.5655e+02     0.8460      0.138      0.200    24.6790 0.0000e+00
      0.155      0.043     7.4668     89.842     31.699  31.500632     1.5437      7.216   297.0595 1.5525e+02     0.7820      0.150      0.218    24.6795 0.0000e+00
      0.171      0.042     7.4683     89.861     31.687  31.488660     1.5466      7.215   297.0987 1.5527e+02     0.7113      0.170      0.247    24.6802 0.0000e+00
      0.185      0.041     7.4752     89.944     31.669  31.470820     1.5571      7.228   297.2875 1.5571e+02     0.6618      0.184      0.267    24.6810 0.0000e+00
      0.194      0.040     7.4829     90.036     31.674  31.475459     1.5616      7.241   297.6219 1.5460e+02     0.6724      0.192      0.278    24.6809 0.0000e+00
      0.200      0.037     7.4861     90.073     31.681  31.481233     1.5536      7.238   298.0431 1.5369e+02     0.7782      0.195      0.283    24.6808 0.0000e+00
      0.206      0.035     7.4824     90.027     31.677  31.477125     1.5531      7.225   298.3371 1.5314e+02     0.9029      0.200      0.291    24.6812 0.0000e+00
      0.216      0.034     7.4739     89.921     31.690  31.489297     1.5553      7.220   298.6806 1.5284e+02     0.9293      0.211      0.306    24.6814 0.0000e+00
      0.228      0.036     7.4662     89.827     31.703  31.501382     1.5523      7.225   299.0996 1.5044e+02     0.8838      0.224      0.325    24.6810 0.0000e+00
      0.238      0.040     7.4633     89.791     31.699  31.496234     1.5818      7.230   299.2730 1.4783e+02     0.8406      0.236      0.341    24.6800 0.0000e+00
      0.245      0.041     7.4614     89.766     31.694  31.490556     1.6367      7.231   299.3153 1.4705e+02     0.8040      0.239      0.347    24.6786 0.0000e+00
      0.254      0.041     7.4548     89.685     31.700  31.496235     1.6645      7.232   299.6098 1.4605e+02     0.8073      0.247      0.359    24.6770 0.0000e+00
      0.268      0.042     7.4463     89.582     31.705  31.501384     1.6786      7.238   300.0805 1.4506e+02     0.8499      0.264      0.381    24.6759 0.0000e+00
      0.280      0.044     7.4449     89.564     31.693  31.489307     1.6970      7.250   300.5325 1.4403e+02     0.8614      0.276      0.401    24.6749 0.0000e+00
      0.290      0.048     7.4530     89.663     31.681  31.477229     1.6940      7.261   301.2042 1.4218e+02     0.8554      0.285      0.414    24.6738 0.0000e+00
      0.300      0.053     7.4650     89.810     31.685  31.482369     1.6608      7.266   302.0072 1.3935e+02     0.8679      0.292      0.424    24.6730 0.0000e+00
      0.312      0.058     7.4722     89.901     31.689  31.487942     1.6357      7.265   302.4971 1.3638e+02     0.8613      0.305      0.443    24.6725 0.0000e+00
      0.327      0.062     7.4696     89.871     31.681  31.481109     1.6387      7.266   302.6531 1.3379e+02     0.8359      0.320      0.464    24.6723 0.0000e+00
      0.347      0.066     7.4614     89.775     31.662  31.463259     1.6323      7.272   302.8621 1.3237e+02     0.8362      0.340      0.492    24.6729 0.0000e+00
      0.369      0.068     7.4543     89.692     31.662  31.462644     1.6224      7.278   303.3033 1.3115e+02     0.8641      0.363      0.527    24.6749 0.0000e+00
      0.387      0.069     7.4497     89.636     31.673  31.473671     1.6388      7.277   303.7720 1.2914e+02     0.8991      0.381      0.553    24.6771 0.0000e+00
      0.401      0.067     7.4463     89.594     31.669  31.469571     1.6470      7.273   304.1406 1.2784e+02     0.9230      0.393      0.570    24.6784 0.0000e+00
      0.416      0.064     7.4448     89.575     31.676  31.476584     1.6300      7.272   304.4048 1.2740e+02     0.8785      0.407      0.591    24.6794 0.0000e+00
      0.435      0.063     7.4472     89.601     31.696  31.494955     1.6162      7.272   304.6420 1.2713e+02     0.7580      0.426      0.619    24.6802 0.0000e+00
      0.452      0.063     7.4537     89.676     31.703  31.501160     1.6183      7.265   304.9444 1.2607e+02     0.6870      0.446      0.646    24.6806 0.0000e+00
      0.467      0.063     7.4637     89.795     31.690  31.488100     1.6364      7.250   304.8783 1.2473e+02     0.6908      0.459      0.666    24.6801 0.0000e+00
      0.480      0.063     7.4742     89.920     31.667  31.464070     1.6428      7.241   304.5307 1.2318e+02     0.7431      0.469      0.680    24.6790 0.0000e+00
      0.496      0.063     7.4806     89.997     31.668  31.464648     1.6215      7.243   304.6992 1.2106e+02     0.8307      0.485      0.702    24.6772 0.0000e+00
      0.516      0.064     7.4820     90.014     31.698  31.495081     1.6090      7.243   305.3675 1.2009e+02     0.8660      0.508      0.735    24.6752 0.0000e+00
      0.532      0.065     7.4799     89.990     31.717  31.514491     1.6115      7.239   305.9000 1.1946e+02     0.8643      0.524      0.759    24.6743 0.0000e+00
      0.546      0.065     7.4743     89.925     31.711  31.508812     1.5967      7.241   306.1468 1.1805e+02     0.8714      0.532      0.773    24.6740 0.0000e+00
      0.563      0.066     7.4667     89.835     31.691  31.489920     1.5674      7.252   306.4588 1.1706e+02     0.8603      0.551      0.799    24.6740 0.0000e+00
      0.583      0.069     7.4592     89.747     31.676  31.476605     1.5517      7.263   306.6609 1.1614e+02     0.8526      0.575      0.834    24.6741 0.0000e+00
      0.598      0.074     7.4531     89.674     31.674  31.474826     1.5533      7.269   306.5248 1.1501e+02     0.8692      0.589      0.853    24.6743 0.0000e+00
      0.612      0.077     7.4514     89.654     31.668  31.468418     1.5786      7.272   306.5343 1.1370e+02     0.8779      0.595      0.862    24.6757 0.0000e+00
      0.634      0.078     7.4599     89.756     31.662  31.462635     1.6186      7.275   306.8624 1.1150e+02     0.8664      0.619      0.898    24.6772 0.0000e+00
      0.662      0.078     7.4792     89.987     31.668  31.468407     1.6311      7.279   307.1359 1.0937e+02     0.8518      0.653      0.948    24.6782 0.0000e+00
      0.683      0.078     7.5026     90.270     31.675  31.474701     1.6202      7.281   307.3461 1.0804e+02     0.8548      0.672      0.975    24.6790 0.0000e+00
      0.700      0.078     7.5264     90.557     31.675  31.475221     1.6244      7.281   307.5109 1.0665e+02     0.8713      0.686      0.995    24.6791 0.0000e+00
      0.717      0.075     7.5484     90.822     31.674  31.474701     1.6361      7.279   307.4935 1.0517e+02     0.8687      0.704      1.020    24.6785 0.0000e+00
      0.736      0.073     7.5660     91.034     31.667  31.468407     1.6243      7.277   307.3087 1.0397e+02     0.8533      0.721      1.046    24.6782 0.0000e+00
      0.755      0.075     7.5807     91.210     31.662  31.462634     1.6105      7.274   307.1692 1.0277e+02     0.8689      0.739      1.073    24.6784 0.0000e+00
      0.773      0.080     7.5939     91.369     31.668  31.468408     1.6155      7.272   307.3542 1.0141e+02     0.9047      0.757      1.098    24.6792 0.0000e+00
      0.793      0.084     7.6028     91.476     31.674  31.474711     1.6208      7.274   307.5677 9.9806e+01     0.8890      0.776      1.125    24.6804 0.0000e+00
      0.815      0.085     7.6039     91.491     31.674  31.475335     1.6191      7.278   307.7715 9.7913e+01     0.8316      0.799      1.159    24.6802 0.0000e+00
      0.839      0.085     7.5969     91.407     31.675  31.475950     1.6128      7.281   308.1838 9.6009e+01     0.8207      0.822      1.193    24.6797 0.0000e+00
      0.864      0.083     7.5852     91.266     31.681  31.482149     1.6093      7.283   308.2508 9.4434e+01     0.8493      0.848      1.229    24.6793 0.0000e+00
      0.886      0.080     7.5729     91.116     31.686  31.486779     1.6048      7.280   307.9786 9.3341e+01     0.8716      0.871      1.263    24.6795 0.0000e+00
      0.904      0.076     7.5606     90.968     31.668  31.468418     1.5854      7.270   307.8181 9.2384e+01     0.8774      0.888      1.287    24.6803 0.0000e+00
      0.920      0.071     7.5465     90.799     31.650  31.450672     1.5687      7.256   307.6020 9.1257e+01     0.8588      0.903      1.309    24.6803 0.0000e+00
      0.936      0.067     7.5323     90.629     31.662  31.462749     1.5672      7.249   307.7742 8.9921e+01     0.8596      0.917      1.329    24.6798 0.0000e+00
      0.954      0.065     7.5243     90.534     31.686  31.487423     1.5858      7.245   308.3516 8.8651e+01     0.8875      0.936      1.357    24.6795 0.0000e+00
      0.972      0.062     7.5238     90.527     31.694  31.494958     1.6188      7.243   308.3028 8.7719e+01     0.8908      0.957      1.387    24.6794 0.0000e+00
      0.987      0.059     7.5273     90.569     31.689  31.490338     1.6362      7.245   307.7862 8.6732e+01     0.8693      0.967      1.402    24.6796 0.0000e+00
      1.003      0.057     7.5334     90.643     31.694  31.495081     1.6397      7.249   307.6974 8.5565e+01     0.8405      0.982      1.424    24.6800 0.0000e+00
      1.018      0.055     7.5423     90.748     31.689  31.488798     1.6521      7.252   308.0039 8.4807e+01     0.7871      1.002      1.453    24.6803 0.0000e+00
      1.029      0.053     7.5523     90.866     31.679  31.477876     1.6761      7.255   308.2234 8.4396e+01     0.7120      1.009      1.464    24.6806 0.0000e+00
      1.040      0.053     7.5618     90.976     31.692  31.490039     1.6906      7.258   308.3721 8.3475e+01     0.6643      1.017      1.475    24.6803 0.0000e+00
      1.055      0.053     7.5697     91.068     31.712  31.508835     1.6897      7.258   308.5969 8.2184e+01     0.6377      1.034      1.501    24.6800 0.0000e+00
      1.071      0.054     7.5742     91.123     31.718  31.514609     1.6840      7.257   308.7898 8.1281e+01     0.6046      1.052      1.527    24.6796 0.0000e+00
      1.083      0.056     7.5744     91.125     31.699  31.496341     1.6674      7.256   308.8113 8.0528e+01     0.5994      1.062      1.539    24.6772 0.0000e+00
      1.095      0.058     7.5684     91.052     31.681  31.478495     1.6365      7.257   308.7714 7.9541e+01     0.6362      1.070      1.553    24.6744 0.0000e+00
      1.113      0.061     7.5579     90.921     31.694  31.489364     1.6134      7.257   308.9091 7.8445e+01     0.6522      1.092      1.584    24.6737 0.0000e+00
      1.130      0.065     7.5465     90.776     31.708  31.500733     1.6076      7.249   309.0137 7.7420e+01     0.6406      1.111      1.611    24.6736 0.0000e+00
      1.144      0.067     7.5324     90.601     31.698  31.488931     1.6128      7.238   308.8323 7.6555e+01     0.6496      1.120      1.625    24.6740 0.0000e+00
      1.160      0.066     7.5146     90.387     31.683  31.473681     1.6311      7.231   308.8663 7.5411e+01     0.6691      1.134      1.645    24.6755 0.0000e+00
      1.183      0.065     7.5000     90.212     31.716  31.506871     1.6446      7.232   309.3385 7.4109e+01     0.6927      1.161      1.684    24.6713 0.0000e+00
      1.204      0.065     7.4950     90.142     31.915  31.699705     1.6385      7.235   309.7235 7.3461e+01     0.6906      1.186      1.720    24.6649 0.0000e+00
      1.216      0.065     7.5005     90.124     32.277  32.026941     1.6125      7.235   309.7363 7.3149e+01     0.6435      1.195      1.733    24.6616 0.0000e+00
      1.225      0.064     7.5165     90.074     32.571  32.224406     1.5777      7.231   309.4933 7.2436e+01     0.6121      1.197      1.737    24.6635 0.0000e+00
      1.241      0.060     7.5398     89.993     32.734  32.245310     1.5577      7.229   309.3662 7.1290e+01     0.6165      1.213      1.761    24.6636 0.0000e+00
      1.264      0.058     7.5570     89.881     32.896  32.279475     1.5545      7.228   309.4903 7.0312e+01     0.6349      1.241      1.802    24.6672 0.0000e+00
      1.283      0.058     7.5607     89.719     33.019  32.319757     1.5580      7.228   309.7890 6.9857e+01     0.7127      1.262      1.831    24.6491 0.0000e+00
      1.294      0.059     7.5777     89.763     33.050  32.287654     1.5629      7.231   310.1387 6.9442e+01     0.8547      1.269      1.840    24.4964 0.0000e+00
      1.303      0.060     7.6557     90.499     33.043  32.208796     1.5675      7.236   310.3630 6.8825e+01     0.9180      1.276      1.851    24.2315 0.0000e+00
      1.315      0.064     7.8207     92.196     32.993  32.064814     1.5683      7.238   310.5215 6.8060e+01     0.8676      1.288      1.869    24.0259 0.0000e+00
      1.331      0.069     8.0600     94.669     32.934  31.880377     1.5632      7.239   310.5921 6.7129e+01     0.7947      1.303      1.889    23.9276 0.0000e+00
      1.352      0.074     8.3393     97.526     32.963  31.756883     1.5698      7.240   310.7012 6.6084e+01     0.7078      1.324      1.921    23.8505 0.0000e+00
      1.377      0.076     8.6280    100.501     33.064  31.714618     1.5934      7.240   310.9801 6.5023e+01     0.6417      1.350      1.958    23.7428 0.0000e+00
      1.401      0.075     8.9062    103.449     33.138  31.686708     1.6098      7.240   311.2967 6.4122e+01     0.6354      1.376      1.996    23.6078 0.0000e+00
      1.421      0.072     9.1611    106.218     33.124  31.609806     1.6114      7.236   311.7763 6.3505e+01     0.6323      1.396      2.025    23.4126 0.0000e+00
      1.435      0.069     9.3825    108.624     33.046  31.483322     1.6124      7.227   312.3054 6.3027e+01     0.6345      1.408      2.042    23.1576 0.0000e+00
      1.446      0.068     9.5634    110.537     32.980  31.364004     1.6222      7.217   312.7029 6.2433e+01     0.6613      1.418      2.056    22.9281 0.0000e+00
      1.461      0.068     9.7084    112.005     32.991  31.310221     1.6291      7.208   312.9691 6.1651e+01     0.6817      1.430      2.075    22.7833 0.0000e+00
      1.481      0.073     9.8253    113.142     33.025  31.277515     1.6311      7.201   313.2006 6.0706e+01     0.6992      1.451      2.105    22.7036 0.0000e+00
      1.503      0.082     9.9071    113.895     33.027  31.222499     1.6471      7.197   313.6958 5.9850e+01     0.7509      1.475      2.140    22.6345 0.0000e+00
      1.523      0.092     9.9504    114.207     33.013  31.153014     1.6654      7.193   314.2234 5.9071e+01     0.8484      1.492      2.164    22.5501 0.0000e+00
      1.545      0.101     9.9690    114.202     32.997  31.072379     1.6775      7.188   314.5902 5.8032e+01     0.9321      1.512      2.193    22.4475 0.0000e+00
      1.571      0.108     9.9677    113.932     33.012  31.009550     1.6925      7.182   315.0331 5.6731e+01     0.9396      1.540      2.233    22.3432 0.0000e+00
      1.601      0.113     9.9426    113.344     32.993  30.901314     1.7277      7.173   315.3627 5.5372e+01     0.8772      1.569      2.276    22.2615 0.0000e+00
      1.635      0.113     9.8981    112.474     32.913  30.716184     1.7821      7.162   315.3921 5.4216e+01     0.8490      1.604      2.326    22.1859 0.0000e+00
      1.668      0.107     9.8346    111.373     32.858  30.549212     1.8077      7.154   315.5601 5.3161e+01     0.8735      1.637      2.374    22.0842 0.0000e+00
      1.698      0.100     9.7451    110.048     32.807  30.406460     1.8160      7.149   316.1039 5.2113e+01     0.8987      1.666      2.418    21.9651 0.0000e+00
      1.723      0.096     9.6332    108.549     32.728  30.260176     1.8552      7.144   316.7183 5.1438e+01     0.9095      1.694      2.457    21.8402 0.0000e+00
      1.739      0.097     9.5118    106.972     32.641  30.114030     1.9055      7.134   317.1387 5.1099e+01     0.8816      1.708      2.477    21.6630 0.0000e+00
      1.754      0.100     9.3988    105.447     32.575  29.972948     1.9272      7.124   317.3144 5.0503e+01     0.8671      1.715      2.489    21.4650 0.0000e+00
      1.776      0.102     9.3106    104.129     32.597  29.887862     1.9242      7.117   317.3808 4.9395e+01     0.8862      1.736      2.519    21.3236 0.0000e+00
      1.811      0.103     9.2447    103.069     32.666  29.847163     1.8978      7.115   317.5104 4.8007e+01     0.8689      1.774      2.573    21.2196 0.0000e+00
      1.851      0.103     9.1951    102.264     32.701  29.798238     1.8465      7.114   317.6767 4.6815e+01     0.8407      1.819      2.638    21.1326 0.0000e+00
      1.882      0.102     9.1710    101.760     32.722  29.740734     1.8099      7.111   317.7567 4.6219e+01     0.8505      1.852      2.685    21.0227 0.0000e+00
      1.899      0.095     9.1740    101.517     32.732  29.659814     1.8034      7.109   317.7906 4.5885e+01     0.8655      1.862      2.702    20.8390 0.0000e+00
      1.914      0.085     9.1924    101.404     32.760  29.581778     1.8146      7.104   317.8276 4.5278e+01     0.8697      1.873      2.717    20.6603 0.0000e+00
      1.935      0.074     9.2148    101.312     32.858  29.559110     1.8438      7.096   317.8601 4.4464e+01     0.8101      1.896      2.750    20.5559 0.0000e+00
      1.959      0.066     9.2283    101.157     32.987  29.576105     1.8719      7.090   318.0112 4.3806e+01     0.6932      1.923      2.790    20.4510 0.0000e+00
      1.979      0.060     9.2242    100.915     33.081  29.596613     1.8779      7.085   318.1918 4.3410e+01     0.6468      1.943      2.819    20.3070 0.0000e+00
      1.992      0.055     9.2038    100.603     33.136  29.616477     1.8806      7.080   318.3237 4.3165e+01     0.6772      1.955      2.836    20.1522 0.0000e+00
      2.001      0.052     9.1689    100.183     33.161  29.625719     1.8858      7.075   318.6595 4.2965e+01     0.7240      1.962      2.847    19.9714 0.0000e+00
      2.009      0.054     9.1211     99.609     33.130  29.581329     1.8856      7.066   318.9824 4.2739e+01     0.7860      1.969      2.857    19.8026 0.0000e+00
      2.018      0.059     9.0601     98.854     33.100  29.524279     1.8877      7.056   318.9581 4.2449e+01     0.8165      1.979      2.869    19.7085 0.0000e+00
      2.031      0.064     8.9895     97.969     33.125  29.507424     1.8836      7.047   318.8818 4.1814e+01     0.8177      1.987      2.882    19.6753 0.0000e+00
      2.054      0.068     8.9232     97.134     33.165  29.504493     1.8453      7.042   318.9203 4.0860e+01     0.8615      2.011      2.917    19.6690 0.0000e+00
      2.082      0.068     8.8714     96.470     33.185  29.488783     1.7831      7.038   318.9936 4.0151e+01     0.8885      2.047      2.968    19.6488 0.0000e+00
      2.103      0.063     8.8330     95.967     33.169  29.444440     1.7470      7.035   319.1659 3.9816e+01     0.8385      2.065      2.996    19.5967 0.0000e+00
      2.115      0.053     8.8054     95.570     33.171  29.412839     1.7486      7.035   319.3688 3.9546e+01     0.8063      2.073      3.008    19.5347 0.0000e+00
      2.126      0.039     8.7841     95.212     33.233  29.424167     1.7746      7.036   319.3819 3.9282e+01     0.8053      2.086      3.026    19.4744 0.0000e+00
      2.134      0.029     8.7608     94.827     33.320  29.454341     1.8040      7.036   319.3240 3.9221e+01     0.7650      2.095      3.039    19.4219 0.0000e+00
      2.138      0.027     8.7332     94.418     33.370  29.460084     1.8096      7.031   319.6147 3.9297e+01     0.7155      2.097      3.041    19.3834 0.0000e+00
      2.139      0.033     8.7034     94.003     33.373  29.430057     1.8066      7.020   319.9720 3.9325e+01     0.6949      2.097      3.043    19.3381 0.0000e+00
      2.141      0.043     8.6706     93.531     33.396  29.408760     1.8127      7.007   319.9442 3.9260e+01     0.7297      2.098      3.044    19.2666 0.0000e+00
      2.149      0.053     8.6348     92.976     33.446  29.393040     1.8199      7.000   319.8816 3.8770e+01     0.8006      2.101      3.047    19.1887 0.0000e+00
      2.171      0.061     8.5975     92.373     33.499  29.366910     1.8196      6.997   319.9886 3.7824e+01     0.8193      2.125      3.082    19.1321 0.0000e+00
      2.201      0.066     8.5604     91.768     33.561  29.346753     1.8101      6.994   320.2054 3.7112e+01     0.8038      2.164      3.138    19.0934 0.0000e+00
      2.222      0.064     8.5254     91.196     33.635  29.339729     1.7962      6.993   320.5249 3.6797e+01     0.8265      2.182      3.165    19.0396 0.0000e+00
      2.234      0.056     8.4899     90.672     33.701  29.345395     1.7627      6.993   320.6679 3.6492e+01     0.8806      2.190      3.175    18.9414 0.0000e+00
      2.246      0.046     8.4449     90.129     33.734  29.351686     1.7074      6.992   320.7301 3.6245e+01     0.9076      2.205      3.198    18.8264 0.0000e+00
      2.254      0.038     8.3904     89.529     33.743  29.352264     1.6696      6.988   320.9321 3.6166e+01     0.8781      2.214      3.211    18.7200 0.0000e+00
      2.258      0.035     8.3311     88.861     33.759  29.352369     1.6641      6.983   321.1315 3.6096e+01     0.8597      2.215      3.213    18.6010 0.0000e+00
      2.263      0.037     8.2658     88.092     33.791  29.352951     1.6775      6.978   321.5063 3.5865e+01     0.8991      2.216      3.215    18.5131 0.0000e+00
      2.273      0.047     8.1946     87.219     33.848  29.359256     1.6937      6.971   322.2802 3.5492e+01     0.9276      2.228      3.232    18.4893 0.0000e+00
      2.287      0.062     8.1263     86.326     33.929  29.365051     1.6956      6.963   323.1759 3.5200e+01     0.8991      2.246      3.258    18.4960 0.0000e+00
      2.299      0.079     8.0722     85.532     34.021  29.359431     1.6816      6.955   323.7324 3.4880e+01     0.8606      2.253      3.268    18.4782 0.0000e+00
      2.318      0.090     8.0327     84.855     34.133  29.354693     1.6897      6.950   324.0183 3.4159e+01     0.8591      2.265      3.285    18.4350 0.0000e+00
      2.351      0.097     8.0000     84.254     34.269  29.371138     1.7293      6.947   324.3949 3.3189e+01     0.8805      2.303      3.341    18.3781 0.0000e+00
      2.389      0.102     7.9657     83.689     34.434  29.431138     1.7466      6.942   324.7585 3.2457e+01     0.8741      2.348      3.406    18.2789 0.0000e+00
      2.418      0.107     7.9253     83.102     34.601  29.508501     1.7429      6.934   324.8011 3.2076e+01     0.8426      2.376      3.446    18.1561 0.0000e+00
      2.436      0.109     7.8785     82.433     34.729  29.544407     1.7481      6.927   324.5661 3.1761e+01     0.8351      2.389      3.464    17.9984 0.0000e+00
      2.455      0.104     7.8226     81.639     34.834  29.547668     1.7547      6.920   324.4125 3.1161e+01     0.8757      2.402      3.483    17.8341 0.0000e+00
      2.485      0.098     7.7492     80.677     34.931  29.547820     1.7590      6.915   324.5780 3.0361e+01     0.9064      2.434      3.530    17.7200 0.0000e+00
      2.520      0.093     7.6572     79.573     35.002  29.546138     1.7540      6.912   325.0187 2.9752e+01     0.8708      2.475      3.589    17.6423 0.0000e+00
      2.549      0.088     7.5547     78.413     35.027  29.527252     1.7124      6.908   325.4388 2.9422e+01     0.9027      2.506      3.634    17.5443 0.0000e+00
      2.565      0.078     7.4473     77.244     35.034  29.509937     1.6429      6.904   325.3555 2.9175e+01     1.0485      2.517      3.651    17.4042 0.0000e+00
      2.578      0.063     7.3418     76.114     35.074  29.527259     1.6110      6.902   324.8713 2.8801e+01     1.1383      2.524      3.661    17.2782 0.0000e+00
      2.595      0.050     7.2452     75.070     35.119  29.546155     1.6206      6.898   324.8337 2.8421e+01     1.1339      2.548      3.695    17.1930 0.0000e+00
      2.610      0.046     7.1584     74.127     35.144  29.547876     1.6219      6.891   325.3307 2.8297e+01     1.1178      2.564      3.718    17.1353 0.0000e+00
      2.615      0.050     7.0786     73.266     35.163  29.548041     1.6177      6.881   325.8043 2.8307e+01     1.0657      2.564      3.719    17.1069 0.0000e+00
      2.617      0.057     7.0073     72.487     35.186  29.548130     1.6243      6.874   326.1719 2.8102e+01     0.9612      2.565      3.720    17.0922 0.0000e+00
      2.627      0.065     6.9489     71.820     35.223  29.548936     1.6285      6.870   326.4191 2.7562e+01     0.8914      2.569      3.727    17.0624 0.0000e+00
      2.652      0.077     6.9011     71.228     35.288  29.557751     1.6224      6.867   326.2988 2.6977e+01     0.8626      2.600      3.770    17.0298 0.0000e+00
      2.682      0.089     6.8661     70.719     35.413  29.591141     1.6329      6.862   325.8355 2.6575e+01     0.8881      2.636      3.822    17.0139 0.0000e+00
      2.706      0.096     6.8466     70.326     35.576  29.635050     1.6639      6.859   325.4644 2.6193e+01     0.9863      2.653      3.847    16.9899 0.0000e+00
      2.729      0.095     6.8362     70.024     35.701  29.643999     1.6849      6.858   325.4251 2.5660e+01     1.0729      2.673      3.876    16.9485 0.0000e+00
      2.759      0.090     6.8288     69.797     35.779  29.635721     1.6943      6.857   325.5319 2.5125e+01     1.0812      2.707      3.926    16.8895 0.0000e+00
      2.785      0.085     6.8193     69.601     35.870  29.661879     1.6947      6.852   325.6374 2.4799e+01     0.9944      2.736      3.969    16.7892 0.0000e+00
      2.801      0.082     6.8015     69.330     35.975  29.706199     1.6805      6.843   325.9263 2.4579e+01     0.8778      2.747      3.985    16.6486 0.0000e+00
      2.814      0.077     6.7735     68.924     36.073  29.727002     1.6699      6.836   326.3580 2.4248e+01     0.8312      2.757      3.997    16.5002 0.0000e+00
      2.833      0.072     6.7395     68.424     36.162  29.722822     1.6768      6.831   326.6415 2.3806e+01     0.8582      2.776      4.025    16.3976 0.0000e+00
      2.858      0.070     6.6970     67.846     36.246  29.719062     1.6813      6.827   326.7727 2.3479e+01     0.8988      2.805      4.069    16.3397 0.0000e+00
      2.878      0.070     6.6427     67.166     36.359  29.744966     1.6776      6.824   326.7394 2.3315e+01     0.9261      2.827      4.099    16.2944 0.0000e+00
      2.891      0.070     6.5838     66.433     36.491  29.781925     1.6779      6.820   326.6690 2.3078e+01     0.9435      2.833      4.109    16.2136 0.0000e+00
      2.906      0.065     6.5209     65.656     36.585  29.784812     1.6758      6.816   326.6961 2.2762e+01     0.9267      2.849      4.131    16.0861 0.0000e+00
      2.925      0.060     6.4510     64.822     36.664  29.779783     1.6708      6.813   326.9811 2.2501e+01     0.8760      2.869      4.160    15.9874 0.0000e+00
      2.943      0.058     6.3792     63.992     36.742  29.784533     1.6721      6.810   327.5335 2.2284e+01     0.8490      2.887      4.187    15.9064 0.0000e+00
      2.958      0.058     6.3060     63.176     36.789  29.778672     1.6830      6.806   327.7820 2.2096e+01     0.8443      2.902      4.209    15.8043 0.0000e+00
      2.968      0.058     6.2261     62.313     36.824  29.772375     1.6925      6.801   327.8359 2.1932e+01     0.8494      2.911      4.222    15.6994 0.0000e+00
      2.978      0.059     6.1415     61.409     36.863  29.771858     1.6858      6.796   327.9268 2.1736e+01     0.8805      2.918      4.233    15.6025 0.0000e+00
      2.993      0.061     6.0560     60.491     36.907  29.772383     1.6936      6.791   328.0212 2.1464e+01     0.9451      2.933      4.254    15.5220 0.0000e+00
      3.013      0.066     5.9692     59.538     36.978  29.778673     1.7317      6.785   328.4597 2.1200e+01     1.0208      2.957      4.287    15.4625 0.0000e+00
      3.031      0.072     5.8875     58.585     37.086  29.784352     1.7513      6.777   329.0128 2.0968e+01     1.0634      2.973      4.312    15.4222 0.0000e+00
      3.049      0.075     5.8151     57.695     37.204  29.777446     1.7471      6.768   329.2887 2.0713e+01     1.0941      2.989      4.336    15.3776 0.0000e+00
      3.069      0.073     5.7482     56.868     37.304  29.758559     1.7632      6.761   329.3008 2.0444e+01     1.0561      3.009      4.363    15.3347 0.0000e+00
      3.090      0.066     5.6875     56.132     37.393  29.746389     1.7997      6.758   329.1588 2.0133e+01     0.9386      3.028      4.391    15.2825 0.0000e+00
      3.114      0.061     5.6369     55.542     37.477  29.757204     1.8197      6.755   329.3788 1.9855e+01     0.8954      3.057      4.434    15.1614 0.0000e+00
      3.129      0.061     5.5942     55.066     37.527  29.762243     1.8215      6.748   330.1530 1.9756e+01     0.8992      3.073      4.458    15.0123 0.0000e+00
      3.134      0.066     5.5614     54.674     37.558  29.743775     1.8120      6.738   330.6901 1.9751e+01     0.9234      3.073      4.457    14.8782 0.0000e+00
      3.139      0.071     5.5404     54.347     37.631  29.724374     1.7965      6.729   330.6249 1.9574e+01     1.0356      3.074      4.458    14.7567 0.0000e+00
      3.156      0.074     5.5218     54.009     37.749  29.718098     1.8000      6.724   330.4831 1.9162e+01     1.1266      3.087      4.477    14.6842 0.0000e+00
      3.189      0.074     5.4904     53.569     37.874  29.731272     1.8178      6.722   330.5249 1.8729e+01     1.1396      3.127      4.535    14.6561 0.0000e+00
      3.225      0.072     5.4421     53.019     37.972  29.756556     1.8178      6.721   330.8714 1.8486e+01     1.1308      3.170      4.597    14.6139 0.0000e+00
      3.246      0.068     5.3888     52.461     38.022  29.769723     1.8008      6.717   331.4896 1.8439e+01     1.1120      3.188      4.623    14.5061 0.0000e+00
      3.252      0.067     5.3330     51.903     38.027  29.763426     1.7965      6.709   331.8913 1.8431e+01     1.0953      3.190      4.626    14.3491 0.0000e+00
      3.254      0.068     5.2739     51.304     38.022  29.743917     1.8020      6.703   331.8562 1.8406e+01     1.0817      3.190      4.627    14.2269 0.0000e+00
      3.260      0.072     5.2187     50.695     38.060  29.724337     1.8120      6.702   331.6680 1.8238e+01     1.0090      3.189      4.625    14.1683 0.0000e+00
      3.284      0.080     5.1664     50.077     38.149  29.717151     1.8250      6.702   331.7662 1.7820e+01     0.8873      3.212      4.657    14.1362 0.0000e+00
      3.324      0.089     5.1134     49.462     38.244  29.720446     1.8218      6.701   331.9256 1.7460e+01     0.8304      3.266      4.736    14.1320 0.0000e+00
      3.356      0.096     5.0641     48.900     38.378  29.764087     1.8099      6.700   331.7876 1.7300e+01     0.8404      3.298      4.783    14.1327 0.0000e+00
      3.373      0.099     5.0223     48.388     38.608  29.863716     1.8101      6.699   331.6464 1.7154e+01     0.8553      3.306      4.795    14.0625 0.0000e+00
      3.390      0.096     4.9858     47.884     38.894  29.972375     1.8326      6.697   331.5959 1.6929e+01     0.8581      3.322      4.818    13.9378 0.0000e+00
      3.414      0.091     4.9517     47.388     39.171  30.061646     1.8619      6.694   331.6064 1.6664e+01     0.8737      3.348      4.854    13.8434 0.0000e+00
      3.441      0.088     4.9153     46.896     39.386  30.117356     1.8706      6.691   331.9456 1.6399e+01     0.8922      3.375      4.894    13.7845 0.0000e+00
      3.467      0.089     4.8764     46.416     39.521  30.137776     1.8745      6.684   332.5138 1.6142e+01     0.8673      3.400      4.932    13.6940 0.0000e+00
      3.491      0.093     4.8437     46.023     39.661  30.181441     1.8812      6.671   332.7114 1.5977e+01     0.8470      3.427      4.971    13.5334 0.0000e+00
      3.508      0.095     4.8133     45.658     39.848  30.264196     1.8779      6.658   332.6144 1.5867e+01     0.8611      3.442      4.993    13.3580 0.0000e+00
      3.524      0.093     4.7746     45.210     39.997  30.312704     1.8804      6.650   332.7173 1.5617e+01     0.8541      3.448      5.003    13.2185 0.0000e+00
      3.554      0.089     4.7283     44.695     40.090  30.323315     1.8828      6.646   332.8373 1.5256e+01     0.8237      3.480      5.048    13.1142 0.0000e+00
      3.590      0.083     4.6755     44.140     40.157  30.328922     1.8795      6.644   332.8604 1.5017e+01     0.8294      3.528      5.118    13.0456 0.0000e+00
      3.615      0.076     4.6130     43.513     40.182  30.316945     1.8781      6.643   332.9112 1.4917e+01     0.8614      3.550      5.150    12.9775 0.0000e+00
      3.626      0.066     4.5428     42.830     40.190  30.305488     1.8749      6.641   332.8490 1.4828e+01     0.8750      3.554      5.154    12.8884 0.0000e+00
      3.636      0.054     4.4683     42.118     40.216  30.317384     1.8859      6.640   332.7096 1.4738e+01     0.8720      3.566      5.173    12.8079 0.0000e+00
      3.646      0.042     4.3903     41.380     40.241  30.333750     1.9297      6.639   332.4305 1.4675e+01     0.8873      3.576      5.188    12.7531 0.0000e+00
      3.656      0.035     4.3125     40.650     40.211  30.312850     1.9905      6.638   331.9699 1.4611e+01     0.9063      3.584      5.198    12.7169 0.0000e+00
      3.667      0.029     4.2426     40.000     40.122  30.255209     2.0243      6.636   331.7863 1.4538e+01     0.8885      3.598      5.217    12.6946 0.0000e+00
      3.677      0.023     4.1835     39.464     40.034  30.208389     2.0258      6.636   331.8461 1.4499e+01     0.8548      3.609      5.233    12.6887 0.0000e+00
      3.681      0.017     4.1323     39.021     39.963  30.191334     2.0540      6.635   331.9181 1.4490e+01     0.8955      3.611      5.237    12.6860 0.0000e+00
      3.682      0.012     4.0886     38.665     39.875  30.176049     2.1172      6.633   332.0550 1.4482e+01     1.0155      3.611      5.237    12.6864 0.0000e+00
      3.682      0.008     4.0531     38.386     39.771  30.150647     2.1468      6.631   331.9527 1.4467e+01     1.0845      3.611      5.237    12.6977 0.0000e+00
      3.683      0.008     4.0272     38.185     39.701  30.138287     2.1449      6.630   331.6280 1.4461e+01     1.0891      3.611      5.237    12.7168 0.0000e+00
      3.684      0.015     4.0146     38.095     39.686  30.153662     2.1399      6.627   331.5706 1.4474e+01     1.0706      3.612      5.239    12.7629 0.0000e+00
      3.686      0.028     4.0166     38.124     39.748  30.209575     2.1139      6.621   331.8611 1.4487e+01     1.0134      3.614      5.242    12.8354 0.0000e+00
      3.689      0.045     4.0331     38.253     39.909  30.306278     2.0881      6.613   332.3002 1.4434e+01     0.9161      3.615      5.243    12.9089 0.0000e+00
      3.699      0.061     4.0633     38.465     40.167  30.433761     2.0860      6.603   332.7502 1.4251e+01     0.8404      3.623      5.254    12.9582 0.0000e+00
      3.720      0.076     4.1040     38.748     40.439  30.544232     2.0882      6.593   333.1728 1.4002e+01     0.8305      3.647      5.290    12.9931 0.0000e+00
      3.750      0.087     4.1493     39.075     40.669  30.625739     2.0862      6.584   333.4518 1.3755e+01     0.8567      3.676      5.332    13.0161 0.0000e+00
      3.780      0.097     4.1930     39.399     40.902  30.720558     2.0811      6.575   333.5415 1.3554e+01     0.8832      3.709      5.380    12.9868 0.0000e+00
      3.805      0.101     4.2325     39.666     41.137  30.801464     2.0725      6.567   333.6554 1.3433e+01     0.8769      3.736      5.420    12.8949 0.0000e+00
      3.825      0.099     4.2635     39.814     41.366  30.841759     2.0737      6.560   333.8820 1.3288e+01     0.8414      3.748      5.435    12.7602 0.0000e+00
      3.849      0.096     4.2762     39.774     41.543  30.826568     2.1424      6.552   334.3894 1.3054e+01     0.8196      3.772      5.469    12.6386 0.0000e+00
      3.880      0.096     4.2646     39.526     41.606  30.744636     2.2692      6.542   335.0571 1.2836e+01     0.8276      3.808      5.524    12.5579 0.0000e+00
      3.905      0.101     4.2317     39.106     41.574  30.613100     2.3383      6.531   336.0187 1.2724e+01     0.8457      3.834      5.561    12.4558 0.0000e+00
      3.921      0.102     4.1842     38.552     41.576  30.506235     2.3435      6.523   337.2403 1.2601e+01     0.8562      3.843      5.574    12.2857 0.0000e+00
      3.944      0.096     4.1269     37.915     41.667  30.468555     2.3511      6.520   337.6960 1.2317e+01     0.8924      3.859      5.597    12.0876 0.0000e+00
      3.981      0.084     4.0653     37.270     41.781  30.474935     2.3747      6.520   337.3989 1.2035e+01     0.9789      3.906      5.664    11.9315 0.0000e+00
      4.015      0.070     4.0073     36.701     41.893  30.519782     2.3986      6.520   336.9171 1.1932e+01     1.0475      3.948      5.726    11.8206 0.0000e+00
      4.030      0.055     3.9636     36.305     41.952  30.566204     2.4107      6.520   336.6027 1.1916e+01     1.0803      3.957      5.738    11.6865 0.0000e+00
      4.033      0.038     3.9494     36.212     41.935  30.591667     2.4661      6.520   336.9527 1.1907e+01     1.1016      3.955      5.736    11.5442 0.0000e+00
      4.034      0.027     3.9763     36.519     41.827  30.573655     2.5806      6.516   337.9661 1.1893e+01     1.0913      3.956      5.737    11.4502 0.0000e+00
      4.034      0.031     4.0543     37.289     41.621  30.475514     2.6560      6.507   338.8742 1.1886e+01     1.0785      3.956      5.737    11.4051 0.0000e+00
      4.035      0.047     4.1891     38.514     41.476  30.357738     2.6700      6.497   339.1567 1.1894e+01     1.0982      3.956      5.738    11.4135 0.0000e+00
      4.040      0.067     4.3595     39.978     41.513  30.292760     2.6673      6.491   339.1454 1.1758e+01     1.1166      3.956      5.737    11.4614 0.0000e+00
      4.063      0.084     4.5299     41.401     41.637  30.261341     2.6594      6.488   338.9092 1.1394e+01     1.1175      3.975      5.764    11.5419 0.0000e+00
      4.104      0.098     4.6743     42.598     41.742  30.231741     2.6577      6.487   338.5383 1.1044e+01     1.1090      4.028      5.843    11.6409 0.0000e+00
      4.141      0.108     4.7808     43.466     41.801  30.188790     2.6646      6.487   338.3603 1.0879e+01     1.1059      4.069      5.903    11.6376 0.0000e+00
      4.165      0.112     4.8508     43.999     41.827  30.122979     2.6785      6.487   338.3058 1.0740e+01     1.1101      4.083      5.922    11.4928 0.0000e+00
      4.187      0.108     4.9020     44.358     41.874  30.071007     2.7523      6.487   338.3089 1.0524e+01     1.1299      4.105      5.952    11.3243 0.0000e+00
      4.214      0.103     4.9622     44.813     41.971  30.068371     2.8863      6.487   338.4843 1.0305e+01     1.2227      4.133      5.994    11.1995 0.0000e+00
      4.241      0.102     5.0558     45.598     42.070  30.091030     2.9661      6.484   338.8783 1.0100e+01     1.3167      4.160      6.034    11.1103 0.0000e+00
      4.268      0.103     5.2031     46.895     42.105  30.090888     2.9819      6.478   339.3726 9.8830e+00     1.3198      4.185      6.071    11.0101 0.0000e+00
      4.293      0.103     5.4197     48.828     42.091  30.066629     3.0128      6.472   339.6425 9.6875e+00     1.3527      4.210      6.107    10.8954 0.0000e+00
      4.319      0.099     5.7043     51.365     42.096  30.051733     3.0635      6.467   339.6468 9.4885e+00     1.4692      4.236      6.143    10.8080 0.0000e+00
      4.348      0.096     6.0303     54.267     42.108  30.037769     3.0897      6.463   339.6826 9.2534e+00     1.5387      4.264      6.184    10.7484 0.0000e+00
      4.374      0.096     6.3647     57.242     42.120  30.024791     3.0911      6.459   339.7316 9.0677e+00     1.5215      4.294      6.228    10.7244 0.0000e+00
      4.394      0.095     6.6809     60.050     42.147  30.021806     3.0347      6.456   339.8084 8.9300e+00     1.5051      4.310      6.251    10.7200 0.0000e+00
      4.413      0.094     6.9559     62.485     42.149  30.001647     2.9220      6.454   340.0093 8.7191e+00     1.5244      4.321      6.269    10.6928 0.0000e+00
      4.438      0.092     7.1838     64.503     42.130  29.971551     2.8594      6.453   340.0958 8.4627e+00     1.5409      4.351      6.310    10.6630 0.0000e+00
      4.467      0.093     7.3685     66.141     42.151  29.975435     2.8569      6.450   340.1656 8.2597e+00     1.5521      4.384      6.358    10.6400 0.0000e+00
      4.492      0.097     7.5054     67.353     42.177  29.985094     2.8643      6.445   340.5098 8.1142e+00     1.5383      4.408      6.393    10.6122 0.0000e+00
      4.511      0.100     7.6007     68.192     42.155  29.961312     2.8567      6.440   340.9014 7.9772e+00     1.4953      4.423      6.415    10.5852 0.0000e+00
      4.533      0.100     7.6712     68.804     42.143  29.941898     2.8479      6.438   341.1149 7.7983e+00     1.4908      4.442      6.442    10.5658 0.0000e+00
      4.561      0.098     7.7247     69.258     42.161  29.940873     2.8591      6.437   341.2835 7.5632e+00     1.5138      4.472      6.485    10.5544 0.0000e+00
      4.593      0.095     7.7647     69.593     42.190  29.948901     2.8634      6.436   341.5634 7.3239e+00     1.5296      4.505      6.534    10.5439 0.0000e+00
      4.622      0.093     7.7947     69.844     42.240  29.975443     2.8262      6.435   341.8323 7.1496e+00     1.5899      4.535      6.579    10.5356 0.0000e+00
      4.644      0.089     7.8130     69.994     42.295  30.007759     2.7674      6.433   341.9533 7.0415e+00     1.6929      4.556      6.609    10.5231 0.0000e+00
      4.659      0.084     7.8215     70.062     42.322  30.022089     2.7411      6.431   342.0801 6.9283e+00     1.7680      4.569      6.626    10.5041 0.0000e+00
      4.675      0.081     7.8296     70.130     42.326  30.021679     2.7377      6.430   342.3330 6.7589e+00     1.7961      4.581      6.644    10.4889 0.0000e+00
      4.697      0.082     7.8391     70.211     42.302  30.002799     2.7451      6.428   342.8599 6.5897e+00     1.7581      4.607      6.681    10.4792 0.0000e+00
      4.722      0.088     7.8481     70.287     42.278  29.984343     2.7656      6.422   343.5473 6.4693e+00     1.7052      4.634      6.720    10.4709 0.0000e+00
      4.742      0.098     7.8616     70.404     42.288  29.989043     2.7746      6.416   344.0190 6.3277e+00     1.7056      4.650      6.744    10.4650 0.0000e+00
      4.763      0.105     7.8775     70.541     42.302  29.996116     2.7713      6.411   344.1753 6.1104e+00     1.7330      4.667      6.770    10.4623 0.0000e+00
      4.791      0.107     7.8868     70.621     42.319  30.006346     2.7158      6.408   344.1467 5.8694e+00     1.7620      4.695      6.811    10.4609 0.0000e+00
      4.827      0.106     7.8911     70.657     42.291  29.985723     2.5999      6.406   344.3612 5.6525e+00     1.7510      4.734      6.865    10.4589 0.0000e+00
      4.862      0.106     7.8933     70.675     42.223  29.937283     2.5289      6.404   344.7901 5.4817e+00     1.7225      4.771      6.920    10.4555 0.0000e+00
      4.890      0.106     7.8899     70.644     42.213  29.928715     2.5278      6.401   344.9447 5.3893e+00     1.7221      4.801      6.962    10.4519 0.0000e+00
      4.906      0.103     7.8801     70.554     42.239  29.945627     2.5213      6.398   344.9398 5.3188e+00     1.7769      4.812      6.979    10.4492 0.0000e+00
      4.923      0.097     7.8667     70.430     42.249  29.951244     2.4881      6.397   344.9893 5.1755e+00     1.8668      4.822      6.994    10.4488 0.0000e+00
      4.952      0.093     7.8527     70.304     42.224  29.933119     2.4657      6.396   345.1133 4.9934e+00     1.8933      4.856      7.042    10.4487 0.0000e+00
      4.985      0.094     7.8417     70.204     42.202  29.917005     2.4620      6.394   345.3193 4.8606e+00     1.8828      4.894      7.098    10.4477 0.0000e+00
      5.010      0.099     7.8359     70.149     42.246  29.946926     2.4436      6.392   345.4153 4.7821e+00     1.8924      4.916      7.130    10.4460 0.0000e+00
      5.027      0.101     7.8334     70.123     42.292  29.977363     2.4087      6.390   345.3283 4.7021e+00     1.9180      4.927      7.147    10.4438 0.0000e+00
      5.048      0.097     7.8343     70.127     42.281  29.967482     2.3983      6.389   345.2134 4.5733e+00     1.9485      4.944      7.171    10.4427 0.0000e+00
      5.078      0.090     7.8395     70.169     42.266  29.954465     2.4102      6.390   345.1446 4.4160e+00     1.9563      4.978      7.219    10.4425 0.0000e+00
      5.111      0.080     7.8456     70.222     42.256  29.946984     2.4050      6.391   345.0984 4.2939e+00     1.9508      5.016      7.274    10.4413 0.0000e+00
      5.136      0.068     7.8518     70.280     42.245  29.940532     2.4002      6.392   345.0856 4.2326e+00     2.0044      5.041      7.312    10.4384 0.0000e+00
      5.148      0.054     7.8573     70.335     42.241  29.939959     2.4074      6.393   345.0753 4.2168e+00     2.0849      5.051      7.327    10.4359 0.0000e+00
      5.152      0.042     7.8606     70.368     42.239  29.940061     2.4001      6.394   345.0605 4.2120e+00     2.1006      5.053      7.329    10.4332 0.0000e+00
      5.154      0.036     7.8634     70.394     42.240  29.941775     2.3944      6.393   345.1640 4.1970e+00     2.1336      5.054      7.331    10.4313 0.0000e+00
      5.158      0.035     7.8682     70.436     42.267  29.960685     2.4213      6.393   345.5528 4.1664e+00     2.2096      5.057      7.335    10.4336 0.0000e+00
      5.168      0.040     7.8729     70.476     42.294  29.978175     2.4587      6.393   345.9754 4.1105e+00     2.2259      5.064      7.345    10.4377 0.0000e+00
      5.183      0.049     7.8742     70.483     42.275  29.962720     2.4695      6.392   346.0583 4.0428e+00     2.1771      5.082      7.370    10.4393 0.0000e+00
      5.200      0.059     7.8732     70.470     42.281  29.964339     2.4692      6.390   346.0383 3.9864e+00     2.1383      5.102      7.399    10.4400 0.0000e+00
      5.214      0.067     7.8715     70.450     42.331  29.997742     2.5191      6.389   346.2500 3.9208e+00     2.0927      5.114      7.417    10.4404 0.0000e+00
      5.229      0.072     7.8660     70.396     42.317  29.985553     2.6131      6.388   346.6390 3.8245e+00     1.9920      5.125      7.432    10.4384 0.0000e+00
      5.249      0.077     7.8615     70.353     42.260  29.943972     2.6687      6.385   347.0422 3.7099e+00     1.9287      5.145      7.462    10.4354 0.0000e+00
      5.274      0.083     7.8632     70.367     42.255  29.939533     2.6777      6.382   347.4257 3.6085e+00     1.9370      5.173      7.504    10.4327 0.0000e+00
      5.295      0.088     7.8662     70.393     42.245  29.931887     2.6562      6.379   347.7476 3.5409e+00     2.0012      5.193      7.532    10.4293 0.0000e+00
      5.315      0.091     7.8688     70.415     42.222  29.915031     2.6202      6.376   347.8370 3.4686e+00     2.1253      5.211      7.557    10.4267 0.0000e+00
      5.339      0.090     7.8723     70.444     42.240  29.926241     2.6112      6.374   347.7324 3.3704e+00     2.1859      5.235      7.593    10.4252 0.0000e+00
      5.366      0.086     7.8785     70.496     42.262  29.940406     2.6110      6.373   347.9453 3.2699e+00     2.1543      5.262      7.633    10.4245 0.0000e+00
      5.391      0.086     7.8857     70.559     42.290  29.959287     2.5995      6.370   348.5179 3.1929e+00     2.1398      5.289      7.670    10.4249 0.0000e+00
      5.411      0.089     7.8902     70.597     42.298  29.964011     2.6008      6.363   348.8922 3.1496e+00     2.1624      5.309      7.700    10.4236 0.0000e+00
      5.426      0.093     7.8901     70.594     42.257  29.934009     2.6178      6.355   349.0288 3.1116e+00     2.1836      5.322      7.719    10.4213 0.0000e+00
      5.443      0.096     7.8894     70.587     42.229  29.914066     2.6208      6.350   349.2238 3.0445e+00     2.1836      5.333      7.735    10.4196 0.0000e+00
      5.471      0.098     7.8903     70.596     42.228  29.913403     2.6095      6.347   349.6148 2.9379e+00     2.1612      5.361      7.775    10.4184 0.0000e+00
      5.508      0.104     7.8884     70.581     42.244  29.925990     2.5920      6.342   350.0570 2.8327e+00     2.0965      5.405      7.839    10.4175 0.0000e+00
      5.540      0.113     7.8829     70.532     42.263  29.939249     2.5650      6.338   350.3535 2.7687e+00     2.0111      5.439      7.888    10.4159 0.0000e+00
      5.560      0.120     7.8765     70.475     42.273  29.946702     2.5505      6.336   350.1895 2.7102e+00     1.9536      5.452      7.908    10.4153 0.0000e+00
      5.582      0.121     7.8710     70.428     42.280  29.952594     2.5440      6.335   349.5364 2.6210e+00     1.9189      5.467      7.929    10.4165 0.0000e+00
      5.617      0.117     7.8663     70.388     42.270  29.946988     2.5513      6.335   349.1680 2.5174e+00     1.9574      5.506      7.986    10.4181 0.0000e+00
      5.659      0.113     7.8650     70.378     42.262  29.942421     2.5835      6.336   349.2620 2.4270e+00     2.0840      5.553      8.054    10.4180 0.0000e+00
      5.694      0.108     7.8676     70.403     42.288  29.960890     2.6022      6.337   349.4692 2.3579e+00     2.1688      5.589      8.106    10.4175 0.0000e+00
      5.718      0.099     7.8685     70.412     42.314  29.979772     2.6029      6.337   349.6937 2.3054e+00     2.1588      5.612      8.138    10.4189 0.0000e+00
      5.734      0.088     7.8679     70.407     42.314  29.980197     2.6019      6.337   349.7403 2.2619e+00     2.1458      5.621      8.152    10.4201 0.0000e+00
      5.752      0.082     7.8688     70.415     42.294  29.966025     2.5985      6.335   349.6875 2.2192e+00     2.1639      5.639      8.178    10.4227 0.0000e+00
      5.772      0.083     7.8690     70.415     42.252  29.935431     2.5985      6.333   349.7432 2.1762e+00     2.1642      5.663      8.214    10.4234 0.0000e+00
      5.789      0.089     7.8663     70.388     42.243  29.927823     2.6023      6.331   349.8119 2.1338e+00     2.1492      5.676      8.233    10.4220 0.0000e+00
      5.809      0.094     7.8620     70.348     42.258  29.937546     2.5889      6.329   349.9155 2.0754e+00     2.1039      5.692      8.255    10.4233 0.0000e+00
      5.840      0.100     7.8572     70.304     42.243  29.925980     2.5561      6.325   350.2224 2.0034e+00     2.0140      5.726      8.304    10.4243 0.0000e+00
      5.873      0.108     7.8527     70.262     42.229  29.914981     2.5364      6.320   350.6830 1.9529e+00     1.9783      5.765      8.362    10.4224 0.0000e+00
      5.898      0.118     7.8492     70.227     42.255  29.931575     2.5352      6.316   351.1829 1.9168e+00     2.0075      5.785      8.391    10.4200 0.0000e+00
      5.920      0.125     7.8448     70.186     42.262  29.936100     2.5506      6.313   351.5335 1.8685e+00     2.0002      5.800      8.412    10.4193 0.0000e+00
      5.951      0.129     7.8391     70.136     42.219  29.906175     2.5758      6.312   351.5674 1.7945e+00     1.9522      5.833      8.460    10.4195 0.0000e+00
      5.992      0.129     7.8367     70.116     42.192  29.887285     2.5908      6.312   351.4207 1.7021e+00     1.9457      5.877      8.524    10.4183 0.0000e+00
      6.034      0.128     7.8378     70.125     42.207  29.898225     2.6038      6.312   351.2224 1.6226e+00     1.9821      5.918      8.584    10.4152 0.0000e+00
      6.070      0.125     7.8384     70.130     42.227  29.911428     2.6143      6.312   351.1486 1.5759e+00     1.9961      5.957      8.640    10.4137 0.0000e+00
      6.098      0.118     7.8400     70.142     42.241  29.919917     2.5977      6.312   351.5610 1.5581e+00     2.0233      5.983      8.676    10.4150 0.0000e+00
      6.121      0.111     7.8446     70.181     42.266  29.937349     2.5594      6.311   352.2514 1.5327e+00     2.0973      5.999      8.700    10.4162 0.0000e+00
      6.146      0.106     7.8534     70.258     42.259  29.931680     2.5374      6.310   352.5260 1.4870e+00     2.1588      6.026      8.740    10.4164 0.0000e+00
      6.173      0.104     7.8619     70.335     42.235  29.914882     2.5338      6.310   352.3865 1.4411e+00     2.1871      6.055      8.782    10.4155 0.0000e+00
      6.199      0.103     7.8658     70.372     42.248  29.924763     2.5249      6.310   352.2846 1.3939e+00     2.1949      6.078      8.815    10.4141 0.0000e+00
      6.229      0.104     7.8677     70.389     42.247  29.924138     2.5216      6.309   352.4126 1.3494e+00     2.1923      6.108      8.859    10.4130 0.0000e+00
      6.258      0.105     7.8692     70.401     42.224  29.907331     2.5306      6.306   352.7301 1.3174e+00     2.1859      6.140      8.907    10.4118 0.0000e+00
      6.280      0.107     7.8718     70.423     42.231  29.912064     2.5325      6.303   353.1125 1.2851e+00     2.1788      6.159      8.933    10.4119 0.0000e+00
      6.300      0.111     7.8746     70.448     42.240  29.917846     2.5441      6.302   353.5081 1.2386e+00     2.1675      6.175      8.955    10.4129 0.0000e+00
      6.330      0.116     7.8760     70.459     42.235  29.913743     2.5798      6.300   353.8134 1.1821e+00     2.1409      6.206      9.001    10.4135 0.0000e+00
      6.365      0.122     7.8793     70.489     42.252  29.925961     2.6063      6.298   353.9642 1.1380e+00     2.1318      6.244      9.057    10.4131 0.0000e+00
      6.397      0.128     7.8866     70.554     42.270  29.938556     2.6064      6.297   354.1274 1.1068e+00     2.1479      6.273      9.098    10.4120 0.0000e+00
      6.431      0.134     7.8947     70.625     42.272  29.939021     2.5815      6.295   354.3241 1.0728e+00     2.1531      6.305      9.144    10.4113 0.0000e+00
      6.468      0.138     7.9007     70.677     42.262  29.931578     2.5441      6.293   354.1047 1.0409e+00     2.1644      6.346      9.203    10.4110 0.0000e+00
      6.501      0.139     7.9040     70.707     42.235  29.912063     2.5215      6.293   353.5404 1.0065e+00     2.1929      6.376      9.248    10.4109 0.0000e+00
      6.535      0.139     7.9036     70.704     42.209  29.893591     2.5196      6.293   353.3514 9.6355e-01     2.1925      6.404      9.288    10.4110 0.0000e+00
      6.575      0.135     7.9015     70.686     42.215  29.898748     2.5388      6.294   353.4551 9.2542e-01     2.1281      6.447      9.351    10.4102 0.0000e+00
      6.615      0.126     7.9004     70.677     42.231  29.910909     2.5701      6.295   353.5893 8.9644e-01     2.0247      6.490      9.413    10.4090 0.0000e+00
      6.649      0.115     7.8980     70.656     42.235  29.913615     2.5852      6.295   353.7699 8.6998e-01     1.9500      6.523      9.460    10.4089 0.0000e+00
      6.675      0.104     7.8940     70.620     42.260  29.931463     2.5840      6.295   353.3156 8.3997e-01     1.9270      6.547      9.495    10.4096 0.0000e+00
      6.696      0.093     7.8895     70.580     42.266  29.936196     2.5836      6.295   352.4842 8.1583e-01     1.9296      6.568      9.524    10.4105 0.0000e+00
      6.714      0.085     7.8823     70.515     42.226  29.907332     2.5890      6.296   352.3211 8.1388e-01     1.9811      6.585      9.550    10.4109 0.0000e+00
      6.732      0.082     7.8752     70.451     42.216  29.899998     2.5944      6.297   352.5485 8.1062e-01     2.0922      6.599      9.572    10.4109 0.0000e+00
      6.753      0.083     7.8708     70.411     42.231  29.911034     2.5944      6.297   352.8244 7.9550e-01     2.1752      6.623      9.605    10.4110 0.0000e+00
      6.775      0.088     7.8662     70.370     42.236  29.913749     2.5977      6.296   353.0752 7.7171e-01     2.1898      6.646      9.639    10.4111 0.0000e+00
      6.795      0.093     7.8636     70.346     42.264  29.932829     2.6343      6.295   353.0858 7.3378e-01     2.1771      6.661      9.662    10.4106 0.0000e+00
      6.819      0.099     7.8657     70.365     42.290  29.951208     2.6977      6.293   353.0397 7.1146e-01     2.1741      6.685      9.695    10.4108 0.0000e+00
      6.848      0.105     7.8701     70.404     42.281  29.945444     2.7297      6.290   353.1201 7.0867e-01     2.1844      6.716      9.741    10.4105 0.0000e+00
      6.876      0.110     7.8756     70.453     42.255  29.926645     2.7276      6.287   353.1971 6.9473e-01     2.1797      6.745      9.782    10.4097 0.0000e+00
      6.903      0.114     7.8832     70.520     42.238  29.914426     2.7001      6.286   353.1106 6.6223e-01     2.1487      6.768      9.816    10.4099 0.0000e+00
      6.933      0.116     7.8910     70.589     42.253  29.924724     2.6449      6.286   353.1056 6.3871e-01     2.1443      6.798      9.858    10.4099 0.0000e+00
      6.967      0.117     7.8955     70.629     42.253  29.924137     2.6022      6.285   353.3088 6.3468e-01     2.1579      6.834      9.911    10.4100 0.0000e+00
      6.998      0.120     7.8970     70.642     42.230  29.907323     2.5878      6.283   353.6753 6.2160e-01     2.1298      6.865      9.956    10.4097 0.0000e+00
      7.024      0.120     7.8967     70.637     42.237  29.911951     2.5624      6.283   354.0947 5.9775e-01     2.1403      6.887      9.989    10.4091 0.0000e+00
      7.053      0.117     7.8945     70.616     42.245  29.916590     2.5073      6.282   354.2503 5.6514e-01     2.1929      6.913     10.028    10.4089 0.0000e+00
      7.087      0.112     7.8916     70.589     42.222  29.899905     2.4718      6.282   354.0948 5.3239e-01     2.1863      6.950     10.081    10.4083 0.0000e+00
      7.121      0.109     7.8891     70.565     42.224  29.900729     2.4644      6.282   353.8491 5.1524e-01     2.1525      6.987     10.134    10.4076 0.0000e+00
      7.148      0.107     7.8892     70.565     42.261  29.926546     2.4550      6.281   353.7740 5.0230e-01     2.1192      7.012     10.169    10.4069 0.0000e+00
      7.169      0.104     7.8927     70.597     42.305  29.958032     2.4496      6.280   354.1326 4.9777e-01     2.0578      7.029     10.196    10.4061 0.0000e+00
      7.191      0.100     7.8984     70.649     42.313  29.963891     2.4551      6.280   354.7433 4.9910e-01     1.9901      7.051     10.227    10.4049 0.0000e+00
      7.217      0.097     7.9027     70.688     42.271  29.933880     2.4657      6.281   355.0497 4.9344e-01     1.9421      7.075     10.262    10.4041 0.0000e+00
      7.245      0.097     7.9044     70.704     42.241  29.912701     2.4679      6.281   355.2556 4.8571e-01     1.9350      7.105     10.306    10.4041 0.0000e+00
      7.271      0.099     7.9059     70.716     42.221  29.898345     2.4629      6.281   355.5988 4.7066e-01     1.9959      7.132     10.344    10.4041 0.0000e+00
      7.295      0.103     7.9070     70.724     42.206  29.887310     2.4607      6.277   355.7575 4.5219e-01     2.0983      7.154     10.376    10.4048 0.0000e+00
      7.317      0.108     7.9060     70.714     42.234  29.906295     2.4601      6.274   355.8840 4.4373e-01     2.1667      7.177     10.409    10.4053 0.0000e+00
      7.342      0.112     7.9040     70.695     42.279  29.937365     2.4554      6.273   356.2676 4.2942e-01     2.1816      7.197     10.439    10.4052 0.0000e+00
      7.372      0.116     7.9034     70.690     42.290  29.945438     2.4679      6.271   356.5233 4.1102e-01     2.1867      7.225     10.480    10.4052 0.0000e+00
      7.409      0.122     7.9030     70.687     42.283  29.940400     2.5100      6.269   356.2223 4.0569e-01     2.1975      7.266     10.539    10.4040 0.0000e+00
      7.444      0.127     7.9032     70.687     42.283  29.939946     2.5414      6.268   355.6408 4.0935e-01     2.1909      7.305     10.594    10.4025 0.0000e+00
      7.473      0.127     7.9050     70.701     42.284  29.939955     2.5448      6.267   355.2564 4.0924e-01     2.1683      7.326     10.626    10.4024 0.0000e+00
      7.503      0.124     7.9062     70.713     42.285  29.940515     2.5421      6.267   355.2754 3.9414e-01     2.1679      7.353     10.665    10.4026 0.0000e+00
      7.540      0.122     7.9073     70.726     42.291  29.946708     2.5446      6.267   355.2679 3.7773e-01     2.1864      7.398     10.730    10.4031 0.0000e+00
      7.572      0.122     7.9077     70.734     42.294  29.951336     2.5472      6.265   354.9073 3.6664e-01     2.2082      7.430     10.777    10.4021 0.0000e+00
      7.596      0.123     7.9074     70.731     42.268  29.932957     2.5561      6.264   354.7012 3.5017e-01     2.2183      7.447     10.801    10.4010 0.0000e+00
      7.624      0.123     7.9082     70.735     42.246  29.915013     2.6337      6.264   354.8412 3.3699e-01     2.1560      7.472     10.837    10.4001 0.0000e+00
      7.660      0.123     7.9074     70.723     42.263  29.924894     2.7778      6.264   355.2233 3.3246e-01     2.0645      7.512     10.894    10.4022 0.0000e+00
      7.695      0.127     7.9041     70.691     42.266  29.925405     2.8649      6.263   355.7073 3.2749e-01     1.9973      7.551     10.951    10.4075 0.0000e+00
      7.725      0.132     7.9004     70.655     42.261  29.921193     2.8685      6.262   355.6171 3.1884e-01     1.9542      7.574     10.986    10.4067 0.0000e+00
      7.755      0.134     7.8964     70.618     42.285  29.937472     2.8391      6.261   354.9069 3.1020e-01     2.0009      7.602     11.025    10.4030 0.0000e+00
      7.791      0.133     7.8941     70.596     42.278  29.931708     2.8037      6.261   354.5189 3.0197e-01     2.1040      7.641     11.081    10.4005 0.0000e+00
      7.829      0.128     7.8967     70.619     42.254  29.915013     2.7905      6.262   354.6263 2.8977e-01     2.1640      7.676     11.134    10.3989 0.0000e+00
      7.867      0.123     7.9027     70.674     42.269  29.926133     2.7893      6.263   355.0004 2.8097e-01     2.1767      7.716     11.192    10.3979 0.0000e+00
      7.901      0.120     7.9086     70.728     42.287  29.939146     2.7806      6.261   355.6008 2.8216e-01     2.1957      7.754     11.246    10.3969 0.0000e+00
      7.922      0.120     7.9145     70.781     42.296  29.945327     2.7307      6.260   355.7777 2.8280e-01     2.2109      7.772     11.271    10.3964 0.0000e+00
      7.940      0.117     7.9191     70.822     42.284  29.937357     2.6461      6.261   355.4184 2.7185e-01     2.1776      7.783     11.287    10.3962 0.0000e+00
      7.970      0.112     7.9218     70.847     42.240  29.906295     2.6033      6.262   355.2135 2.5705e-01     2.1594      7.810     11.327    10.3967 0.0000e+00
      8.011      0.109     7.9248     70.876     42.211  29.887298     2.5986      6.261   355.4514 2.4849e-01     2.1733      7.858     11.397    10.3974 0.0000e+00
      8.050      0.111     7.9239     70.873     42.224  29.898180     2.5616      6.260   355.7996 2.4870e-01     2.1023      7.902     11.461    10.3978 0.0000e+00
      8.073      0.116     7.9174     70.817     42.240  29.910862     2.4964      6.259   355.8102 2.5959e-01     1.9727      7.922     11.489    10.3978 0.0000e+00
      8.085      0.116     7.9104     70.752     42.245  29.913624     2.4724      6.258   355.5797 2.6228e-01     1.9179      7.924     11.493    10.3972 0.0000e+00
      8.109      0.111     7.9049     70.700     42.273  29.931573     2.4820      6.259   355.6788 2.4432e-01     1.9284      7.942     11.520    10.3987 0.0000e+00
      8.150      0.107     7.8999     70.654     42.282  29.937356     2.4294      6.260   356.0631 2.2500e-01     1.9467      7.993     11.592    10.4030 0.0000e+00
      8.192      0.108     7.8966     70.626     42.256  29.920036     2.3238      6.260   356.1824 2.1989e-01     1.9554      8.041     11.662    10.4045 0.0000e+00
      8.218      0.112     7.8965     70.627     42.244  29.912684     2.2701      6.260   356.1749 2.2125e-01     1.9733      8.065     11.697    10.4023 0.0000e+00
      8.233      0.113     7.8979     70.641     42.243  29.911963     2.2764      6.260   356.0581 2.2016e-01     2.0106      8.072     11.707    10.4002 0.0000e+00
      8.251      0.112     7.9001     70.658     42.243  29.911320     2.3642      6.259   355.7166 2.1354e-01     2.0401      8.086     11.727    10.3986 0.0000e+00
      8.283      0.111     7.9035     70.685     42.236  29.904913     2.5136      6.259   355.8315 1.9922e-01     2.0851      8.121     11.778    10.3998 0.0000e+00
      8.323      0.114     7.9053     70.699     42.228  29.897994     2.5848      6.259   356.5872 1.9253e-01     2.1590      8.163     11.840    10.4028 0.0000e+00
      8.359      0.119     7.9053     70.698     42.220  29.891170     2.5907      6.259   357.1959 1.9723e-01     2.2010      8.200     11.892    10.4029 0.0000e+00
      8.388      0.124     7.9053     70.696     42.214  29.885912     2.5844      6.258   357.3405 1.9701e-01     2.1964      8.229     11.935    10.4009 0.0000e+00
      8.409      0.127     7.9015     70.661     42.232  29.897931     2.5546      6.256   357.1310 1.9024e-01     2.1641      8.246     11.960    10.3989 0.0000e+00
      8.433      0.127     7.8908     70.565     42.248  29.909477     2.5426      6.255   356.7275 1.8027e-01     2.1458      8.263     11.984    10.3975 0.0000e+00
      8.470      0.125     7.8784     70.453     42.233  29.898500     2.5499      6.255   356.5916 1.7089e-01     2.1892      8.302     12.041    10.3967 0.0000e+00
      8.516      0.124     7.8709     70.387     42.224  29.892213     2.5423      6.254   357.0370 1.6009e-01     2.2003      8.355     12.118    10.3958 0.0000e+00
      8.556      0.127     7.8691     70.371     42.231  29.896969     2.5423      6.251   357.7249 1.5413e-01     2.1586      8.397     12.180    10.3952 0.0000e+00
      8.581      0.132     7.8701     70.379     42.225  29.892499     2.5685      6.249   357.9396 1.6512e-01     2.1416      8.419     12.211    10.3951 0.0000e+00
      8.597      0.132     7.8746     70.419     42.238  29.901665     2.5917      6.249   357.7406 1.7778e-01     2.1478      8.426     12.221    10.3948 0.0000e+00
      8.626      0.127     7.8843     70.506     42.298  29.944285     2.5928      6.250   357.6415 1.6873e-01     2.1720      8.449     12.254    10.3946 0.0000e+00
      8.674      0.123     7.8988     70.636     42.325  29.963271     2.5278      6.250   357.6877 1.4308e-01     2.1909      8.506     12.337    10.3947 0.0000e+00
      8.721      0.123     7.9139     70.772     42.292  29.940707     2.4115      6.250   357.6106 1.3421e-01     2.1932      8.562     12.419    10.3944 0.0000e+00
      8.751      0.124     7.9245     70.868     42.270  29.925496     2.3458      6.251   357.4839 1.4021e-01     2.1994      8.587     12.455    10.3942 0.0000e+00
      8.767      0.121     7.9315     70.933     42.240  29.906364     2.3394      6.251   357.5330 1.4291e-01     2.2055      8.594     12.465    10.3942 0.0000e+00
      8.787      0.116     7.9352     70.967     42.230  29.899906     2.3897      6.251   357.6018 1.4317e-01     2.1753      8.611     12.490    10.3945 0.0000e+00
      8.820      0.113     7.9349     70.964     42.247  29.910918     2.4756      6.252   357.7126 1.3910e-01     2.1385      8.648     12.544    10.3949 0.0000e+00
      8.858      0.117     7.9318     70.934     42.251  29.912496     2.5240      6.252   357.8411 1.4035e-01     2.1584      8.688     12.602    10.3960 0.0000e+00
      8.892      0.122     7.9249     70.870     42.262  29.918981     2.5426      6.252   357.6068 1.4097e-01     2.1714      8.722     12.650    10.3982 0.0000e+00
      8.921      0.125     7.9139     70.769     42.272  29.925812     2.5625      6.250   357.0302 1.3193e-01     2.1433      8.750     12.690    10.3989 0.0000e+00
      8.948      0.122     7.9014     70.658     42.280  29.931585     2.5812      6.250   356.6347 1.2611e-01     2.1229      8.773     12.724    10.3978 0.0000e+00
      8.978      0.118     7.8904     70.559     42.271  29.925279     2.5936      6.251   356.6958 1.2561e-01     2.1085      8.801     12.765    10.3962 0.0000e+00
      9.013      0.118     7.8807     70.472     42.255  29.913070     2.6026      6.252   357.0814 1.2559e-01     2.1219      8.839     12.822    10.3943 0.0000e+00
      9.046      0.122     7.8736     70.407     42.253  29.910980     2.6064      6.251   357.4253 1.2562e-01     2.1627      8.874     12.871    10.3935 0.0000e+00
      9.072      0.124     7.8691     70.367     42.238  29.900011     2.6029      6.250   357.4982 1.2565e-01     2.1741      8.897     12.904    10.3940 0.0000e+00
      9.098      0.122     7.8658     70.337     42.248  29.907455     2.5972      6.250   357.2738 1.2565e-01     2.1678      8.918     12.935    10.3937 0.0000e+00
      9.132      0.116     7.8640     70.321     42.290  29.937465     2.5925      6.250   356.8628 1.2585e-01     2.1488      8.952     12.984    10.3931 0.0000e+00
      9.172      0.111     7.8656     70.336     42.301  29.945338     2.5828      6.249   356.6596 1.2879e-01     2.1271      8.999     13.051    10.3930 0.0000e+00
      9.204      0.110     7.8713     70.388     42.292  29.939140     2.5534      6.249   356.7097 1.3154e-01     2.1493      9.034     13.102    10.3928 0.0000e+00
      9.222      0.110     7.8793     70.458     42.275  29.926023     2.5130      6.249   356.7798 1.2891e-01     2.1733      9.045     13.118    10.3927 0.0000e+00
      9.239      0.106     7.8880     70.535     42.258  29.913758     2.4897      6.249   356.8194 1.2604e-01     2.1730      9.053     13.131    10.3925 0.0000e+00
      9.267      0.101     7.8987     70.630     42.265  29.917858     2.4742      6.249   356.8441 1.2609e-01     2.1761      9.085     13.176    10.3933 0.0000e+00
      9.303      0.100     7.9102     70.731     42.257  29.912085     2.4637      6.250   356.9065 1.2916e-01     2.1804      9.125     13.235    10.3935 0.0000e+00
      9.334      0.104     7.9189     70.809     42.250  29.907473     2.4731      6.249   356.8854 1.3199e-01     2.1946      9.158     13.282    10.3925 0.0000e+00
      9.355      0.108     7.9259     70.872     42.276  29.925593     2.4769      6.248   356.6745 1.2917e-01     2.1951      9.176     13.308    10.3916 0.0000e+00
      9.374      0.108     7.9325     70.933     42.296  29.940660     2.4728      6.248   356.4217 1.2602e-01     2.1861      9.188     13.327    10.3908 0.0000e+00
      9.400      0.110     7.9371     70.976     42.326  29.962628     2.4874      6.247   356.2378 1.2570e-01     2.2082      9.216     13.366    10.3903 0.0000e+00
      9.434      0.115     7.9394     70.998     42.379  30.000683     2.5164      6.246   356.3446 1.2570e-01     2.2187      9.254     13.421    10.3905 0.0000e+00
      9.466      0.119     7.9392     70.997     42.404  30.019744     2.5382      6.246   356.5944 1.2573e-01     2.1903      9.285     13.466    10.3909 0.0000e+00
      9.497      0.115     7.9362     70.971     42.379  30.002568     2.5394      6.247   356.5046 1.2570e-01     2.1699      9.312     13.505    10.3920 0.0000e+00
      9.531      0.104     7.9278     70.898     42.351  29.983532     2.5134      6.248   356.2919 1.2566e-01     2.1864      9.347     13.556    10.3934 0.0000e+00
      9.564      0.087     7.9130     70.766     42.346  29.980098     2.4808      6.250   356.0873 1.2566e-01     2.2054      9.384     13.611    10.3939 0.0000e+00
      9.586      0.069     7.8966     70.621     42.318  29.961047     2.4672      6.252   355.7509 1.2567e-01     2.1864      9.405     13.642    10.3943 0.0000e+00
      9.596      0.051     7.8787     70.462     42.293  29.943714     2.4588      6.253   355.4942 1.2563e-01     2.1394      9.411     13.650    10.3952 0.0000e+00
      9.600      0.036     7.8574     70.272     42.317  29.961046     2.3788      6.253   355.5648 1.2560e-01     2.1567      9.415     13.656    10.3965 0.0000e+00
      9.604      0.025     7.8389     70.107     42.344  29.980084     2.2353      6.253   355.9169 1.2561e-01     2.2435      9.420     13.660    10.3968 0.0000e+00
      9.608      0.020     7.8272     70.002     42.349  29.983377     2.1671      6.254   356.0519 1.2563e-01     2.3035      9.422     13.665    10.3970 0.0000e+00
      9.613      0.018     7.8186     69.925     42.374  30.000868     2.1611      6.255   355.7336 1.2567e-01     2.3334      9.426     13.672    10.3977 0.0000e+00
      9.619      0.017     7.8118     69.867     42.372  30.001038     2.1445      6.255   355.1664 1.2563e-01     2.3297      9.433     13.682    10.3984 0.0000e+00
      9.625      0.015     7.8083     69.841     42.345  29.985436     2.1221      6.255   354.6997 1.2558e-01     2.2896      9.440     13.692    10.3989 0.0000e+00
      9.628      0.012     7.8069     69.835     42.365  30.002757     2.0921      6.256   354.6507 1.2560e-01     2.2455      9.443     13.696    10.3984 0.0000e+00
      9.630      0.010     7.8065     69.834     42.387  30.019947     2.0760      6.257   354.7463 1.2565e-01     2.2242      9.444     13.697    10.3967 0.0000e+00
      9.632 -9.990e-29 -9.990e-29 -9.990e-29 -9.990e-29 -9.990e-29 -9.990e-29 -9.990e-29 -9.990e-29 1.2565e-01 -9.990e-29      9.445     13.699    10.3989 0.0000e+00
      9.632 -9.990e-29 -9.990e-29 -9.990e-29 -9.990e-29 -9.990e-29 -9.990e-29 -9.990e-29 -9.990e-29 1.2561e-01 -9.990e-29      9.445     13.699    10.4040 0.0000e+00
      9.632 -9.990e-29 -9.990e-29 -9.990e-29 -9.990e-29 -9.990e-29 -9.990e-29 -9.990e-29 -9.990e-29 1.2564e-01 -9.990e-29      9.445     13.699    10.4082 0.0000e+00
      9.632 -9.990e-29 -9.990e-29 -9.990e-29 -9.990e-29 -9.990e-29 -9.990e-29 -9.990e-29 -9.990e-29 1.2568e-01 -9.990e-29      9.446     13.700    10.4105 0.0000e+00
