* Sea-Bird SBE19plus  Data File:
* FileName = C:\DATA\081318_fcr_0009.hex
* Software version 2.6.3.104
* Temperature SN = 7809
* Conductivity SN = 7809
* System UpLoad Time = Aug 13 2018 19:27:23
* <ApplicationData>
* <Seaterm232>
* <SoftwareVersion>2.6.3.104</SoftwareVersion>
* <BuildDate>30-Jun-2017</BuildDate>
* </Seaterm232>
* </ApplicationData>
* <InstrumentState>
* <HardwareData DeviceType='SBE19plus' SerialNumber='01907809'>
*
*    <Manufacturer>Sea-Bird Electronics, Inc.</Manufacturer>
*
*    <FirmwareVersion>3.1.8</FirmwareVersion>
*
*    <FirmwareDate>Mar  9 2016 16:22:29</FirmwareDate>
*
*    <CommandSetVersion>1.4</CommandSetVersion>
*
*    <PCBAssembly PCBSerialNum='120721' AssemblyNum='41054J'/>
*
*    <PCBAssembly PCBSerialNum='120715' AssemblyNum='41967A'/>
*
*    <PCBAssembly PCBSerialNum='116699' AssemblyNum='41606'/>
*
*    <PCBAssembly PCBSerialNum='120719' AssemblyNum='41059D'/>
*
*    <MfgDate>28-Apr-2017</MfgDate>
*
*    <InternalSensors>
*
*       <Sensor id='Main Temperature'>
*
*          <type>temperature0</type>
*
*          <SerialNumber>01907809</SerialNumber>
*
*       </Sensor>
*
*       <Sensor id='Main Conductivity'>
*
*          <type>conductivity-0</type>
*
*          <SerialNumber>01907809</SerialNumber>
*
*       </Sensor>
*
*       <Sensor id='Main Pressure'>
*
*          <type>strain-0</type>
*
*          <SerialNumber>10586018</SerialNumber>
*
*       </Sensor>
*
*    </InternalSensors>
*
*    <ExternalSensors>
*
*       <Sensor id='volt 0'>
*
*          <type>pH</type>
*
*          <SerialNumber>27-0363</SerialNumber>
*
*       </Sensor>
*
*       <Sensor id='volt 1'>
*
*          <type>ORP</type>
*
*          <SerialNumber>27-0363</SerialNumber>
*
*       </Sensor>
*
*       <Sensor id='volt 2'>
*
*          <type>OXY</type>
*
*          <SerialNumber>43-0434</SerialNumber>
*
*       </Sensor>
*
*       <Sensor id='volt 3'>
*
*          <type>PAR</type>
*
*          <SerialNumber>1122</SerialNumber>
*
*       </Sensor>
*
*       <Sensor id='volt 4'>
*
*          <type>ECO AFL/FL</type>
*
*          <SerialNumber>FLNTURT-2496</SerialNumber>
*
*       </Sensor>
*
*       <Sensor id='volt 5'>
*
*          <type>ECO-NTU</type>
*
*          <SerialNumber>FLNTURT-2496</SerialNumber>
*
*       </Sensor>
*
*       <Sensor id='serial'>
*
*          <type>not assigned</type>
*
*          <SerialNumber>not assigned</SerialNumber>
*
*       </Sensor>
*
*    </ExternalSensors>
*
* </HardwareData>
* <StatusData DeviceType='SBE19plus' SerialNumber='01907809'>
*
*    <DateTime>2018-08-13T23:24:22</DateTime>
*
*    <LoggingState>not logging</LoggingState>
*
*    <EventSummary numEvents='0'/>
*
*    <Power>
*
*       <vMain>13.1</vMain>
*
*       <vLith>8.7</vLith>
*
*       <iMain>63.3</iMain>
*
*       <iPump>132.3</iPump>
*
*       <iExt01>13.6</iExt01>
*
*       <iExt2345>41.9</iExt2345>
*
*    </Power>
*
*    <MemorySummary>
*
*       <Bytes>139955</Bytes>
*
*       <Samples>6085</Samples>
*
*       <SamplesFree>2854703</SamplesFree>
*
*       <SampleLength>23</SampleLength>
*
*       <Profiles>9</Profiles>
*
*    </MemorySummary>
*
* </StatusData>
* <ConfigurationData DeviceType='SBE19plus' SerialNumber='01907809'>
*
*    <ProfileMode>
*
*       <ScansToAverage>1</ScansToAverage>
*
*       <MinimumCondFreq>5</MinimumCondFreq>
*
*       <PumpDelay>45</PumpDelay>
*
*       <AutoRun>no</AutoRun>
*
*       <IgnoreSwitch>no</IgnoreSwitch>
*
*    </ProfileMode>
*
*    <Battery>
*
*       <Type>alkaline</Type>
*
*       <CutOff>7.5</CutOff>
*
*    </Battery>
*
*    <DataChannels>
*
*       <ExtVolt0>yes</ExtVolt0>
*
*       <ExtVolt1>yes</ExtVolt1>
*
*       <ExtVolt2>yes</ExtVolt2>
*
*       <ExtVolt3>yes</ExtVolt3>
*
*       <ExtVolt4>yes</ExtVolt4>
*
*       <ExtVolt5>yes</ExtVolt5>
*
*       <SBE38>no</SBE38>
*
*       <WETLABS>no</WETLABS>
*
*       <OPTODE>no</OPTODE>
*
*       <SBE63>no</SBE63>
*
*       <SeaFET>no</SeaFET>
*
*       <GTD>no</GTD>
*
*    </DataChannels>
*
*    <EchoCharacters>yes</EchoCharacters>
*
*    <OutputExecutedTag>yes</OutputExecutedTag>
*
*    <OutputFormat>raw HEX</OutputFormat>
*
* </ConfigurationData>
* <CalibrationCoefficients DeviceType='SBE19plus' SerialNumber='01907809'>
*
*    <Calibration format='TEMP1' id='Main Temperature'>
*
*       <SerialNum>01907809</SerialNum>
*
*       <CalDate>09-Mar-18</CalDate>
*
*       <TA0>1.210932e-03</TA0>
*
*       <TA1>2.843566e-04</TA1>
*
*       <TA2>-1.945074e-06</TA2>
*
*       <TA3>2.128067e-07</TA3>
*
*       <TOFFSET>0.000000e+00</TOFFSET>
*
*    </Calibration>
*
*    <Calibration format='WBCOND0' id='Main Conductivity'>
*
*       <SerialNum>01907809</SerialNum>
*
*       <CalDate>09-Mar-18</CalDate>
*
*       <G>-1.006721e+00</G>
*
*       <H>1.269065e-01</H>
*
*       <I>-1.405844e-04</I>
*
*       <J>2.478371e-05</J>
*
*       <CPCOR>-9.570000e-08</CPCOR>
*
*       <CTCOR>3.250000e-06</CTCOR>
*
*       <CSLOPE>1.000000e+00</CSLOPE>
*
*    </Calibration>
*
*    <Calibration format='STRAIN0' id='Main Pressure'>
*
*       <SerialNum>10586018</SerialNum>
*
*       <CalDate>07-Mar-18</CalDate>
*
*       <PA0>-4.081764e-02</PA0>
*
*       <PA1>4.851884e-04</PA1>
*
*       <PA2>-3.511682e-12</PA2>
*
*       <PTCA0>5.252134e+05</PTCA0>
*
*       <PTCA1>1.795324e+00</PTCA1>
*
*       <PTCA2>-2.843535e-01</PTCA2>
*
*       <PTCB0>2.516687e+01</PTCB0>
*
*       <PTCB1>3.750000e-04</PTCB1>
*
*       <PTCB2>0.000000e+00</PTCB2>
*
*       <PTEMPA0>-5.378069e+01</PTEMPA0>
*
*       <PTEMPA1>5.366207e+01</PTEMPA1>
*
*       <PTEMPA2>4.872143e-02</PTEMPA2>
*
*       <POFFSET>5.000000e-01</POFFSET>
*
*       <PRANGE>1.600000e+02</PRANGE>
*
*    </Calibration>
*
*    <Calibration format='VOLT0' id='Volt 0'>
*
*       <OFFSET>-4.920000e-02</OFFSET>
*
*       <SLOPE>1.248122e+00</SLOPE>
*
*    </Calibration>
*
*    <Calibration format='VOLT0' id='Volt 1'>
*
*       <OFFSET>-4.784000e-02</OFFSET>
*
*       <SLOPE>1.248871e+00</SLOPE>
*
*    </Calibration>
*
*    <Calibration format='VOLT0' id='Volt 2'>
*
*       <OFFSET>-4.864632e-02</OFFSET>
*
*       <SLOPE>1.248714e+00</SLOPE>
*
*    </Calibration>
*
*    <Calibration format='VOLT0' id='Volt 3'>
*
*       <OFFSET>-4.743790e-02</OFFSET>
*
*       <SLOPE>1.248571e+00</SLOPE>
*
*    </Calibration>
*
*    <Calibration format='VOLT0' id='Volt 4'>
*
*       <OFFSET>-4.671263e-02</OFFSET>
*
*       <SLOPE>1.248951e+00</SLOPE>
*
*    </Calibration>
*
*    <Calibration format='VOLT0' id='Volt 5'>
*
*       <OFFSET>-4.871053e-02</OFFSET>
*
*       <SLOPE>1.249136e+00</SLOPE>
*
*    </Calibration>
*
*    <Calibration format='FREQ0' id='external frequency channel'>
*
*       <EXTFREQSF>1.000014e+00</EXTFREQSF>
*
*    </Calibration>
*
* </CalibrationCoefficients>
* <EventCounters DeviceType='SBE19plus' SerialNumber='01907809'>
*
*    <EventSummary numEvents='0'/>
*
* </EventCounters></InstrumentState>
* <Headers>
*
* cast   9 13 Aug 2018 19:35:44 samples 5498 to 6085, avg = 1, stop = mag switch
*
# nquan = 17
# nvalues = 438                         
# units = specified
# name 0 = depFM: Depth [fresh water, m]
# name 1 = tv290C: Temperature [ITS-90, deg C]
# name 2 = sbeox0Mg/L: Oxygen, SBE 43 [mg/l]
# name 3 = sbeox0PS: Oxygen, SBE 43 [% saturation]
# name 4 = c0uS/cm: Conductivity [uS/cm]
# name 5 = specc: Specific Conductance [uS/cm]
# name 6 = ph: pH
# name 7 = orp: Oxidation Reduction Potential [mV]
# name 8 = flECO-AFL: Fluorescence, WET Labs ECO-AFL/FL [mg/m^3]
# name 9 = turbWETntu0: Turbidity, WET Labs ECO [NTU]
# name 10 = sal00: Salinity, Practical [PSU]
# name 11 = dz/dtM: Descent Rate [m/s]
# name 12 = prdM: Pressure, Strain Gauge [db]
# name 13 = prdE: Pressure, Strain Gauge [psi]
# name 14 = scan: Scan Count
# name 15 = par/sat/log: PAR/Logarithmic, Satlantic
# name 16 = flag:  0.000e+00
# span 0 =     -0.585,      7.132       
# span 1 =    11.9694,    27.7917       
# span 2 =     0.0816,     9.6953       
# span 3 =      0.766,    122.946       
# span 4 =  -0.036342,  41.567535       
# span 5 =      0.676,     54.322       
# span 6 =      6.260,      8.257       
# span 7 =   173.7150,   278.7310       
# span 8 =    -0.2021,     8.3785       
# span 9 =    -0.2914,    21.5424       
# span 10 =     0.0119,     0.0279      
# span 11 =     -0.087,      0.336      
# span 12 =     -0.573,      6.994      
# span 13 =     -0.831,     10.143      
# span 14 =          1,        438      
# span 15 = 1.2283e-01, 6.0987e+02      
# span 16 = 0.0000e+00, 0.0000e+00      
# interval = seconds: 0.25
# start_time = Aug 13 2018 19:35:44 [Instrument's time stamp, header]
# bad_flag = -9.990e-29
# <Sensors count="9" >
#   <sensor Channel="1" >
#     <!-- Count, Temperature -->
#     <TemperatureSensor SensorID="58" >
#       <SerialNumber>7809</SerialNumber>
#       <CalibrationDate>09-Mar-18</CalibrationDate>
#       <A0>1.21093245e-003</A0>
#       <A1>2.84356597e-004</A1>
#       <A2>-1.94507398e-006</A2>
#       <A3>2.12806664e-007</A3>
#       <Slope>1.00000000</Slope>
#       <Offset>0.0000</Offset>
#     </TemperatureSensor>
#   </sensor>
#   <sensor Channel="2" >
#     <!-- Frequency 0, Conductivity -->
#     <ConductivitySensor SensorID="3" >
#       <SerialNumber>7809</SerialNumber>
#       <CalibrationDate>09-Mar-18</CalibrationDate>
#       <UseG_J>1</UseG_J>
#       <!-- Cell const and series R are applicable only for wide range sensors. -->
#       <SeriesR>0.0000</SeriesR>
#       <CellConst>2000.0000</CellConst>
#       <ConductivityType>0</ConductivityType>
#       <Coefficients equation="0" >
#         <A>0.00000000e+000</A>
#         <B>0.00000000e+000</B>
#         <C>0.00000000e+000</C>
#         <D>0.00000000e+000</D>
#         <M>0.0</M>
#         <CPcor>-9.57000000e-008</CPcor>
#       </Coefficients>
#       <Coefficients equation="1" >
#         <G>-1.00672082e+000</G>
#         <H>1.26906489e-001</H>
#         <I>-1.40584351e-004</I>
#         <J>2.47837121e-005</J>
#         <CPcor>-9.57000000e-008</CPcor>
#         <CTcor>3.2500e-006</CTcor>
#         <!-- WBOTC not applicable unless ConductivityType = 1. -->
#         <WBOTC>0.00000000e+000</WBOTC>
#       </Coefficients>
#       <Slope>1.00000000</Slope>
#       <Offset>0.00000</Offset>
#     </ConductivitySensor>
#   </sensor>
#   <sensor Channel="3" >
#     <!-- Count, Pressure, Strain Gauge -->
#     <PressureSensor SensorID="46" >
#       <SerialNumber>7809</SerialNumber>
#       <CalibrationDate>07-Mar-18</CalibrationDate>
#       <PA0>-4.08176359e-002</PA0>
#       <PA1>4.85188419e-004</PA1>
#       <PA2>-3.51168169e-012</PA2>
#       <PTEMPA0>-5.37806900e+001</PTEMPA0>
#       <PTEMPA1>5.36620721e+001</PTEMPA1>
#       <PTEMPA2>4.87214332e-002</PTEMPA2>
#       <PTCA0>5.25213435e+005</PTCA0>
#       <PTCA1>1.79532409e+000</PTCA1>
#       <PTCA2>-2.84353509e-001</PTCA2>
#       <PTCB0>2.51668750e+001</PTCB0>
#       <PTCB1>3.75000000e-004</PTCB1>
#       <PTCB2>0.00000000e+000</PTCB2>
#       <Offset>0.000000</Offset>
#     </PressureSensor>
#   </sensor>
#   <sensor Channel="4" >
#     <!-- A/D voltage 0, pH -->
#     <pH_Sensor SensorID="43" >
#       <SerialNumber>0363</SerialNumber>
#       <CalibrationDate>16-Mar-18</CalibrationDate>
#       <Slope>4.6194</Slope>
#       <Offset>2.5947</Offset>
#     </pH_Sensor>
#   </sensor>
#   <sensor Channel="5" >
#     <!-- A/D voltage 1, Oxidation Reduction Potential -->
#     <OxidationReductionPotentialSensor SensorID="41" >
#       <SerialNumber>0363</SerialNumber>
#       <CalibrationDate>16-Mar-18</CalibrationDate>
#       <B>2.499480</B>
#       <M>-0.496195</M>
#       <Offset>0.0</Offset>
#     </OxidationReductionPotentialSensor>
#   </sensor>
#   <sensor Channel="6" >
#     <!-- A/D voltage 2, Oxygen, SBE 43 -->
#     <OxygenSensor SensorID="38" >
#       <SerialNumber>0434</SerialNumber>
#       <CalibrationDate>13-Mar-18</CalibrationDate>
#       <Use2007Equation>1</Use2007Equation>
#       <CalibrationCoefficients equation="0" >
#         <!-- Coefficients for Owens-Millard equation. -->
#         <Boc>0.0000</Boc>
#         <Soc>0.0000e+000</Soc>
#         <offset>0.0000</offset>
#         <Pcor>0.00e+000</Pcor>
#         <Tcor>0.0000</Tcor>
#         <Tau>0.0</Tau>
#       </CalibrationCoefficients>
#       <CalibrationCoefficients equation="1" >
#         <!-- Coefficients for Sea-Bird equation - SBE calibration in 2007 and later. -->
#         <Soc>4.5718e-001</Soc>
#         <offset>-0.6113</offset>
#         <A>-4.0649e-003</A>
#         <B> 2.0945e-004</B>
#         <C>-3.3182e-006</C>
#         <D0> 2.5826e+000</D0>
#         <D1> 1.92634e-004</D1>
#         <D2>-4.64803e-002</D2>
#         <E> 3.6000e-002</E>
#         <Tau20> 1.2200</Tau20>
#         <H1>-3.3000e-002</H1>
#         <H2> 5.0000e+003</H2>
#         <H3> 1.4500e+003</H3>
#       </CalibrationCoefficients>
#     </OxygenSensor>
#   </sensor>
#   <sensor Channel="7" >
#     <!-- A/D voltage 3, PAR/Logarithmic, Satlantic -->
#     <PARLog_SatlanticSensor SensorID="76" >
#       <SerialNumber>1122</SerialNumber>
#       <CalibrationDate>22-Jun-2017</CalibrationDate>
#       <a0>9.6090e-001</a0>
#       <a1>8.0780e-001</a1>
#       <Im>1.3589e+000</Im>
#       <Multiplier>1.0000e+000</Multiplier>
#     </PARLog_SatlanticSensor>
#   </sensor>
#   <sensor Channel="8" >
#     <!-- A/D voltage 4, Fluorometer, WET Labs ECO-AFL/FL -->
#     <FluoroWetlabECO_AFL_FL_Sensor SensorID="20" >
#       <SerialNumber>FLNTURT-2496</SerialNumber>
#       <CalibrationDate>25-Jan-2017</CalibrationDate>
#       <ScaleFactor>5.30000000e+001</ScaleFactor>
#       <!-- Dark output -->
#       <Vblank>0.0560</Vblank>
#     </FluoroWetlabECO_AFL_FL_Sensor>
#   </sensor>
#   <sensor Channel="9" >
#     <!-- A/D voltage 5, Turbidity Meter, WET Labs, ECO-NTU -->
#     <TurbidityMeter SensorID="67" >
#       <SerialNumber>FLNTURT-2496</SerialNumber>
#       <CalibrationDate>25-Jan-2017</CalibrationDate>
#       <ScaleFactor>176.000000</ScaleFactor>
#       <!-- Dark output -->
#       <DarkVoltage>0.072000</DarkVoltage>
#     </TurbidityMeter>
#   </sensor>
# </Sensors>
# datcnv_date = Aug 13 2018 19:37:09, 7.26.7.114 [datcnv_vars = 16]
# datcnv_in = C:\DATA\081318_fcr45.hex C:\DATA\SBE19plusV2_7809.xmlcon
# datcnv_skipover = 0
# datcnv_ox_hysteresis_correction = yes
# datcnv_ox_tau_correction = yes
# filter_date = Aug 13 2018 19:37:29, 7.26.7.114
# filter_in = C:\DATA\081318_fcr45.cnv
# filter_low_pass_tc_A = 0.030
# filter_low_pass_tc_B = 0.150
# filter_low_pass_A_vars = tv290C c0uS/cm par/sat/log
# filter_low_pass_B_vars = prdM prdE
# alignctd_date = Aug 13 2018 19:37:47, 7.26.7.114
# alignctd_in = C:\DATA\081318_fcr45.cnv
# alignctd_adv = tv290C 0.500, sbeox0Mg/L 3.000, sbeox0PS 3.000                                                                                                                                                                      
# file_type = ascii
*END*
     -0.584    25.0703     8.2107     99.475   0.760663      0.759      7.528   227.7751    -0.1779    -0.2109     0.0119      0.000     -0.573     -0.831          1 6.0987e+02 0.0000e+00
     -0.584    25.0688     8.2143     99.516   0.730921      0.732      7.529   227.3208    -0.2021    -0.2109     0.0119      0.000     -0.573     -0.831          2 6.0946e+02 0.0000e+00
     -0.584    25.0673     8.2159     99.540   0.738380      0.732      7.524   226.0337    -0.1496    -0.1437     0.0119      0.000     -0.573     -0.831          3 6.0940e+02 0.0000e+00
     -0.584    25.0660     8.1596     99.524   0.721774      0.732      7.524   229.6680    -0.1698    -0.2377     0.0119      0.000     -0.573     -0.831          4 6.0140e+02 0.0000e+00
     -0.584    25.0646     8.0445     99.524   0.692374      0.676      7.517   241.2902    -0.1941    -0.2243     0.0119      0.000     -0.573     -0.831          5 5.9616e+02 0.0000e+00
     -0.585    25.0629     7.9546     99.555   0.656541      0.676      7.505   244.3945    -0.1860    -0.2914     0.0119     -0.000     -0.573     -0.831          6 5.8390e+02 0.0000e+00
     -0.584    25.0620     7.8969     99.641   0.707154      0.676      7.494   242.1609    -0.1577    -0.1572     0.0119      0.000     -0.573     -0.831          7 5.7350e+02 0.0000e+00
     -0.584    25.0601     7.9011    100.107   0.688601      0.732      7.488   243.0316    -0.1415    -0.2512     0.0119     -0.000     -0.573     -0.831          8 5.8527e+02 0.0000e+00
     -0.584    25.0598     7.9196    100.520   0.798058      0.732      7.479   236.0280    -0.1941    -0.2512     0.0119     -0.000     -0.573     -0.831          9 5.7937e+02 0.0000e+00
     -0.584    25.0572     7.9660    101.160   0.630150      0.732      7.476   238.4130    -0.1860    -0.1706     0.0119     -0.000     -0.573     -0.831         10 5.6485e+02 0.0000e+00
     -0.584    25.0585     8.0157    101.806   0.897559      0.732      7.476   240.1545    -0.1698    -0.2512     0.0119     -0.000     -0.573     -0.831         11 5.6994e+02 0.0000e+00
     -0.584    25.0531     8.0647    102.434   0.465271      0.732      7.479   231.3716    -0.1536    -0.1706     0.0119      0.000     -0.573     -0.831         12 5.7360e+02 0.0000e+00
     -0.584    25.0612     8.1104    102.990   1.168124      0.732      7.477   238.9809    -0.1658    -0.2243     0.0119      0.000     -0.572     -0.829         13 5.5578e+02 0.0000e+00
     -0.584    25.4344     8.1402    103.357  -0.036342      0.676      7.483   237.9966    -0.1860    -0.2512     0.0119      0.000     -0.558     -0.809         14 5.5373e+02 0.0000e+00
     -0.542    26.1870     8.1603    103.612  11.884695     10.125      7.302   190.9400    -0.1415    -0.2243     0.0142      0.011     -0.501     -0.728         15 5.6391e+02 0.0000e+00
     -0.402    26.8443     8.1636    103.646  35.814031     37.584      7.712   173.7150    -0.1779    -0.2914     0.0248      0.056     -0.390     -0.566         16 5.7216e+02 0.0000e+00
     -0.252    27.2860     8.1754    103.802  39.534055     37.366      7.914   176.6678     0.2184     9.2558     0.0249      0.128     -0.260     -0.378         17 5.7843e+02 0.0000e+00
     -0.144    27.5284     8.2196    104.368  37.548230     36.958      7.957   176.3650     0.2265     9.2961     0.0249      0.207     -0.157     -0.228         18 5.7214e+02 0.0000e+00
     -0.086    27.6231     8.1980    104.102  38.848592     36.690      7.971   178.6743     0.2386     9.2693     0.0249      0.272     -0.089     -0.130         19 5.6808e+02 0.0000e+00
     -0.039    27.6563     8.0964    102.810  37.974868     36.421      7.964   180.0371     0.2224     9.2021     0.0249      0.317     -0.041     -0.061         20 5.5175e+02 0.0000e+00
     -0.002    27.6624     7.9601    101.092  38.338815     36.246      7.946   181.6271     3.1015     0.8365     0.0248      0.336     -0.005     -0.006         21 4.4658e+02 0.0000e+00
      0.028    27.6659     7.8200     99.331  38.010006     36.199      7.933   182.9521     3.0934     0.7962     0.0248      0.324      0.025      0.037         22 3.4633e+02 0.0000e+00
      0.054    27.6529     7.6951     97.758  38.117092     36.115      7.923   184.5800     3.1258     0.8499     0.0248      0.280      0.047      0.068         23 3.3762e+02 0.0000e+00
      0.062    27.6467     7.5423     95.840  37.997915     36.112      7.915   186.0186     3.0853     0.8902     0.0248      0.209      0.056      0.081         24 3.3514e+02 0.0000e+00
      0.056    27.6457     7.4246     94.356  37.980354     36.042      7.907   187.6464     3.2269     0.8365     0.0248      0.143      0.057      0.083         25 3.3272e+02 0.0000e+00
      0.058    27.6430     7.3611     93.559  37.960985     36.046      7.901   188.7065     3.2309     0.8634     0.0248      0.098      0.059      0.086         26 3.3004e+02 0.0000e+00
      0.066    27.6448     7.3507     93.443  38.051685     36.153      7.895   189.9557     3.2309     0.8365     0.0248      0.069      0.064      0.093         27 3.3232e+02 0.0000e+00
      0.071    27.6487     7.3561     93.523  37.986125     36.049      7.896   191.3186     3.2309     0.8902     0.0248      0.046      0.068      0.099         28 3.2826e+02 0.0000e+00
      0.073    27.6520     7.3537     93.499  38.072235     36.180      7.896   192.3029     3.2592     0.7157     0.0248      0.029      0.068      0.099         29 3.3208e+02 0.0000e+00
      0.063    27.6518     7.3350     93.263  38.122488     36.178      7.896   193.6279     3.3118     0.8365     0.0248      0.015      0.063      0.091         30 3.3781e+02 0.0000e+00
      0.058    27.6582     7.2931     92.729  38.131210     36.228      7.896   194.9150     3.2916     0.8097     0.0248      0.004      0.058      0.085         31 3.3316e+02 0.0000e+00
      0.058    27.6686     7.2328     91.965  38.120702     36.176      7.894   195.5208     3.3118     0.8365     0.0248      0.001      0.057      0.083         32 3.4154e+02 0.0000e+00
      0.058    27.6773     7.1814     91.317  38.165225     36.250      7.894   196.2779     3.3118     0.9305     0.0248     -0.001      0.058      0.085         33 3.3360e+02 0.0000e+00
      0.063    27.6898     7.1318     90.688  38.164781     36.217      7.891   196.4672     3.4048     0.9439     0.0248     -0.003      0.063      0.091         34 3.2306e+02 0.0000e+00
      0.070    27.6978     7.1224     90.581  38.150911     36.211      7.890   197.5650     3.3441     0.8902     0.0248     -0.003      0.068      0.099         35 3.3174e+02 0.0000e+00
      0.075    27.7038     7.1335     90.737  38.152821     36.202      7.893   198.0193     3.3522     0.8634     0.0248      0.001      0.073      0.105         36 3.3802e+02 0.0000e+00
      0.076    27.7132     7.1757     91.291  38.103078     36.144      7.892   198.9279     3.3805     0.9439     0.0248      0.005      0.074      0.107         37 3.3744e+02 0.0000e+00
      0.074    27.7205     7.2213     91.887  38.123827     36.166      7.897   199.6472     3.3805     0.9036     0.0248      0.010      0.073      0.106         38 3.3089e+02 0.0000e+00
      0.073    27.7240     7.2740     92.570  38.097333     36.133      7.896   200.4043     3.3603     0.9305     0.0248      0.010      0.073      0.105         39 3.2454e+02 0.0000e+00
      0.073    27.7249     7.3193     93.156  38.047062     36.075      7.895   200.7451     3.3522     0.8902     0.0248      0.009      0.073      0.105         40 3.2222e+02 0.0000e+00
      0.077    27.7242     7.3495     93.543  38.097402     36.126      7.898   201.6158     3.3441     0.9305     0.0248      0.007      0.076      0.110         41 3.0759e+02 0.0000e+00
      0.083    27.7258     7.3590     93.662  38.094007     36.125      7.899   202.2215     3.3037     0.9305     0.0248      0.006      0.081      0.118         42 2.9391e+02 0.0000e+00
      0.088    27.7288     7.3492     93.543  38.051288     36.073      7.899   203.2815     3.3360     0.9171     0.0248      0.006      0.088      0.127         43 2.9429e+02 0.0000e+00
      0.098    27.7311     7.3392     93.421  38.120902     36.151      7.898   204.4172     3.3360     0.9171     0.0248      0.010      0.096      0.138         44 2.8910e+02 0.0000e+00
      0.105    27.7381     7.3374     93.404  38.155676     36.175      7.897   205.1365     3.3239     0.8768     0.0248      0.015      0.102      0.147         45 2.8529e+02 0.0000e+00
      0.107    27.7477     7.3312     93.321  38.156317     36.174      7.895   205.7044     3.5544     1.0514     0.0248      0.019      0.104      0.150         46 2.8877e+02 0.0000e+00
      0.106    27.7577     7.3220     93.172  38.149765     36.169      7.897   205.9315     3.5463     1.1319     0.0248      0.020      0.104      0.150         47 2.9168e+02 0.0000e+00
      0.105    27.7674     7.3085     92.991  38.163828     36.163      7.896   206.8779     3.5665     1.0916     0.0248      0.018      0.104      0.150         48 2.9828e+02 0.0000e+00
      0.106    27.7751     7.2946     92.815  38.227795     36.235      7.895   207.2186     3.5867     1.1319     0.0249      0.015      0.104      0.151         49 2.9773e+02 0.0000e+00
      0.108    27.7811     7.3014     92.900  38.218461     36.202      7.895   207.9758     3.5544     1.0782     0.0248      0.011      0.105      0.153         50 2.9717e+02 0.0000e+00
      0.109    27.7828     7.3162     93.092  38.205101     36.197      7.897   208.6951     3.5746     0.7962     0.0248      0.007      0.106      0.154         51 2.9596e+02 0.0000e+00
      0.107    27.7818     7.3092     93.000  38.214756     36.192      7.898   209.0358     3.5867     0.8768     0.0248      0.003      0.104      0.151         52 2.9462e+02 0.0000e+00
      0.101    27.7848     7.2779     92.573  38.206442     36.191      7.899   209.4901     3.5544     0.8097     0.0248     -0.000      0.100      0.146         53 2.9598e+02 0.0000e+00
      0.100    27.7881     7.2217     91.838  38.185784     36.166      7.902   210.1715     3.5584     0.9171     0.0248     -0.002      0.100      0.145         54 2.9766e+02 0.0000e+00
      0.104    27.7917     7.1342     90.721  38.151480     36.137      7.900   211.0044     3.4493     0.7828     0.0248     -0.002      0.103      0.150         55 3.0244e+02 0.0000e+00
      0.111    27.7881     7.0593     89.774  38.160147     36.135      7.889   211.4587     3.4452     0.8499     0.0248     -0.000      0.110      0.160         56 2.9087e+02 0.0000e+00
      0.122    27.7709     6.9992     89.014  38.204657     36.186      7.883   212.1022     3.4452     0.8365     0.0248      0.004      0.115      0.166         57 2.9118e+02 0.0000e+00
      0.117    27.7636     6.9785     88.752  38.096089     36.081      7.872   212.2915     3.4614     0.8365     0.0248      0.006      0.106      0.154         58 3.0977e+02 0.0000e+00
      0.083    27.7653     6.9719     88.670  38.057973     36.041      7.883   213.5030     3.5665     0.7694     0.0248     -0.001      0.082      0.119         59 3.1908e+02 0.0000e+00
      0.052    27.7643     6.9647     88.579  38.163113     36.178      7.893   213.8437     3.5746     0.8365     0.0248     -0.015      0.056      0.080         60 3.3350e+02 0.0000e+00
      0.033    27.7666     6.9434     88.312  38.172874     36.151      7.900   214.4115     3.5342     0.8365     0.0248     -0.030      0.038      0.055         61 3.4029e+02 0.0000e+00
      0.028    27.7636     6.8950     87.700  38.194133     36.204      7.907   214.0708     3.5867     0.9036     0.0248     -0.043      0.035      0.051         62 3.1303e+02 0.0000e+00
      0.046    27.7472     6.8381     86.978  38.166319     36.150      7.911   215.0551     3.4412     1.0648     0.0248     -0.048      0.047      0.068         63 2.9941e+02 0.0000e+00
      0.068    27.7344     6.7685     86.096  38.148164     36.151      7.913   215.2065     3.4250     1.1185     0.0248     -0.041      0.064      0.093         64 3.0576e+02 0.0000e+00
      0.083    27.7325     6.7220     85.506  38.187067     36.190      7.908   216.0015     3.4210     1.0245     0.0248     -0.026      0.078      0.113         65 2.9986e+02 0.0000e+00
      0.088    27.7350     6.7104     85.358  38.147573     36.172      7.915   216.0772     3.4452     1.0916     0.0248     -0.005      0.084      0.122         66 2.9757e+02 0.0000e+00
      0.086    27.7381     6.7343     85.663  38.108336     36.120      7.920   216.5315     3.5018     0.9305     0.0248      0.017      0.085      0.123         67 3.0635e+02 0.0000e+00
      0.086    27.7393     6.7845     86.306  38.146916     36.171      7.922   216.6451     3.5140     0.8097     0.0248      0.030      0.086      0.124         68 3.1147e+02 0.0000e+00
      0.089    27.7399     6.8648     87.327  38.158884     36.169      7.927   217.1372     3.4857     0.7694     0.0248      0.033      0.088      0.127         69 3.0077e+02 0.0000e+00
      0.093    27.7405     6.9462     88.357  38.152763     36.168      7.930   217.5915     3.5140     0.7828     0.0248      0.028      0.091      0.131         70 3.0561e+02 0.0000e+00
      0.095    27.7428     7.0077     89.123  38.184191     36.194      7.935   217.9701     3.4776     0.8634     0.0248      0.018      0.092      0.134         71 3.0660e+02 0.0000e+00
      0.094    27.7454     7.0441     89.574  38.149431     36.168      7.935   218.1215     3.5665     0.8902     0.0248      0.010      0.093      0.135         72 2.9843e+02 0.0000e+00
      0.096    27.7467     7.0454     89.585  38.107038     36.113      7.938   218.7273     3.5625     0.8634     0.0248      0.006      0.094      0.136         73 3.0080e+02 0.0000e+00
      0.096    27.7478     7.0269     89.345  38.147967     36.164      7.939   219.0301     3.5301     0.8097     0.0248      0.006      0.094      0.137         74 3.0027e+02 0.0000e+00
      0.096    27.7490     7.0044     89.054  38.157819     36.163      7.944   219.0680     3.5463     0.8097     0.0248      0.005      0.094      0.137         75 3.0021e+02 0.0000e+00
      0.097    27.7497     6.9812     88.748  38.124438     36.136      7.942   220.1280     3.7202     0.8902     0.0248      0.004      0.095      0.138         76 3.0346e+02 0.0000e+00
      0.099    27.7505     6.9574     88.430  38.100524     36.109      7.945   220.0144     3.7040     0.9305     0.0248      0.004      0.097      0.141         77 3.0115e+02 0.0000e+00
      0.102    27.7524     6.9309     88.076  38.098594     36.108      7.948   220.3930     3.6838     0.7962     0.0248      0.004      0.100      0.146         78 2.9275e+02 0.0000e+00
      0.107    27.7529     6.8995     87.663  38.097177     36.108      7.951   220.7715     3.6838     0.8634     0.0248      0.005      0.105      0.152         79 2.9290e+02 0.0000e+00
      0.113    27.7484     6.8559     87.097  38.102288     36.106      7.953   221.1123     3.7121     0.7828     0.0248      0.008      0.110      0.159         80 2.9129e+02 0.0000e+00
      0.117    27.7391     6.8060     86.465  38.092234     36.106      7.952   221.2258     3.6838     0.8634     0.0248      0.010      0.113      0.164         81 2.9120e+02 0.0000e+00
      0.115    27.7312     6.7386     85.580  38.080027     36.082      7.952   222.0208     3.7161     0.8097     0.0248      0.012      0.113      0.164         82 2.9206e+02 0.0000e+00
      0.113    27.7273     6.6656     84.594  38.087820     36.115      7.953   221.9073     3.7000     0.8768     0.0248      0.011      0.111      0.162         83 2.9289e+02 0.0000e+00
      0.112    27.7247     6.5973     83.706  38.052879     36.068      7.953   222.0208     3.6595     0.8365     0.0248      0.009      0.111      0.162         84 2.9299e+02 0.0000e+00
      0.115    27.7215     6.5479     83.075  38.093853     36.124      7.951   222.5130     3.6919     1.0111     0.0248      0.007      0.113      0.164         85 2.8849e+02 0.0000e+00
      0.118    27.7149     6.5020     82.482  38.096153     36.125      7.955   222.9294     3.7000     1.0111     0.0248      0.006      0.115      0.168         86 2.8891e+02 0.0000e+00
      0.120    27.7044     6.4591     81.926  38.020359     36.048      7.958   223.4594     3.6919     0.9036     0.0248      0.004      0.117      0.169         87 2.8816e+02 0.0000e+00
      0.119    27.6943     6.4116     81.313  38.039874     36.079      7.958   223.8001     4.0032     0.8768     0.0248      0.003      0.117      0.169         88 2.8848e+02 0.0000e+00
      0.119    27.6844     6.3681     80.751  38.042207     36.086      7.956   223.7623     4.0235     0.9574     0.0248      0.002      0.116      0.168         89 2.8864e+02 0.0000e+00
      0.118    27.6773     6.3210     80.144  38.047122     36.093      7.960   223.9894     4.0032     0.9305     0.0248      0.003      0.114      0.165         90 2.8598e+02 0.0000e+00
      0.113    27.6777     6.2739     79.539  38.033765     36.100      7.956   224.4437     4.0356     0.9036     0.0248      0.002      0.106      0.154         91 2.9667e+02 0.0000e+00
      0.094    27.6583     6.2086     78.703  37.910529     35.973      7.951   224.5573     4.0113     0.8634     0.0247     -0.005      0.090      0.131         92 3.2199e+02 0.0000e+00
      0.067    27.6214     6.1559     78.025  37.844557     35.918      7.947   224.5573     4.0073     0.9574     0.0247     -0.018      0.069      0.101         93 3.2896e+02 0.0000e+00
      0.053    27.6060     6.1060     77.382  37.848920     35.931      7.948   224.7466     4.0073     0.8097     0.0247     -0.031      0.053      0.076         94 3.2430e+02 0.0000e+00
      0.040    27.6031     6.0635     76.833  37.845788     35.958      7.947   225.2008     4.0113     0.9439     0.0247     -0.042      0.041      0.060         95 3.3319e+02 0.0000e+00
      0.034    27.5957     6.0330     76.437  37.848470     35.968      7.948   225.9201     4.0032     0.9305     0.0247     -0.049      0.034      0.050         96 3.4158e+02 0.0000e+00
      0.030    27.5879     5.9955     75.953  37.845590     35.970      7.953   225.5794     3.4776     0.8097     0.0247     -0.052      0.032      0.047         97 3.3880e+02 0.0000e+00
      0.036    27.5806     5.9614     75.514  37.849375     35.975      7.959   225.8823     3.4857     0.8634     0.0247     -0.047      0.036      0.052         98 3.3123e+02 0.0000e+00
      0.044    27.5733     5.9402     75.237  37.843763     35.980      7.961   226.3366     3.4735     0.8499     0.0247     -0.035      0.042      0.062         99 3.2564e+02 0.0000e+00
      0.049    27.5665     5.9119     74.872  37.793254     35.932      7.961   227.0558     3.4776     0.9305     0.0247     -0.019      0.047      0.069        100 3.2117e+02 0.0000e+00
      0.052    27.5610     5.8823     74.493  37.793593     35.937      7.957   227.3587     3.6717     0.8902     0.0247     -0.004      0.050      0.072        101 3.1902e+02 0.0000e+00
      0.052    27.5553     5.8410     73.974  37.784026     35.942      7.957   227.6616     3.7081     0.9305     0.0247      0.005      0.051      0.074        102 3.1640e+02 0.0000e+00
      0.053    27.5479     5.8080     73.555  37.745843     35.892      7.954   227.6616     3.7000     0.8097     0.0247      0.011      0.052      0.075        103 3.1223e+02 0.0000e+00
      0.054    27.5402     5.7840     73.207  37.781793     35.949      7.959   227.8130     3.6878     0.8365     0.0247      0.012      0.053      0.076        104 3.1604e+02 0.0000e+00
      0.056    27.5328     5.7717     73.015  37.739290     35.901      7.962   227.7751     3.7606     0.8499     0.0247      0.011      0.055      0.079        105 3.1880e+02 0.0000e+00
      0.059    27.5260     5.7659     72.933  37.739420     35.906      7.966   228.2673     3.7647     0.8634     0.0247      0.009      0.057      0.083        106 3.1247e+02 0.0000e+00
      0.061    27.5195     5.7621     72.886  37.781635     35.965      7.969   229.0244     3.7283     0.7291     0.0247      0.007      0.059      0.086        107 3.1371e+02 0.0000e+00
      0.062    27.5133     5.7599     72.853  37.746078     35.916      7.971   229.0244     3.7202     0.8365     0.0247      0.006      0.062      0.091        108 3.0976e+02 0.0000e+00
      0.069    27.5076     5.7557     72.797  37.724353     35.921      7.975   229.1001     3.6150     0.8097     0.0247      0.008      0.067      0.097        109 2.9945e+02 0.0000e+00
      0.072    27.5032     5.7475     72.690  37.690034     35.872      7.975   229.5166     3.6434     0.9171     0.0246      0.010      0.071      0.102        110 3.0134e+02 0.0000e+00
      0.075    27.4998     5.7242     72.386  37.729468     35.929      7.976   229.6680     3.6029     0.9305     0.0247      0.011      0.072      0.105        111 3.0758e+02 0.0000e+00
      0.076    27.5036     5.7006     72.079  37.734602     35.932      7.979   229.9330     3.6150     0.8365     0.0247      0.012      0.071      0.102        112 3.0859e+02 0.0000e+00
      0.067    27.5001     5.6693     71.678  37.683649     35.881      7.977   229.9709     3.6150     0.8365     0.0246      0.009      0.062      0.089        113 3.1777e+02 0.0000e+00
      0.045    27.4690     5.6419     71.328  37.733558     35.932      7.978   229.8194     3.7404     0.7828     0.0247     -0.000      0.047      0.068        114 3.4026e+02 0.0000e+00
      0.033    27.4399     5.6122     70.949  37.731811     35.933      7.980   230.0466     3.7485     0.8097     0.0247     -0.011      0.035      0.051        115 3.4600e+02 0.0000e+00
      0.030    27.4336     5.5861     70.616  37.626505     35.849      7.982   230.3873     3.7768     0.9305     0.0246     -0.020      0.030      0.044        116 3.3663e+02 0.0000e+00
      0.029    27.4335     5.5532     70.200  37.686658     35.922      7.985   230.6523     3.7404     0.9574     0.0247     -0.026      0.029      0.042        117 3.3804e+02 0.0000e+00
      0.030    27.4300     5.5313     69.915  37.716285     35.980      7.985   231.2580     3.6919     0.8768     0.0247     -0.028      0.028      0.041        118 3.4691e+02 0.0000e+00
      0.026    27.4281     5.5155     69.705  37.648961     35.873      7.986   231.6744     3.7161     0.8365     0.0246     -0.028      0.026      0.037        119 3.4731e+02 0.0000e+00
      0.023    27.4254     5.5015     69.521  37.711121     35.982      7.988   231.9016     3.7121     0.9036     0.0247     -0.024      0.024      0.035        120 3.3968e+02 0.0000e+00
      0.026    27.4188     5.4932     69.410  37.698249     35.930      7.988   232.0151     3.7081     0.8634     0.0247     -0.016      0.027      0.039        121 3.3580e+02 0.0000e+00
      0.032    27.4124     5.4893     69.356  37.664981     35.932      7.993   232.7723     3.8051     0.8365     0.0247     -0.006      0.031      0.044        122 3.3450e+02 0.0000e+00
      0.035    27.4076     5.4764     69.193  37.633883     35.883      7.993   232.3180     3.8334     0.8902     0.0246      0.000      0.034      0.049        123 3.2882e+02 0.0000e+00
      0.036    27.4048     5.4646     69.045  37.618312     35.887      7.996   232.7344     3.8374     0.9171     0.0246      0.003      0.036      0.051        124 3.2431e+02 0.0000e+00
      0.037    27.4016     5.4531     68.900  37.625042     35.891      7.995   232.5830     3.8213     0.7962     0.0246      0.005      0.037      0.054        125 3.2207e+02 0.0000e+00
      0.041    27.4000     5.4399     68.728  37.625510     35.893      7.992   232.8480     4.2701     0.8634     0.0246      0.007      0.039      0.057        126 3.2533e+02 0.0000e+00
      0.041    27.3993     5.4348     68.652  37.617730     35.895      7.997   232.5073     4.2661     0.7828     0.0246      0.009      0.041      0.060        127 3.2685e+02 0.0000e+00
      0.044    27.3931     5.4323     68.599  37.634724     35.896      7.998   232.5451     4.2903     0.8634     0.0246      0.010      0.044      0.064        128 3.1563e+02 0.0000e+00
      0.050    27.3851     5.4353     68.615  37.604363     35.896      8.003   232.9616     4.2620     0.9842     0.0246      0.010      0.047      0.068        129 3.1589e+02 0.0000e+00
      0.050    27.3790     5.4465     68.737  37.566535     35.821      7.991   233.4537     4.1609     1.0111     0.0246      0.009      0.047      0.068        130 3.3194e+02 0.0000e+00
      0.043    27.3737     5.4577     68.859  37.592821     35.906      7.980   233.6430     4.1569     1.0379     0.0246      0.007      0.041      0.060        131 3.3313e+02 0.0000e+00
      0.034    27.3706     5.4714     69.014  37.571653     35.830      7.982   233.5294     4.1407     1.1588     0.0246      0.002      0.034      0.051        132 3.3414e+02 0.0000e+00
      0.029    27.3702     5.4742     69.035  37.592883     35.914      7.982   233.8323     4.1407     1.0245     0.0246     -0.003      0.031      0.046        133 3.3819e+02 0.0000e+00
      0.035    27.3717     5.4736     69.015  37.566404     35.836      7.991   234.2109     3.6150     0.8365     0.0246     -0.006      0.034      0.050        134 3.3130e+02 0.0000e+00
      0.041    27.3719     5.4658     68.908  37.604605     35.916      8.001   234.3623     3.6312     0.9305     0.0246     -0.006      0.039      0.057        135 3.2885e+02 0.0000e+00
      0.045    27.3672     5.4514     68.720  37.634324     35.915      8.006   234.8166     3.6353     0.8097     0.0246     -0.004      0.043      0.062        136 3.2434e+02 0.0000e+00
      0.046    27.3571     5.4319     68.469  37.618402     35.915      8.010   234.9680     3.6393     0.8365     0.0246     -0.002      0.044      0.064        137 3.2193e+02 0.0000e+00
      0.045    27.3406     5.4051     68.128  37.624422     35.918      8.014   235.1952     3.6150     0.9036     0.0246      0.001      0.044      0.063        138 3.2387e+02 0.0000e+00
      0.044    27.3223     5.3861     67.885  37.626835     35.925      8.013   235.3466     3.9790     0.9171     0.0246      0.005      0.043      0.061        139 3.2237e+02 0.0000e+00
      0.041    27.3060     5.3663     67.631  37.674724     35.990      8.016   235.5737     3.9547     0.8231     0.0247      0.006      0.042      0.060        140 3.1884e+02 0.0000e+00
      0.042    27.2904     5.3438     67.343  37.683474     36.003      8.021   235.1573     3.9547     0.8634     0.0247      0.005      0.042      0.061        141 3.1653e+02 0.0000e+00
      0.046    27.2766     5.3264     67.118  37.615954     35.960      8.022   235.4980     3.9224     0.8634     0.0246      0.003      0.044      0.065        142 3.2157e+02 0.0000e+00
      0.047    27.2649     5.3130     66.950  37.640118     35.971      8.025   235.4980     4.0760     0.9574     0.0246      0.001      0.046      0.066        143 3.2228e+02 0.0000e+00
      0.047    27.2547     5.3113     66.930  37.653411     36.034      8.028   235.3844     4.0639     0.8634     0.0247      0.001      0.046      0.066        144 3.2368e+02 0.0000e+00
      0.046    27.2474     5.3202     67.034  37.569758     35.909      8.019   236.1037     4.1043     0.9305     0.0246      0.001      0.045      0.065        145 3.2900e+02 0.0000e+00
      0.044    27.2424     5.3322     67.187  37.595927     35.996      8.010   235.9523     4.0962     0.8097     0.0246      0.001      0.043      0.062        146 3.2596e+02 0.0000e+00
      0.043    27.2384     5.3382     67.270  37.591189     35.947      8.004   235.9902     3.8172     0.8499     0.0246      0.001      0.043      0.062        147 3.2623e+02 0.0000e+00
      0.045    27.2350     5.3380     67.275  37.605319     36.004      8.006   236.7473     3.8253     0.7828     0.0246      0.001      0.045      0.065        148 3.2745e+02 0.0000e+00
      0.049    27.2319     5.3498     67.418  37.548685     35.927      8.007   236.8987     3.8051     0.9305     0.0246      0.001      0.047      0.069        149 3.2087e+02 0.0000e+00
      0.050    27.2284     5.4129     68.192  37.543029     35.929      8.011   236.6716     3.8577     0.8634     0.0246      0.001      0.049      0.072        150 3.2029e+02 0.0000e+00
      0.050    27.2250     5.5223     69.562  37.612360     36.011      8.015   237.1259     3.9588     0.8097     0.0246      0.002      0.049      0.072        151 3.1805e+02 0.0000e+00
      0.049    27.2209     5.6950     71.742  37.551387     35.934      8.018   237.2016     3.9385     0.8634     0.0246      0.003      0.049      0.072        152 3.1561e+02 0.0000e+00
      0.052    27.2211     5.8929     74.239  37.559590     35.963      8.024   237.3909     3.9466     0.8768     0.0246      0.004      0.053      0.078        153 2.9947e+02 0.0000e+00
      0.063    27.2217     6.0947     76.789  37.542833     35.939      8.025   237.3909     3.9385     0.9305     0.0246      0.008      0.063      0.092        154 2.7783e+02 0.0000e+00
      0.078    27.2160     6.2696     78.995  37.483261     35.885      8.025   237.2016     4.1448     0.7828     0.0246      0.013      0.077      0.112        155 2.7804e+02 0.0000e+00
      0.095    27.2167     6.3916     80.520  37.485425     35.884      8.025   237.2016     4.1407     0.7962     0.0246      0.021      0.092      0.134        156 2.7751e+02 0.0000e+00
      0.109    27.2233     6.4559     81.326  37.540140     35.943      8.022   237.4287     4.1205     0.8768     0.0246      0.029      0.104      0.151        157 2.7326e+02 0.0000e+00
      0.116    27.2292     6.4584     81.362  37.533810     35.941      8.020   237.3530     4.1326     0.8634     0.0246      0.036      0.108      0.158        158 2.7356e+02 0.0000e+00
      0.109    27.2242     6.4212     80.896  37.552622     35.937      8.012   237.4666     4.1205     0.8634     0.0246      0.038      0.098      0.143        159 2.9557e+02 0.0000e+00
      0.076    27.2076     6.3499     80.002  37.665029     36.067      8.013   237.3909     4.5936     0.8097     0.0247      0.027      0.073      0.106        160 3.3099e+02 0.0000e+00
      0.039    27.2006     6.2643     78.929  37.690526     36.070      8.020   238.0345     4.5774     0.7962     0.0247      0.004      0.040      0.058        161 3.5882e+02 0.0000e+00
      0.008    27.2038     6.1697     77.741  37.669196     36.082      8.023   237.6937     4.6017     0.9036     0.0247     -0.025      0.010      0.013        162 3.7326e+02 0.0000e+00
     -0.021    27.2076     6.0778     76.587  37.632257     36.033      8.025   237.9966     4.5936     0.7828     0.0246     -0.055     -0.015     -0.022        163 3.8200e+02 0.0000e+00
     -0.034    27.2130     5.9951     75.538  37.558537     35.977      8.030   237.9587     3.8981     0.9439     0.0246     -0.078     -0.027     -0.040        164 3.7667e+02 0.0000e+00
     -0.030    27.2138     5.9226     74.621  37.493995     35.894      8.033   237.8452     3.8658     0.8902     0.0246     -0.087     -0.027     -0.039        165 3.7474e+02 0.0000e+00
     -0.018    27.2058     5.8623     73.859  37.534614     35.944      8.034   238.5266     3.8860     0.8365     0.0246     -0.080     -0.019     -0.027        166 3.7080e+02 0.0000e+00
     -0.011    27.2029     5.8006     73.079  37.537646     35.943      8.028   238.7537     3.8900     0.8499     0.0246     -0.062     -0.011     -0.016        167 3.7138e+02 0.0000e+00
     -0.004    27.2059     5.7483     72.418  37.490221     35.896      8.025   238.7916     3.8819     0.9842     0.0246     -0.035     -0.002     -0.004        168 3.7826e+02 0.0000e+00
      0.008    27.2077     5.6929     71.715  37.534315     35.951      8.021   239.4352     3.9062     0.9036     0.0246     -0.008      0.007      0.009        169 3.3519e+02 0.0000e+00
      0.014    27.2112     5.6474     71.139  37.542094     35.949      8.016   239.3216     3.8981     0.7962     0.0246      0.012      0.012      0.017        170 3.0863e+02 0.0000e+00
      0.015    27.2148     5.6614     71.400  37.539859     35.948      8.019   239.3216     3.8738     0.7828     0.0246      0.024      0.014      0.021        171 3.1518e+02 0.0000e+00
      0.016    27.2184     5.9390     75.081  37.537095     35.945      8.024   239.4730     4.1488     0.8902     0.0246      0.027      0.015      0.021        172 3.1716e+02 0.0000e+00
      0.015    27.2201     6.5578     83.042  37.545534     35.943      8.023   239.5487     4.1690     0.9305     0.0246      0.023      0.016      0.022        173 3.1501e+02 0.0000e+00
      0.017    27.2165     7.3652     93.354  37.618338     36.021      8.029   239.1702     4.1569     0.8097     0.0246      0.017      0.020      0.028        174 3.0772e+02 0.0000e+00
      0.029    27.2129     8.1074    102.813  37.565131     35.966      8.032   239.0187     4.1326     0.8365     0.0246      0.015      0.028      0.041        175 2.9817e+02 0.0000e+00
      0.039    27.2115     8.7429    110.898  37.493106     35.888      8.033   239.3973     4.1407     0.8365     0.0246      0.016      0.036      0.053        176 2.9396e+02 0.0000e+00
      0.043    27.2095     9.2286    117.067  37.530010     35.944      8.034   239.8137     4.1609     0.8902     0.0246      0.016      0.041      0.059        177 3.0370e+02 0.0000e+00
      0.043    27.2079     9.5430    121.050  37.548866     35.945      8.033   240.0409     4.1690     0.9574     0.0246      0.017      0.042      0.061        178 3.0359e+02 0.0000e+00
      0.042    27.2034     9.6953    122.946  37.528963     35.946      8.033   240.0030     4.1529     0.7828     0.0246      0.018      0.041      0.059        179 3.0017e+02 0.0000e+00
      0.039    27.2021     9.6665    122.569  37.495461     35.894      8.032   240.2302     4.1529     0.8097     0.0246      0.016      0.040      0.058        180 2.9897e+02 0.0000e+00
      0.040    27.2702     9.5230    120.741  37.560901     35.977      8.033   240.3059     4.2782     0.8097     0.0246      0.013      0.040      0.058        181 2.9831e+02 0.0000e+00
      0.043    27.4004     9.3585    118.656  37.862775     36.247      8.034   240.7223     4.3146     0.8231     0.0247      0.009      0.042      0.061        182 2.9899e+02 0.0000e+00
      0.045    27.4959     9.2278    117.001  38.128241     36.495      8.036   240.9116     4.2742     0.8499     0.0248      0.004      0.044      0.063        183 2.9579e+02 0.0000e+00
      0.046    27.5474     9.1279    115.739  38.120324     36.347      8.035   240.9495     4.2822     0.8902     0.0248      0.002      0.044      0.064        184 2.9720e+02 0.0000e+00
      0.044    27.5778     9.0559    114.828  38.139521     36.337      8.036   241.1009     4.1569     0.8634     0.0248      0.001      0.043      0.063        185 2.9715e+02 0.0000e+00
      0.042    27.5898     9.0106    114.253  38.193286     36.326      8.036   240.7602     4.1609     0.8768     0.0248      0.001      0.042      0.062        186 2.9496e+02 0.0000e+00
      0.045    27.5946     8.9704    113.739  38.142366     36.280      8.037   240.6087     4.1407     0.8634     0.0248      0.002      0.045      0.066        187 2.9582e+02 0.0000e+00
      0.051    27.5903     8.9312    113.236  38.113888     36.217      8.037   240.8737     4.1609     0.7828     0.0248      0.004      0.051      0.073        188 2.9560e+02 0.0000e+00
      0.058    27.5766     8.8985    112.810  38.139736     36.268      8.040   240.9495     4.2014     0.8365     0.0248      0.006      0.056      0.080        189 2.9570e+02 0.0000e+00
      0.061    27.5689     8.8708    112.417  38.110196     36.217      8.033   241.4795     4.1933     0.8365     0.0248      0.008      0.058      0.083        190 2.9941e+02 0.0000e+00
      0.058    27.5664     8.8511    112.120  38.120990     36.254      8.034   241.9716     4.1933     0.8634     0.0248      0.009      0.056      0.082        191 3.0420e+02 0.0000e+00
      0.053    27.5656     8.8444    111.998  38.155970     36.285      8.032   241.7823     4.2337     0.8768     0.0248      0.008      0.053      0.077        192 3.0847e+02 0.0000e+00
      0.051    27.5675     8.8531    112.098  38.096329     36.234      8.030   242.1230     4.2701     0.8634     0.0248      0.006      0.051      0.075        193 3.0600e+02 0.0000e+00
      0.053    27.5693     8.8647    112.204  38.106231     36.234      8.027   242.2745     4.2701     0.9036     0.0248      0.004      0.053      0.076        194 3.0057e+02 0.0000e+00
      0.057    27.5704     8.8773    112.311  38.143648     36.287      8.030   242.4637     4.2822     0.8499     0.0248      0.002      0.055      0.080        195 2.9733e+02 0.0000e+00
      0.057    27.5701     8.8915    112.471  38.109086     36.232      8.029   242.5773     4.3025     0.8499     0.0248     -0.000      0.056      0.082        196 3.0012e+02 0.0000e+00
      0.058    27.5677     8.8914    112.464  38.119583     36.258      8.031   242.1987     4.5208     0.8634     0.0248     -0.001      0.058      0.085        197 2.9543e+02 0.0000e+00
      0.064    27.5654     8.8855    112.389  38.100924     36.232      8.033   242.0852     4.5370     0.9171     0.0248      0.002      0.063      0.093        198 2.8489e+02 0.0000e+00
      0.073    27.5583     8.8858    112.393  38.102643     36.233      8.035   241.8580     4.5491     0.9171     0.0248      0.007      0.073      0.107        199 2.8544e+02 0.0000e+00
      0.087    27.5386     8.8917    112.447  38.087782     36.235      8.038   241.8580     4.5208     0.8231     0.0248      0.015      0.087      0.127        200 2.8145e+02 0.0000e+00
      0.107    27.5140     8.9111    112.661  38.060099     36.186      8.040   241.9337     4.5330     0.7828     0.0248      0.024      0.107      0.156        201 2.6878e+02 0.0000e+00
      0.134    27.4970     8.9317    112.889  38.048117     36.227      8.036   241.7066     4.6057     0.8902     0.0248      0.036      0.132      0.191        202 2.4638e+02 0.0000e+00
      0.163    27.4904     8.9372    112.906  37.984060     36.137      8.030   242.0095     4.6138     0.8499     0.0248      0.051      0.160      0.231        203 2.4378e+02 0.0000e+00
      0.191    27.4707     8.9427    112.883  38.021184     36.230      8.026   242.4637     4.5936     0.8634     0.0248      0.067      0.186      0.269        204 2.4115e+02 0.0000e+00
      0.213    27.4449     8.9417    112.798  37.972263     36.153      8.025   242.2366     4.6138     0.8365     0.0248      0.080      0.208      0.301        205 2.2145e+02 0.0000e+00
      0.232    27.4348     8.9363    112.678  37.896642     36.114      8.032   242.3880     5.0020     0.8634     0.0247      0.089      0.224      0.325        206 2.2515e+02 0.0000e+00
      0.240    27.4320     8.9379    112.591  37.966999     36.185      8.029   244.3188     4.9656     0.8097     0.0248      0.090      0.233      0.338        207 2.2675e+02 0.0000e+00
      0.240    27.4319     8.9463    112.576  38.003361     36.245      8.025   246.6280     4.9494     0.8634     0.0248      0.082      0.239      0.346        208 2.1898e+02 0.0000e+00
      0.250    27.4310     8.9580    112.610  37.970040     36.194      8.034   245.2652     4.9575     0.8097     0.0248      0.071      0.250      0.362        209 2.2129e+02 0.0000e+00
      0.274    27.4216     8.9662    112.599  37.949147     36.194      8.050   244.5080     5.2649     0.9036     0.0248      0.062      0.271      0.392        210 2.1752e+02 0.0000e+00
      0.301    27.4059     8.9714    112.595  37.910720     36.141      8.065   244.7730     5.2851     0.9574     0.0247      0.058      0.297      0.431        211 2.0603e+02 0.0000e+00
      0.334    27.3897     8.9851    112.680  37.899218     36.148      8.070   244.9245     5.2729     0.8634     0.0247      0.061      0.327      0.475        212 2.0046e+02 0.0000e+00
      0.367    27.3627     8.9918    112.689  37.904142     36.158      8.076   245.9088     5.2729     0.9305     0.0247      0.070      0.360      0.522        213 1.9675e+02 0.0000e+00
      0.400    27.3181     8.9939    112.689  37.845280     36.116      8.080   246.4388     5.1638     0.8097     0.0247      0.084      0.392      0.568        214 1.9227e+02 0.0000e+00
      0.431    27.2824     8.9968    112.740  37.794517     36.081      8.085   246.8552     5.1476     0.8499     0.0247      0.101      0.422      0.611        215 1.8985e+02 0.0000e+00
      0.456    27.2547     8.9959    112.729  37.789364     36.113      8.090   246.4766     5.1678     1.1051     0.0247      0.113      0.448      0.649        216 1.8640e+02 0.0000e+00
      0.483    27.2028     8.9887    112.597  37.792392     36.137      8.099   247.1202     5.1759     0.8097     0.0247      0.118      0.473      0.685        217 1.8276e+02 0.0000e+00
      0.507    27.1433     8.9817    112.418  37.731447     36.102      8.101   247.4988     5.1314     0.8902     0.0247      0.117      0.494      0.717        218 1.8074e+02 0.0000e+00
      0.521    27.0856     8.9635    112.094  37.687264     36.085      8.100   247.5366     5.1355     0.8097     0.0247      0.111      0.510      0.741        219 1.7869e+02 0.0000e+00
      0.533    27.0320     8.9547    111.931  37.669439     36.127      8.105   248.1802     5.1435     0.9036     0.0247      0.100      0.524      0.760        220 1.7503e+02 0.0000e+00
      0.547    26.9948     8.9500    111.880  37.635018     36.112      8.113   248.4831     5.1678     0.8902     0.0246      0.088      0.541      0.785        221 1.7110e+02 0.0000e+00
      0.574    26.9532     8.9666    112.111  37.611489     36.151      8.115   249.5809     5.1678     0.8634     0.0246      0.081      0.566      0.821        222 1.6548e+02 0.0000e+00
      0.611    26.9156     9.0020    112.486  37.550444     36.094      8.114   249.4295     5.1435     0.8231     0.0246      0.080      0.595      0.864        223 1.5980e+02 0.0000e+00
      0.634    26.9035     9.0331    112.792  37.562707     36.151      8.115   249.6566     5.1476     0.8231     0.0246      0.082      0.620      0.898        224 1.5677e+02 0.0000e+00
      0.650    26.9089     9.0489    112.948  37.536928     36.150      8.113   249.5431     5.1516     0.8231     0.0246      0.083      0.636      0.923        225 1.5354e+02 0.0000e+00
      0.663    26.9101     9.0480    112.915  37.552881     36.159      8.113   249.3538     5.1476     0.8365     0.0246      0.083      0.650      0.944        226 1.5144e+02 0.0000e+00
      0.676    26.8887     9.0402    112.773  37.602180     36.235      8.118   248.8995     5.1718     0.8499     0.0246      0.083      0.669      0.971        227 1.4904e+02 0.0000e+00
      0.710    26.8439     9.0170    112.392  37.505237     36.100      8.124   249.3538     5.1718     0.8499     0.0246      0.086      0.698      1.012        228 1.4446e+02 0.0000e+00
      0.748    26.7972     8.9922    111.907  37.465906     36.115      8.124   249.5431     5.1718     0.9439     0.0246      0.090      0.731      1.061        229 1.3962e+02 0.0000e+00
      0.778    26.7700     8.9760    111.527  37.443516     36.092      8.133   249.7323     5.1516     0.9708     0.0246      0.092      0.761      1.104        230 1.3686e+02 0.0000e+00
      0.802    26.7750     8.9841    111.506  37.355159     36.071      8.137   249.8838     5.2163     0.7962     0.0246      0.094      0.783      1.136        231 1.3630e+02 0.0000e+00
      0.816    26.7837     8.9980    111.611  37.397927     36.090      8.141   249.8081     5.2123     0.9171     0.0246      0.097      0.802      1.164        232 1.3409e+02 0.0000e+00
      0.838    26.7526     9.0369    112.042  37.449626     36.195      8.150   250.1109     5.2163     0.7962     0.0246      0.100      0.825      1.196        233 1.3044e+02 0.0000e+00
      0.870    26.7111     9.0908    112.654  37.350142     36.025      8.152   250.3759     5.2082     0.8097     0.0245      0.103      0.850      1.233        234 1.2823e+02 0.0000e+00
      0.890    26.6916     9.1359    113.151  37.343773     36.102      8.157   250.4138     5.2406     0.8902     0.0246      0.102      0.872      1.265        235 1.2671e+02 0.0000e+00
      0.908    26.6795     9.1820    113.648  37.338922     36.077      8.161   250.3381     5.2891     0.9305     0.0245      0.094      0.892      1.294        236 1.2409e+02 0.0000e+00
      0.932    26.6590     9.2161    113.961  37.296878     36.091      8.164   250.9059     5.2608     0.8365     0.0245      0.089      0.914      1.326        237 1.2167e+02 0.0000e+00
      0.956    26.6117     9.2245    113.941  37.277470     36.045      8.164   250.8681     5.2689     0.8231     0.0245      0.087      0.939      1.362        238 1.1923e+02 0.0000e+00
      0.987    26.5266     9.2112    113.709  37.185122     36.005      8.166   251.1331     5.4630     0.8365     0.0245      0.091      0.968      1.404        239 1.1500e+02 0.0000e+00
      1.020    26.4377     9.1994    113.529  37.085556     35.902      8.163   251.1709     5.4832     0.9305     0.0244      0.097      0.998      1.447        240 1.1280e+02 0.0000e+00
      1.044    26.3779     9.1868    113.303  37.075146     35.989      8.164   251.8145     5.4670     0.9036     0.0245      0.099      1.024      1.484        241 1.1045e+02 0.0000e+00
      1.068    26.3436     9.1617    112.903  37.020158     35.970      8.164   251.7388     5.4711     0.8634     0.0244      0.100      1.047      1.518        242 1.0731e+02 0.0000e+00
      1.092    26.3179     9.1245    112.377  37.005730     36.012      8.169   251.8902     5.4387     0.8097     0.0244      0.103      1.072      1.553        243 1.0572e+02 0.0000e+00
      1.116    26.2904     9.0525    111.411  37.004154     36.036      8.177   251.5873     5.7056     0.9036     0.0244      0.104      1.099      1.592        244 1.0270e+02 0.0000e+00
      1.152    26.2601     8.9582    110.123  36.962821     35.999      8.190   251.8902     5.7380     0.8634     0.0244      0.106      1.129      1.637        245 9.9568e+01 0.0000e+00
      1.184    26.2240     8.8269    108.296  36.968203     36.046      8.203   252.0038     5.7137     0.9439     0.0244      0.108      1.159      1.681        246 9.7667e+01 0.0000e+00
      1.209    26.1714     8.6702    106.215  36.908491     35.986      8.216   251.8523     5.7056     0.8365     0.0244      0.108      1.186      1.721        247 9.5608e+01 0.0000e+00
      1.237    26.1128     8.4913    103.916  36.829531     35.956      8.224   252.1552     6.0251     0.8365     0.0244      0.108      1.211      1.756        248 9.4009e+01 0.0000e+00
      1.257    26.0792     8.3046    101.524  36.799551     35.938      8.231   251.5873     6.0493     0.8499     0.0243      0.109      1.235      1.791        249 9.2700e+01 0.0000e+00
      1.285    26.0617     8.1274     99.282  36.827189     36.035      8.238   251.6631     6.0251     0.8365     0.0244      0.109      1.261      1.829        250 9.0097e+01 0.0000e+00
      1.316    26.0274     7.9757     97.378  36.795162     36.004      8.242   251.5495     6.0251     0.7559     0.0243      0.109      1.288      1.869        251 8.8305e+01 0.0000e+00
      1.339    25.9847     7.8907     96.209  36.720788     35.961      8.247   252.0795     6.1989     1.0782     0.0243      0.107      1.312      1.904        252 8.6959e+01 0.0000e+00
      1.361    25.9498     7.8436     95.360  36.593507     35.848      8.254   252.0038     6.2151     1.1319     0.0243      0.102      1.335      1.938        253 8.5089e+01 0.0000e+00
      1.387    25.9128     7.8297     94.791  36.538350     35.824      8.257   252.3445     6.2151     1.0648     0.0242      0.100      1.360      1.974        254 8.3375e+01 0.0000e+00
      1.414    25.8457     7.8215     94.250  36.522518     35.848      8.250   252.2309     6.2272     1.0648     0.0242      0.100      1.389      2.016        255 8.0876e+01 0.0000e+00
      1.453    25.7425     7.7532     93.056  36.435275     35.765      8.231   253.3666     6.3526     0.7962     0.0242      0.104      1.421      2.061        256 7.8726e+01 0.0000e+00
      1.480    25.6586     7.5615     90.470  36.409673     35.810      8.210   253.1774     6.3202     0.8634     0.0242      0.107      1.448      2.099        257 7.7620e+01 0.0000e+00
      1.496    25.6018     7.2717     86.791  36.406120     35.858      8.194   253.4424     6.3405     0.8902     0.0242      0.106      1.468      2.129        258 7.6452e+01 0.0000e+00
      1.516    25.5449     6.9210     82.429  36.469402     35.999      8.186   253.9345     6.3364     0.9036     0.0242      0.103      1.487      2.157        259 7.4966e+01 0.0000e+00
      1.537    25.5040     6.5584     77.924  36.479256     36.039      8.171   254.0102     6.1545     0.8097     0.0242      0.101      1.511      2.191        260 7.3487e+01 0.0000e+00
      1.568    25.4738     6.2135     73.617  36.423548     36.025      8.154   254.2374     6.1545     0.7828     0.0242      0.100      1.543      2.238        261 7.0953e+01 0.0000e+00
      1.619    25.3986     5.8776     69.491  36.420120     36.054      8.119   256.3195     6.1383     0.8499     0.0242      0.104      1.587      2.302        262 6.7878e+01 0.0000e+00
      1.670    25.2417     5.6016     65.997  36.394566     36.047      8.078   256.9252     6.1747     0.8231     0.0242      0.114      1.633      2.369        263 6.5641e+01 0.0000e+00
      1.708    25.0130     5.3462     62.672  36.425713     36.128      8.048   257.3795     7.5495     1.0111     0.0242      0.124      1.673      2.427        264 6.4067e+01 0.0000e+00
      1.741    24.7619     5.1046     59.555  36.411061     36.242      8.024   257.7581     7.5455     1.0916     0.0242      0.136      1.707      2.476        265 6.2478e+01 0.0000e+00
      1.773    24.5456     4.7946     55.720  36.323903     36.296      7.998   258.7045     7.5252     1.1319     0.0242      0.146      1.743      2.528        266 6.0555e+01 0.0000e+00
      1.819    24.3776     4.4047     51.052  36.297018     36.481      7.967   259.9538     7.5212     0.9305     0.0242      0.154      1.788      2.593        267 5.7903e+01 0.0000e+00
      1.878    24.2443     3.9305     45.489  36.266684     36.582      7.926   261.2409     7.5536     1.1588     0.0242      0.164      1.840      2.668        268 5.5146e+01 0.0000e+00
      1.929    24.1320     3.5103     40.602  36.213466     36.680      7.891   260.9381     8.0509     1.0648     0.0242      0.169      1.887      2.736        269 5.3606e+01 0.0000e+00
      1.964    24.0003     3.1288     36.143  36.126063     36.664      7.864   261.1274     8.0711     1.0379     0.0241      0.168      1.925      2.791        270 5.2293e+01 0.0000e+00
      1.996    23.8552     2.8026     32.291  36.049280     36.692      7.836   261.8845     8.0509     0.9842     0.0241      0.167      1.958      2.839        271 5.0844e+01 0.0000e+00
      2.029    23.7360     2.5696     29.481  36.012497     36.731      7.811   262.1495     8.0590     1.0379     0.0241      0.166      1.993      2.891        272 4.9382e+01 0.0000e+00
      2.073    23.5521     2.3983     27.388  35.934636     36.788      7.782   263.5881     7.9417     1.0916     0.0241      0.166      2.038      2.956        273 4.6923e+01 0.0000e+00
      2.133    23.2872     2.2567     25.674  35.820004     36.729      7.745   263.8152     7.9337     1.0379     0.0240      0.168      2.090      3.031        274 4.4455e+01 0.0000e+00
      2.185    23.0342     2.1688     24.618  35.710352     36.783      7.714   264.0045     7.9337     1.1319     0.0240      0.169      2.140      3.104        275 4.2639e+01 0.0000e+00
      2.229    22.8305     2.0753     23.510  35.655974     36.900      7.684   264.3452     7.9215     1.0111     0.0240      0.169      2.181      3.164        276 4.1483e+01 0.0000e+00
      2.258    22.6885     1.9948     22.528  35.709847     37.181      7.663   264.0802     7.6870     1.3602     0.0240      0.170      2.214      3.211        277 4.0460e+01 0.0000e+00
      2.287    22.6130     1.9261     21.680  35.732402     37.341      7.642   264.4588     7.6789     1.3602     0.0240      0.169      2.243      3.253        278 3.9295e+01 0.0000e+00
      2.315    22.5789     1.8455     20.685  35.776293     37.509      7.618   264.6481     7.6749     1.2393     0.0241      0.164      2.271      3.294        279 3.8478e+01 0.0000e+00
      2.346    22.5133     1.7558     19.571  35.862903     37.659      7.592   264.8374     7.6668     1.2796     0.0241      0.155      2.306      3.344        280 3.6905e+01 0.0000e+00
      2.395    22.3735     1.6275     18.032  35.950902     37.770      7.564   265.6702     7.8528     1.4139     0.0241      0.147      2.349      3.407        281 3.5090e+01 0.0000e+00
      2.444    22.1565     1.4697     16.197  35.993050     37.883      7.538   265.8974     7.8649     1.5348     0.0242      0.141      2.394      3.473        282 3.3864e+01 0.0000e+00
      2.484    21.9151     1.2693     13.905  36.225708     38.199      7.510   266.6924     7.8609     1.6825     0.0243      0.142      2.436      3.533        283 3.2647e+01 0.0000e+00
      2.524    21.7206     1.0541     11.475  36.491881     38.733      7.481   266.9574     7.8730     1.4945     0.0244      0.147      2.475      3.589        284 3.1357e+01 0.0000e+00
      2.563    21.6023     0.8225      8.920  36.403381     38.754      7.459   267.2981     7.8649     1.5482     0.0244      0.155      2.511      3.643        285 3.0464e+01 0.0000e+00
      2.595    21.4960     0.6317      6.842  36.424936     39.005      7.434   268.4717     8.3502     1.5079     0.0244      0.158      2.550      3.700        286 2.9200e+01 0.0000e+00
      2.648    21.3404     0.4829      5.233  36.435492     39.075      7.403   268.5474     8.3421     1.5348     0.0244      0.163      2.596      3.766        287 2.7500e+01 0.0000e+00
      2.699    21.1665     0.3715      4.016  37.102144     39.851      7.378   268.4717     8.3785     1.4273     0.0247      0.167      2.642      3.833        288 2.6512e+01 0.0000e+00
      2.736    20.9532     0.2952      3.174  37.819877     40.894      7.354   268.3960     8.3785     1.5750     0.0251      0.165      2.682      3.890        289 2.5742e+01 0.0000e+00
      2.770    20.6689     0.2650      2.835  37.885546     40.924      7.335   268.5095     8.2450     1.5616     0.0250      0.163      2.717      3.941        290 2.4675e+01 0.0000e+00
      2.809    20.3664     0.2659      2.831  38.295948     41.754      7.311   269.3045     8.2531     1.4273     0.0253      0.163      2.751      3.990        291 2.4009e+01 0.0000e+00
      2.834    20.0957     0.2960      3.141  38.495730     42.074      7.286   269.2288     8.2288     1.4408     0.0254      0.158      2.783      4.037        292 2.3449e+01 0.0000e+00
      2.871    19.7922     0.3360      3.554  38.704898     42.697      7.264   270.3267     8.2288     1.4945     0.0255      0.153      2.821      4.092        293 2.2062e+01 0.0000e+00
      2.929    19.4835     0.3625      3.819  39.311297     43.539      7.231   270.7810     7.8123     1.4945     0.0258      0.154      2.865      4.155        294 2.1027e+01 0.0000e+00
      2.962    19.2895     0.3798      3.979  39.817667     44.489      7.203   271.0460     7.7840     1.5885     0.0261      0.149      2.895      4.199        295 2.0996e+01 0.0000e+00
      2.965    19.2310     0.3883      4.040  39.765728     44.678      7.186   271.3110     7.8407     1.4945     0.0261      0.139      2.906      4.215        296 2.1123e+01 0.0000e+00
      2.964    19.2450     0.3927      4.056  39.583734     44.680      7.167   271.2731     7.7921     1.6288     0.0261      0.124      2.912      4.224        297 2.1006e+01 0.0000e+00
      2.980    19.1261     0.3769      3.867  39.450973     44.617      7.151   270.8188     7.6668     1.5348     0.0260      0.108      2.932      4.252        298 2.0159e+01 0.0000e+00
      3.026    18.8679     0.3610      3.686  39.248715     44.310      7.129   271.4624     7.6627     1.4810     0.0259      0.100      2.968      4.305        299 1.9195e+01 0.0000e+00
      3.073    18.6115     0.3326      3.383  39.242183     44.493      7.106   271.2353     7.6668     1.5079     0.0259      0.100      3.013      4.370        300 1.8446e+01 0.0000e+00
      3.118    18.3832     0.3006      3.051  39.310847     44.763      7.085   273.8474     7.6749     1.4945     0.0260      0.102      3.055      4.431        301 1.7658e+01 0.0000e+00
      3.157    18.2206     0.2810      2.846  39.489689     45.307      7.066   273.6960     7.8609     1.5213     0.0261      0.108      3.093      4.486        302 1.7230e+01 0.0000e+00
      3.186    18.0655     0.2567      2.590  39.553707     45.555      7.051   273.6960     7.8770     1.5348     0.0261      0.122      3.125      4.533        303 1.6727e+01 0.0000e+00
      3.219    17.8636     0.2465      2.472  39.676259     45.912      7.039   273.8474     7.8447     1.4676     0.0262      0.139      3.160      4.583        304 1.6007e+01 0.0000e+00
      3.261    17.5947     0.2369      2.362  40.138214     46.568      7.020   274.0746     7.8730     1.5348     0.0265      0.151      3.201      4.643        305 1.5254e+01 0.0000e+00
      3.314    17.2553     0.2304      2.286  40.551146     47.339      6.999   274.4531     7.4808     1.7362     0.0267      0.157      3.250      4.714        306 1.4427e+01 0.0000e+00
      3.368    16.9113     0.2380      2.351  40.289761     47.277      6.974   275.1346     7.5010     1.7228     0.0266      0.159      3.302      4.788        307 1.3593e+01 0.0000e+00
      3.420    16.6025     0.2444      2.405  40.078000     47.395      6.954   275.5510     7.4808     1.6556     0.0266      0.165      3.349      4.857        308 1.2883e+01 0.0000e+00
      3.456    16.3610     0.2516      2.467  40.458877     48.283      6.936   275.5131     7.5010     1.6556     0.0268      0.170      3.387      4.912        309 1.2522e+01 0.0000e+00
      3.483    16.1899     0.2591      2.534  40.468594     48.643      6.924   276.7624     7.4889     1.6825     0.0269      0.172      3.418      4.957        310 1.2015e+01 0.0000e+00
      3.517    16.0770     0.2644      2.582  40.362728     48.758      6.915   276.8381     5.4266     2.1524     0.0268      0.171      3.449      5.002        311 1.1477e+01 0.0000e+00
      3.548    15.9810     0.2646      2.581  40.561096     49.265      6.901   276.8760     5.3942     2.0719     0.0270      0.164      3.480      5.047        312 1.1103e+01 0.0000e+00
      3.581    15.7949     0.2646      2.579  40.904142     49.743      6.889   276.7624     5.4023     2.1524     0.0272      0.153      3.514      5.097        313 1.0525e+01 0.0000e+00
      3.623    15.5209     0.2536      2.469  41.567535     50.741      6.876   277.4817     5.4104     1.9779     0.0276      0.144      3.554      5.155        314 9.9643e+00 0.0000e+00
      3.668    15.2537     0.2504      2.435  41.515590     50.905      6.858   278.1253     4.4561     3.1193     0.0276      0.139      3.596      5.216        315 9.5314e+00 0.0000e+00
      3.710    15.0163     0.2310      2.245  40.553565     50.011      6.840   278.6931     4.4763     3.1998     0.0271      0.140      3.638      5.278        316 9.0804e+00 0.0000e+00
      3.754    14.8112     0.2252      2.184  40.124584     49.821      6.825   278.7310     4.4804     3.1461     0.0269      0.147      3.680      5.338        317 8.5867e+00 0.0000e+00
      3.795    14.6379     0.2189      2.118  40.091627     50.117      6.809   276.6867     4.4804     3.0924     0.0269      0.155      3.723      5.400        318 8.1438e+00 0.0000e+00
      3.843    14.4761     0.2354      2.272  39.764081     49.919      6.793   275.3617     2.6527     4.5158     0.0268      0.162      3.767      5.463        319 7.6598e+00 0.0000e+00
      3.884    14.3550     0.2638      2.542  39.464385     49.784      6.778   272.8253     2.6729     4.3278     0.0267      0.167      3.803      5.515        320 7.4420e+00 0.0000e+00
      3.905    14.2833     0.3023      2.906  39.337429     49.812      6.768   270.0995     2.6891     4.4755     0.0266      0.164      3.830      5.555        321 7.3315e+00 0.0000e+00
      3.929    14.2288     0.3404      3.266  39.269541     49.896      6.762   269.1531     2.6688     4.3815     0.0266      0.155      3.857      5.593        322 7.0433e+00 0.0000e+00
      3.966    14.1888     0.3637      3.483  39.311623     50.019      6.754   268.9260     2.4181     5.0932     0.0266      0.146      3.887      5.637        323 6.7719e+00 0.0000e+00
      3.993    14.1411     0.3844      3.676  39.255439     50.056      6.743   269.0395     2.4100     5.1200     0.0266      0.137      3.917      5.681        324 6.5643e+00 0.0000e+00
      4.024    14.0963     0.3972      3.796  39.013186     49.747      6.734   269.2667     2.3777     5.0260     0.0265      0.129      3.948      5.726        325 6.2778e+00 0.0000e+00
      4.061    14.0625     0.4225      4.033  38.841866     49.630      6.724   269.1531     2.4181     5.0797     0.0264      0.123      3.980      5.772        326 5.9445e+00 0.0000e+00
      4.089    13.9778     0.4625      4.408  38.756739     49.546      6.715   268.9638     2.2604     5.6437     0.0264      0.119      4.010      5.815        327 5.7921e+00 0.0000e+00
      4.117    13.8545     0.5254      5.003  38.407226     49.191      6.703   268.8881     2.2847     5.6840     0.0262      0.118      4.037      5.855        328 5.6122e+00 0.0000e+00
      4.142    13.7570     0.5949      5.662  38.446285     49.228      6.695   269.0774     2.2726     5.7243     0.0262      0.120      4.062      5.891        329 5.4474e+00 0.0000e+00
      4.166    13.6708     0.6771      6.442  39.598101     51.005      6.686   269.1910     2.2685     5.6840     0.0269      0.117      4.088      5.929        330 5.2534e+00 0.0000e+00
      4.200    13.5678     0.7686      7.311  39.762278     51.349      6.682   269.6453     2.2766     5.6706     0.0270      0.114      4.117      5.972        331 5.0092e+00 0.0000e+00
      4.229    13.4763     0.8417      8.000  38.627655     49.872      6.675   269.3803     2.4020     5.6169     0.0263      0.113      4.146      6.013        332 4.8932e+00 0.0000e+00
      4.253    13.4011     0.8903      8.453  38.192099     49.536      6.667   269.9103     2.4060     5.6571     0.0261      0.111      4.172      6.051        333 4.7147e+00 0.0000e+00
      4.281    13.3454     0.9010      8.548  38.198249     49.617      6.655   269.4560     2.3615     5.6974     0.0261      0.108      4.197      6.087        334 4.5510e+00 0.0000e+00
      4.303    13.3133     0.8854      8.392  38.145441     49.677      6.646   269.7210     2.3736     5.6571     0.0261      0.107      4.220      6.122        335 4.4330e+00 0.0000e+00
      4.327    13.2597     0.8462      8.011  38.109545     49.679      6.641   270.3267     1.8197     7.2282     0.0261      0.105      4.245      6.157        336 4.2081e+00 0.0000e+00
      4.357    13.1885     0.7832      7.408  38.035313     49.643      6.631   270.7431     1.8358     7.1476     0.0261      0.105      4.270      6.193        337 4.0906e+00 0.0000e+00
      4.377    13.1453     0.6996      6.615  38.059869     49.715      6.623   271.3110     1.8156     7.1745     0.0261      0.102      4.292      6.226        338 4.0089e+00 0.0000e+00
      4.397    13.1184     0.6043      5.715  38.049351     49.844      6.619   265.2917     1.8278     7.1476     0.0261      0.097      4.316      6.259        339 3.7971e+00 0.0000e+00
      4.430    13.1019     0.4982      4.711  38.078097     49.865      6.611   264.1938     1.6741     7.1476     0.0261      0.097      4.342      6.298        340 3.6441e+00 0.0000e+00
      4.455    13.0938     0.4003      3.782  38.231758     50.191      6.605   263.5124     1.6984     7.1879     0.0263      0.098      4.367      6.334        341 3.5663e+00 0.0000e+00
      4.473    13.0564     0.3069      2.896  38.184426     50.070      6.599   264.0045     1.6984     7.1208     0.0262      0.096      4.391      6.367        342 3.3921e+00 0.0000e+00
      4.505    13.0099     0.2302      2.170  38.314986     50.295      6.593   263.9288     1.6781     7.1745     0.0263      0.098      4.416      6.404        343 3.2523e+00 0.0000e+00
      4.528    12.9772     0.1706      1.608  38.573559     50.680      6.584   264.2695     1.5771     8.5576     0.0264      0.098      4.439      6.438        344 3.2248e+00 0.0000e+00
      4.544    12.9341     0.1356      1.276  38.604229     50.777      6.581   264.6481     1.5609     8.5039     0.0265      0.095      4.460      6.469        345 3.0908e+00 0.0000e+00
      4.574    12.8832     0.1041      0.979  38.870105     51.152      6.575   265.0267     1.5771     8.4904     0.0266      0.096      4.484      6.504        346 2.9873e+00 0.0000e+00
      4.599    12.8426     0.0899      0.846  39.251270     51.762      6.566   265.4810     1.5892     8.3562     0.0269      0.096      4.505      6.534        347 2.9429e+00 0.0000e+00
      4.608    12.8296     0.0816      0.767  39.168135     51.686      6.562   264.9131     1.3061    10.4912     0.0268      0.090      4.516      6.551        348 2.9210e+00 0.0000e+00
      4.608    12.8364     0.0816      0.766  39.121908     51.666      6.557   264.7238     1.3183    10.5449     0.0268      0.082      4.523      6.561        349 2.9066e+00 0.0000e+00
      4.621    12.8279     0.0849      0.797  39.071505     51.686      6.551   265.4810     1.3061    10.5046     0.0268      0.073      4.539      6.584        350 2.7768e+00 0.0000e+00
      4.658    12.7926     0.0974      0.914  39.675837     52.301      6.546   265.6324     1.3061    10.6120     0.0271      0.069      4.568      6.625        351 2.6572e+00 0.0000e+00
      4.693    12.7428     0.1192      1.118  40.950711     54.274      6.533   265.8217     1.3061    10.4778     0.0279      0.072      4.600      6.671        352 2.5299e+00 0.0000e+00
      4.719    12.7008     0.1606      1.505  41.133831     54.322      6.527   266.1245     1.2293    11.5251     0.0279      0.078      4.628      6.712        353 2.4316e+00 0.0000e+00
      4.745    12.6671     0.2277      2.133  40.634589     53.916      6.523   266.4274     1.2414    11.7668     0.0277      0.083      4.653      6.748        354 2.3400e+00 0.0000e+00
      4.770    12.6358     0.3071      2.875  39.970055     52.935      6.516   266.2760     1.2333    11.6460     0.0273      0.091      4.675      6.781        355 2.2528e+00 0.0000e+00
      4.786    12.6110     0.4144      3.877  39.617249     52.613      6.512   266.2760     1.2616    11.6863     0.0271      0.098      4.693      6.807        356 2.2489e+00 0.0000e+00
      4.801    12.5842     0.5161      4.825  39.590395     52.582      6.506   266.7681     1.1039    11.8206     0.0271      0.101      4.711      6.832        357 2.1811e+00 0.0000e+00
      4.825    12.5478     0.6381      5.961  39.202543     52.133      6.501   266.8060     1.1039    11.7400     0.0269      0.097      4.733      6.864        358 2.0452e+00 0.0000e+00
      4.851    12.5186     0.7765      7.250  38.705717     51.463      6.491   267.0710     1.1363    11.7668     0.0266      0.090      4.757      6.899        359 1.9682e+00 0.0000e+00
      4.872    12.5025     0.9310      8.689  38.517854     51.290      6.486   267.3360     1.1242    11.8206     0.0265      0.085      4.781      6.934        360 1.8917e+00 0.0000e+00
      4.904    12.4784     1.0902     10.170  38.427788     51.220      6.481   266.5410     1.1848    14.0093     0.0265      0.087      4.807      6.973        361 1.7944e+00 0.0000e+00
      4.930    12.4503     1.2382     11.546  38.224554     50.941      6.477   266.6545     1.1686    13.8348     0.0263      0.090      4.831      7.008        362 1.7461e+00 0.0000e+00
      4.945    12.4293     1.3816     12.878  38.147864     50.901      6.472   266.6924     1.1889    13.9690     0.0263      0.091      4.851      7.036        363 1.6807e+00 0.0000e+00
      4.966    12.4108     1.4917     13.899  38.048635     50.789      6.469   266.2002     1.1525    14.0227     0.0262      0.093      4.872      7.066        364 1.6650e+00 0.0000e+00
      4.994    12.3853     1.5867     14.781  37.962442     50.707      6.468   266.0488     1.1242    13.7408     0.0262      0.094      4.899      7.106        365 1.5943e+00 0.0000e+00
      5.028    12.3518     1.6374     15.251  37.899191     50.656      6.465   266.3138     1.1120    13.7408     0.0262      0.096      4.932      7.154        366 1.4304e+00 0.0000e+00
      5.068    12.3185     1.6505     15.371  37.801076     50.542      6.461   265.8974     1.1080    13.7139     0.0261      0.101      4.967      7.204        367 1.3712e+00 0.0000e+00
      5.096    12.2922     1.6374     15.248  37.728611     50.512      6.455   265.6324     1.1161    13.6333     0.0261      0.107      4.998      7.249        368 1.3142e+00 0.0000e+00
      5.125    12.2700     1.6123     15.011  37.752092     50.558      6.452   265.5567     1.1080    18.6688     0.0261      0.111      5.029      7.293        369 1.2070e+00 0.0000e+00
      5.164    12.2491     1.5771     14.681  37.831199     50.742      6.447   265.7081     1.1403    18.6017     0.0262      0.118      5.062      7.342        370 1.1670e+00 0.0000e+00
      5.196    12.2287     1.5557     14.479  37.808152     50.698      6.442   265.8595     1.0878    18.6554     0.0261      0.126      5.097      7.392        371 1.0956e+00 0.0000e+00
      5.232    12.2088     1.5334     14.267  37.662135     50.576      6.437   265.7460     1.0878    18.5614     0.0261      0.131      5.132      7.444        372 9.7937e-01 0.0000e+00
      5.273    12.1911     1.5275     14.208  37.508669     50.341      6.435   265.7838     1.1161    19.3134     0.0260      0.134      5.168      7.496        373 9.1880e-01 0.0000e+00
      5.304    12.1767     1.5332     14.258  37.465234     50.368      6.428   265.8595     1.0271    20.0116     0.0260      0.135      5.201      7.543        374 8.7259e-01 0.0000e+00
      5.333    12.1666     1.5476     14.390  37.449245     50.317      6.425   266.2002     1.0190    19.9713     0.0259      0.134      5.231      7.585        375 8.2057e-01 0.0000e+00
      5.365    12.1592     1.5783     14.673  37.617564     50.600      6.424   266.4652     1.0514    19.9713     0.0260      0.134      5.256      7.622        376 7.9963e-01 0.0000e+00
      5.378    12.1547     1.6065     14.934  37.789686     50.839      6.418   266.6167     1.0473    19.9176     0.0261      0.128      5.271      7.646        377 8.0220e-01 0.0000e+00
      5.381    12.1498     1.6427     15.270  37.739300     50.774      6.417   266.6545     0.8492    18.6017     0.0261      0.114      5.284      7.664        378 7.5841e-01 0.0000e+00
      5.407    12.1437     1.6717     15.537  38.125208     51.269      6.414   266.7302     0.8937    18.6554     0.0263      0.102      5.306      7.696        379 6.9771e-01 0.0000e+00
      5.445    12.1364     1.7191     15.975  38.881566     52.367      6.411   267.4117     0.8735    18.6285     0.0268      0.095      5.339      7.744        380 6.9462e-01 0.0000e+00
      5.480    12.1250     1.7457     16.222  39.230414     52.789      6.408   267.9795     0.8452    18.6285     0.0270      0.092      5.375      7.796        381 6.4221e-01 0.0000e+00
      5.518    12.1118     1.7673     16.421  39.381909     53.025      6.401   268.2824     0.8047    16.3189     0.0271      0.097      5.412      7.849        382 5.3210e-01 0.0000e+00
      5.556    12.1003     1.7843     16.578  39.582970     53.305      6.393   268.5474     0.7562    16.3592     0.0272      0.106      5.447      7.900        383 5.2712e-01 0.0000e+00
      5.587    12.0905     1.7939     16.666  39.632825     53.400      6.388   268.9638     0.7885    16.4263     0.0272      0.116      5.478      7.944        384 5.2749e-01 0.0000e+00
      5.613    12.0833     1.7992     16.714  39.646185     53.416      6.380   268.9638     0.7966    16.2921     0.0272      0.126      5.504      7.983        385 4.9782e-01 0.0000e+00
      5.637    12.0786     1.8054     16.771  39.625681     53.430      6.379   269.0017     0.7319    14.7344     0.0272      0.131      5.531      8.022        386 4.7480e-01 0.0000e+00
      5.671    12.0749     1.7973     16.693  39.599017     53.365      6.375   269.7588     0.7158    14.7613     0.0272      0.129      5.563      8.068        387 4.2787e-01 0.0000e+00
      5.709    12.0709     1.7884     16.608  39.679372     53.523      6.371   270.1374     0.7238    14.6673     0.0273      0.126      5.598      8.120        388 4.0744e-01 0.0000e+00
      5.746    12.0658     1.7826     16.552  39.703673     53.528      6.364   270.4024     0.7602    14.8284     0.0273      0.125      5.633      8.170        389 4.0415e-01 0.0000e+00
      5.777    12.0597     1.7721     16.454  39.746767     53.609      6.359   270.7810     0.6915    14.7076     0.0273      0.125      5.664      8.214        390 3.8573e-01 0.0000e+00
      5.804    12.0559     1.7555     16.299  39.744406     53.617      6.358   270.8567     0.6551    14.6941     0.0273      0.124      5.690      8.252        391 3.7117e-01 0.0000e+00
      5.826    12.0541     1.7333     16.092  39.706615     53.550      6.354   270.8188     0.6713    14.6673     0.0273      0.123      5.713      8.287        392 3.3797e-01 0.0000e+00
      5.849    12.0509     1.7053     15.832  39.734470     53.631      6.355   271.0838     0.6632    14.6807     0.0273      0.120      5.738      8.323        393 3.0516e-01 0.0000e+00
      5.880    12.0472     1.6736     15.537  39.709744     53.558      6.352   271.3110     0.7360    15.5938     0.0273      0.117      5.768      8.365        394 3.0528e-01 0.0000e+00
      5.916    12.0446     1.6434     15.256  39.737387     53.638      6.347   271.8031     0.7238    15.5535     0.0273      0.114      5.801      8.413        395 2.8800e-01 0.0000e+00
      5.947    12.0408     1.6172     15.013  39.759400     53.644      6.345   272.3710     0.6955    15.5401     0.0273      0.112      5.834      8.461        396 2.6456e-01 0.0000e+00
      5.983    12.0349     1.5847     14.711  39.741683     53.647      6.337   272.8631     0.7238    15.5670     0.0273      0.114      5.871      8.514        397 2.6068e-01 0.0000e+00
      6.029    12.0292     1.5573     14.458  39.700109     53.577      6.332   273.1660     0.7441    15.4998     0.0273      0.121      5.911      8.573        398 2.3924e-01 0.0000e+00
      6.069    12.0248     1.5556     14.441  39.633150     53.510      6.326   273.8096     0.7198    16.6949     0.0273      0.131      5.951      8.631        399 2.1234e-01 0.0000e+00
      6.108    12.0213     1.5496     14.386  39.587696     53.443      6.322   273.9231     0.7238    16.7218     0.0272      0.141      5.991      8.690        400 2.1540e-01 0.0000e+00
      6.152    12.0190     1.5500     14.390  39.578691     53.450      6.316   274.2260     0.7158    16.8292     0.0272      0.149      6.034      8.752        401 2.0692e-01 0.0000e+00
      6.201    12.0181     1.5520     14.407  39.585030     53.455      6.312   274.9074     0.7238    16.8158     0.0272      0.157      6.081      8.820        402 1.8980e-01 0.0000e+00
      6.251    12.0170     1.5526     14.412  39.579811     53.458      6.307   274.7560     0.6228    18.9239     0.0272      0.165      6.130      8.890        403 1.8416e-01 0.0000e+00
      6.300    12.0157     1.5562     14.445  39.644518     53.535      6.304   275.2103     0.6228    18.7628     0.0273      0.173      6.176      8.958        404 1.9039e-01 0.0000e+00
      6.344    12.0149     1.5570     14.451  39.623163     53.536      6.299   275.0967     0.6228    18.8837     0.0273      0.178      6.220      9.022        405 1.5396e-01 0.0000e+00
      6.383    12.0139     1.5637     14.511  39.547058     53.387      6.299   275.1346     0.6025    18.8165     0.0272      0.178      6.260      9.079        406 1.3030e-01 0.0000e+00
      6.423    12.0144     1.5450     14.335  39.561241     53.464      6.295   274.9453     0.6470    21.4215     0.0272      0.178      6.300      9.137        407 1.4357e-01 0.0000e+00
      6.467    12.0154     1.5363     14.254  39.605513     53.465      6.294   275.3238     0.6147    21.4887     0.0272      0.177      6.342      9.199        408 1.3411e-01 0.0000e+00
      6.513    12.0146     1.5100     14.010  39.669953     53.616      6.295   275.3617     0.6147    21.3947     0.0273      0.175      6.384      9.260        409 1.4030e-01 0.0000e+00
      6.550    12.0144     1.4793     13.725  39.599708     53.463      6.293   275.5510     0.6025    21.5424     0.0272      0.170      6.422      9.315        410 1.3014e-01 0.0000e+00
      6.581    12.0139     1.4271     13.240  39.574273     53.464      6.289   276.0431     0.6228    21.3947     0.0272      0.163      6.457      9.365        411 1.2283e-01 0.0000e+00
      6.621    12.0116     1.3596     12.613  39.582947     53.465      6.288   275.9674     0.6106    21.3813     0.0272      0.158      6.497      9.424        412 1.2726e-01 0.0000e+00
      6.676    12.0095     1.2953     12.016  39.529584     53.390      6.283   276.8003     0.6106    21.5021     0.0272      0.159      6.546      9.494        413 1.2444e-01 0.0000e+00
      6.728    12.0081     1.2408     11.510  39.522025     53.393      6.277   276.8381     0.6066    21.4215     0.0272      0.164      6.592      9.562        414 1.2594e-01 0.0000e+00
      6.762    12.0045     1.1991     11.123  39.473698     53.321      6.276   276.8381     0.6389    21.3947     0.0272      0.166      6.629      9.615        415 1.2506e-01 0.0000e+00
      6.791    11.9971     1.1594     10.754  39.382074     53.209      6.277   276.4974     0.6187    21.4484     0.0271      0.163      6.660      9.659        416 1.2584e-01 0.0000e+00
      6.821    11.9898     1.1289     10.470  39.220746     52.988      6.276   276.6110     0.6066    21.4887     0.0270      0.158      6.690      9.703        417 1.2557e-01 0.0000e+00
      6.854    11.9871     1.0863     10.074  39.170174     52.923      6.275   276.6110     0.6268    21.4350     0.0270      0.154      6.724      9.753        418 1.2572e-01 0.0000e+00
      6.895    11.9875     1.0532      9.768  39.148369     52.934      6.273   276.9517     0.6308    21.3947     0.0270      0.151      6.762      9.808        419 1.2549e-01 0.0000e+00
      6.936    11.9883     1.0077      9.348  39.218222     52.975      6.268   276.7624     0.6308    21.4350     0.0270      0.146      6.805      9.869        420 1.2547e-01 0.0000e+00
      6.985    11.9874     0.9661      8.964  39.350226     53.239      6.270   277.2546     0.6187    21.2470     0.0271      0.143      6.850      9.935        421 1.2556e-01 0.0000e+00
      7.035    11.9847     0.9285      8.617  39.191745     52.936      6.262   276.4974     0.5944    21.4887     0.0270      0.148      6.894      9.999        422 1.2568e-01 0.0000e+00
      7.071    11.9829     0.8960      8.317  39.089141     52.861      6.262   276.1188     0.6106    21.3544     0.0270      0.155      6.928     10.048        423 1.2558e-01 0.0000e+00
      7.089    11.9813     0.8694      8.071  39.121942     52.865      6.260   276.0431     0.6228    21.4752     0.0270      0.156      6.951     10.080        424 1.2566e-01 0.0000e+00
      7.105    11.9798     0.8709      8.086  39.180589     52.981      6.264   275.8538     0.6025    21.4752     0.0270      0.150      6.966     10.103        425 1.2554e-01 0.0000e+00
      7.117    11.9773     0.8847      8.217  39.223807     53.021      6.261   275.4753     0.6066    21.3544     0.0270      0.136      6.977     10.119        426 1.2552e-01 0.0000e+00
      7.121    11.9736 -9.990e-29 -9.990e-29  39.216481     53.023      6.261   275.1724     0.5944    21.4484     0.0270      0.114      6.983     10.128        427 1.2565e-01 0.0000e+00
      7.125    11.9694 -9.990e-29 -9.990e-29  39.219371     53.027      6.264   275.0588     0.6106    21.2201     0.0270      0.089      6.987     10.133        428 1.2571e-01 0.0000e+00
      7.128    11.9711 -9.990e-29 -9.990e-29  39.220212     53.032      6.263   274.9074     0.6228    21.2201     0.0270      0.063      6.990     10.137        429 1.2562e-01 0.0000e+00
      7.130    11.9808 -9.990e-29 -9.990e-29  39.245101     53.076      6.264   274.1124     0.6470    21.1530     0.0270      0.042      6.992     10.140        430 1.2555e-01 0.0000e+00
      7.131    11.9906 -9.990e-29 -9.990e-29  39.277392     53.112      6.266   273.8474     0.6187    21.2470     0.0271      0.027      6.992     10.141        431 1.2551e-01 0.0000e+00
      7.130    11.9987 -9.990e-29 -9.990e-29  39.269019     53.097      6.266   274.1503     0.6389    21.3544     0.0271      0.018      6.992     10.141        432 1.2557e-01 0.0000e+00
      7.131    12.0086 -9.990e-29 -9.990e-29  39.344511     53.160      6.268   274.2260     0.6025    21.4484     0.0271      0.011      6.993     10.142        433 1.2558e-01 0.0000e+00
      7.132    12.0119 -9.990e-29 -9.990e-29  39.509750     53.411      6.266   274.4153     0.6147    21.5021     0.0272      0.007      6.994     10.143        434 1.2556e-01 0.0000e+00
      7.132    12.0203 -9.990e-29 -9.990e-29  39.478682     53.323      6.266   274.4153     0.5944    21.3544     0.0272      0.005      6.994     10.143        435 1.2560e-01 0.0000e+00
      7.132    12.0313 -9.990e-29 -9.990e-29  39.472162     53.316      6.267   274.5288     0.5297    21.3544     0.0272      0.003      6.994     10.143        436 1.2568e-01 0.0000e+00
      7.132 -9.990e-29 -9.990e-29 -9.990e-29  39.517860     53.383      6.268   274.3396     0.5702    21.4484     0.0272      0.002      6.994     10.143        437 1.2566e-01 0.0000e+00
      7.132 -9.990e-29 -9.990e-29 -9.990e-29  39.481137     53.286      6.268   274.5667     0.5540    21.3813     0.0272      0.001      6.994     10.143        438 1.2554e-01 0.0000e+00
