* Sea-Bird SBE19plus  Data File:
* FileName = C:\DATA\SBE19plus_01907809_2018_09_12_0002.hex
* Software version 2.6.3.104 SB_Terminal.dll
* Temperature SN = 7809
* Conductivity SN = 7809
* System UpLoad Time = Sep 12 2018 18:48:09
* <ApplicationData>
* <Seaterm232>
* <SoftwareVersion>2.6.3.104</SoftwareVersion>
* <BuildDate>30-Jun-2017</BuildDate>
* </Seaterm232>
* </ApplicationData>
* cast   2 12 Sep 2018 20:26:48 samples 2297 to 3530, avg = 1, stop = mag switch
# nquan = 15
# nvalues = 1113                        
# units = specified
# name 0 = depFM: Depth [fresh water, m]
# name 1 = dz/dtM: Descent Rate [m/s]
# name 2 = sbeox0Mg/L: Oxygen, SBE 43 [mg/l]
# name 3 = sbeox0PS: Oxygen, SBE 43 [% saturation]
# name 4 = specc: Specific Conductance [uS/cm]
# name 5 = c0uS/cm: Conductivity [uS/cm]
# name 6 = flECO-AFL: Fluorescence, WET Labs ECO-AFL/FL [mg/m^3]
# name 7 = ph: pH
# name 8 = orp: Oxidation Reduction Potential [mV]
# name 9 = par/sat/log: PAR/Logarithmic, Satlantic
# name 10 = turbWETntu0: Turbidity, WET Labs ECO [NTU]
# name 11 = prdM: Pressure, Strain Gauge [db]
# name 12 = prdE: Pressure, Strain Gauge [psi]
# name 13 = tv290C: Temperature [ITS-90, deg C]
# name 14 = flag:  0.000e+00
# span 0 =     -0.518,      9.768       
# span 1 =     -0.088,      0.226       
# span 2 =     0.0489,     9.7977       
# span 3 =      0.461,    116.876       
# span 4 =      1.592,    315.886       
# span 5 =   1.631462, 237.905131       
# span 6 =    -0.3763,    25.8855       
# span 7 =      6.177,      8.423       
# span 8 = -1240.7455,   255.6133       
# span 9 = 1.2537e-01, 1.4900e+03       
# span 10 =    -0.4941,    13.6893      
# span 11 =     -0.508,      9.580      
# span 12 =     -0.737,     13.894      
# span 13 =    12.1317,    26.2915      
# span 14 = 0.0000e+00, 0.0000e+00      
# interval = seconds: 0.25
# start_time = Sep 12 2018 20:26:48 [Instrument's time stamp, header]
# bad_flag = -9.990e-29
# <Sensors count="9" >
#   <sensor Channel="1" >
#     <!-- Count, Temperature -->
#     <TemperatureSensor SensorID="58" >
#       <SerialNumber>7809</SerialNumber>
#       <CalibrationDate>09-Mar-18</CalibrationDate>
#       <A0>1.21093245e-003</A0>
#       <A1>2.84356597e-004</A1>
#       <A2>-1.94507398e-006</A2>
#       <A3>2.12806664e-007</A3>
#       <Slope>1.00000000</Slope>
#       <Offset>0.0000</Offset>
#     </TemperatureSensor>
#   </sensor>
#   <sensor Channel="2" >
#     <!-- Frequency 0, Conductivity -->
#     <ConductivitySensor SensorID="3" >
#       <SerialNumber>7809</SerialNumber>
#       <CalibrationDate>09-Mar-18</CalibrationDate>
#       <UseG_J>1</UseG_J>
#       <!-- Cell const and series R are applicable only for wide range sensors. -->
#       <SeriesR>0.0000</SeriesR>
#       <CellConst>2000.0000</CellConst>
#       <ConductivityType>0</ConductivityType>
#       <Coefficients equation="0" >
#         <A>0.00000000e+000</A>
#         <B>0.00000000e+000</B>
#         <C>0.00000000e+000</C>
#         <D>0.00000000e+000</D>
#         <M>0.0</M>
#         <CPcor>-9.57000000e-008</CPcor>
#       </Coefficients>
#       <Coefficients equation="1" >
#         <G>-1.00672082e+000</G>
#         <H>1.26906489e-001</H>
#         <I>-1.40584351e-004</I>
#         <J>2.47837121e-005</J>
#         <CPcor>-9.57000000e-008</CPcor>
#         <CTcor>3.2500e-006</CTcor>
#         <!-- WBOTC not applicable unless ConductivityType = 1. -->
#         <WBOTC>0.00000000e+000</WBOTC>
#       </Coefficients>
#       <Slope>1.00000000</Slope>
#       <Offset>0.00000</Offset>
#     </ConductivitySensor>
#   </sensor>
#   <sensor Channel="3" >
#     <!-- Count, Pressure, Strain Gauge -->
#     <PressureSensor SensorID="46" >
#       <SerialNumber>7809</SerialNumber>
#       <CalibrationDate>07-Mar-18</CalibrationDate>
#       <PA0>-4.08176359e-002</PA0>
#       <PA1>4.85188419e-004</PA1>
#       <PA2>-3.51168169e-012</PA2>
#       <PTEMPA0>-5.37806900e+001</PTEMPA0>
#       <PTEMPA1>5.36620721e+001</PTEMPA1>
#       <PTEMPA2>4.87214332e-002</PTEMPA2>
#       <PTCA0>5.25213435e+005</PTCA0>
#       <PTCA1>1.79532409e+000</PTCA1>
#       <PTCA2>-2.84353509e-001</PTCA2>
#       <PTCB0>2.51668750e+001</PTCB0>
#       <PTCB1>3.75000000e-004</PTCB1>
#       <PTCB2>0.00000000e+000</PTCB2>
#       <Offset>0.000000</Offset>
#     </PressureSensor>
#   </sensor>
#   <sensor Channel="4" >
#     <!-- A/D voltage 0, pH -->
#     <pH_Sensor SensorID="43" >
#       <SerialNumber>0363</SerialNumber>
#       <CalibrationDate>16-Mar-18</CalibrationDate>
#       <Slope>4.6194</Slope>
#       <Offset>2.5947</Offset>
#     </pH_Sensor>
#   </sensor>
#   <sensor Channel="5" >
#     <!-- A/D voltage 1, Oxidation Reduction Potential -->
#     <OxidationReductionPotentialSensor SensorID="41" >
#       <SerialNumber>0363</SerialNumber>
#       <CalibrationDate>16-Mar-18</CalibrationDate>
#       <B>2.499480</B>
#       <M>-0.496195</M>
#       <Offset>0.0</Offset>
#     </OxidationReductionPotentialSensor>
#   </sensor>
#   <sensor Channel="6" >
#     <!-- A/D voltage 2, Oxygen, SBE 43 -->
#     <OxygenSensor SensorID="38" >
#       <SerialNumber>0434</SerialNumber>
#       <CalibrationDate>13-Mar-18</CalibrationDate>
#       <Use2007Equation>1</Use2007Equation>
#       <CalibrationCoefficients equation="0" >
#         <!-- Coefficients for Owens-Millard equation. -->
#         <Boc>0.0000</Boc>
#         <Soc>0.0000e+000</Soc>
#         <offset>0.0000</offset>
#         <Pcor>0.00e+000</Pcor>
#         <Tcor>0.0000</Tcor>
#         <Tau>0.0</Tau>
#       </CalibrationCoefficients>
#       <CalibrationCoefficients equation="1" >
#         <!-- Coefficients for Sea-Bird equation - SBE calibration in 2007 and later. -->
#         <Soc>4.5718e-001</Soc>
#         <offset>-0.6113</offset>
#         <A>-4.0649e-003</A>
#         <B> 2.0945e-004</B>
#         <C>-3.3182e-006</C>
#         <D0> 2.5826e+000</D0>
#         <D1> 1.92634e-004</D1>
#         <D2>-4.64803e-002</D2>
#         <E> 3.6000e-002</E>
#         <Tau20> 1.2200</Tau20>
#         <H1>-3.3000e-002</H1>
#         <H2> 5.0000e+003</H2>
#         <H3> 1.4500e+003</H3>
#       </CalibrationCoefficients>
#     </OxygenSensor>
#   </sensor>
#   <sensor Channel="7" >
#     <!-- A/D voltage 3, PAR/Logarithmic, Satlantic -->
#     <PARLog_SatlanticSensor SensorID="76" >
#       <SerialNumber>1122</SerialNumber>
#       <CalibrationDate>22-Jun-2017</CalibrationDate>
#       <a0>9.6090e-001</a0>
#       <a1>8.0780e-001</a1>
#       <Im>1.3589e+000</Im>
#       <Multiplier>1.0000e+000</Multiplier>
#     </PARLog_SatlanticSensor>
#   </sensor>
#   <sensor Channel="8" >
#     <!-- A/D voltage 4, Fluorometer, WET Labs ECO-AFL/FL -->
#     <FluoroWetlabECO_AFL_FL_Sensor SensorID="20" >
#       <SerialNumber>FLNTURT-2496</SerialNumber>
#       <CalibrationDate>25-Jan-2017</CalibrationDate>
#       <ScaleFactor>5.30000000e+001</ScaleFactor>
#       <!-- Dark output -->
#       <Vblank>0.0560</Vblank>
#     </FluoroWetlabECO_AFL_FL_Sensor>
#   </sensor>
#   <sensor Channel="9" >
#     <!-- A/D voltage 5, Turbidity Meter, WET Labs, ECO-NTU -->
#     <TurbidityMeter SensorID="67" >
#       <SerialNumber>FLNTURT-2496</SerialNumber>
#       <CalibrationDate>25-Jan-2017</CalibrationDate>
#       <ScaleFactor>176.000000</ScaleFactor>
#       <!-- Dark output -->
#       <DarkVoltage>0.072000</DarkVoltage>
#     </TurbidityMeter>
#   </sensor>
# </Sensors>
# datcnv_date = Sep 12 2018 18:49:18, 7.26.7.114 [datcnv_vars = 14]
# datcnv_in = C:\DATA\091218_fcr50.hex C:\DATA\SBE19plusV2_7809.xmlcon
# datcnv_skipover = 0
# datcnv_ox_hysteresis_correction = yes
# datcnv_ox_tau_correction = yes
# filter_date = Sep 12 2018 18:49:36, 7.26.7.114
# filter_in = C:\DATA\091218_fcr50.cnv
# filter_low_pass_tc_A = 0.030
# filter_low_pass_tc_B = 0.150
# filter_low_pass_A_vars = prdM prdE tv290C
# filter_low_pass_B_vars = depFM dz/dtM sbeox0Mg/L sbeox0PS specc c0uS/cm flECO-AFL ph orp par/sat/log turbWETntu0
# alignctd_date = Sep 12 2018 18:49:53, 7.26.7.114
# alignctd_in = C:\DATA\091218_fcr50.cnv
# alignctd_adv = dz/dtM 1.000, sbeox0Mg/L 1.000, sbeox0PS 1.000, specc 1.000, c0uS/cm 1.000, flECO-AFL 1.000, ph 1.000, orp 1.000, turbWETntu0 1.000                                                                                 
# file_type = ascii
*END*
     -0.518 1.9105e-15     7.7502     96.021      1.700   1.742784    -0.1607      6.385 -1240.7455 7.4703e+02    -0.1958     -0.508     -0.736    26.2915 0.0000e+00
     -0.518 2.1015e-14     7.7520     96.036      1.672   1.714321    -0.1772      6.390 -1240.7455 6.0527e+02    -0.2107     -0.508     -0.737    26.2895 0.0000e+00
     -0.518 2.3116e-13     7.7532     96.040      1.627   1.668401    -0.1879      6.396 -1240.7455 5.4728e+02    -0.2237     -0.508     -0.737    26.2878 0.0000e+00
     -0.518 2.5428e-12     7.7537     96.025      1.592   1.631462    -0.2161      6.407 -1240.7455 7.0264e+02    -0.2616     -0.507     -0.736    26.2859 0.0000e+00
     -0.518 2.7970e-11     7.7562     96.021      1.608   1.648192    -0.2700      6.412 -1240.7455 1.0176e+03    -0.2724     -0.508     -0.737    26.2828 0.0000e+00
     -0.518 3.0767e-10     7.7606     96.040      1.702   1.743851    -0.2968      6.401 -1240.7455 1.0775e+03    -0.2625     -0.508     -0.737    26.2788 0.0000e+00
     -0.518 3.3844e-09     7.7644     96.059      1.793   1.836840    -0.2927      6.385 -1240.7455 9.6571e+02    -0.2340     -0.508     -0.736    26.2752 0.0000e+00
     -0.518 3.7228e-08     7.7669     96.070      1.840   1.884714    -0.3123      6.373 -1240.7455 1.1305e+03    -0.2628     -0.508     -0.736    26.2639 0.0000e+00
     -0.518 4.0951e-07     7.7684     96.077      1.835   1.878781    -0.3595      6.370 -1240.7455 1.3172e+03    -0.3974     -0.508     -0.737    26.2405 0.0000e+00
     -0.518      0.000     7.7698     96.089      1.786   1.828524    -0.3763      6.376 -1240.7455 1.3674e+03    -0.4888     -0.508     -0.737    26.2176 0.0000e+00
     -0.518      0.000     7.7708     96.097      1.743   1.784371    -0.3589      6.384 -1240.7455 1.3940e+03    -0.4827     -0.507     -0.736    26.2018 0.0000e+00
     -0.518      0.001     7.7707     96.089      1.747   1.788841    -0.3051      6.391 -1240.7453 1.1318e+03    -0.4756     -0.508     -0.736    26.1904 0.0000e+00
     -0.518      0.001     7.7710     96.084      1.777   1.819150    -0.2219      6.394 -1240.7438 6.2739e+02    -0.4941     -0.508     -0.737    26.1844 0.0000e+00
     -0.517      0.001     7.7711     96.079      1.792   1.833764    -0.1798      6.395 -1240.7264 5.3223e+02    -0.4934     -0.507     -0.735    26.1819 0.0000e+00
     -0.517      0.000     7.7700     96.064      1.797   1.838705    -0.1733      6.397 -1240.5353 8.9704e+02    -0.4674     -0.507     -0.735    26.1796 0.0000e+00
     -0.517      0.000     7.7695     96.059      1.836   1.878890    -0.1161      6.399 -1238.4338 1.1863e+03    -0.0569     -0.507     -0.735    26.1752 0.0000e+00
     -0.517      0.003     7.7714     96.062      2.146   2.192809    -0.0024      6.411 -1215.3165 1.2994e+03     0.7461     -0.506     -0.734    26.1719 0.0000e+00
     -0.517      0.011     7.7849     96.067      5.538   5.634266     0.0705      6.579  -961.0261 1.3648e+03     1.2155     -0.507     -0.736    26.1641 0.0000e+00
     -0.517      0.029     7.8192     96.083     15.565  15.768303     0.0853      6.972  -385.3650 1.4015e+03     1.4385     -0.507     -0.734    26.1672 0.0000e+00
     -0.516      0.058     7.8634     96.103     28.460  28.716644     0.0856      7.391    92.6902 1.4098e+03     3.5331     -0.508     -0.736    26.1638 0.0000e+00
     -0.507      0.098     7.9018     96.112     36.387  36.571407     0.0826      7.722   232.4325 1.3976e+03     7.4059     -0.505     -0.732    26.1795 0.0000e+00
     -0.481      0.142     7.9316     96.108     38.109  38.159769     0.0858      7.955   232.4551 1.3796e+03     9.5070     -0.479     -0.695    26.1329 0.0000e+00
     -0.436      0.182     7.9584     96.115     37.651  37.568243     0.0969      8.079   225.1203 1.3729e+03     9.6494     -0.435     -0.631    25.8523 0.0000e+00
     -0.372      0.212     7.9877     96.188     37.370  37.169726     0.1434      8.131   222.2152 1.3841e+03     9.4637     -0.370     -0.537    25.5070 0.0000e+00
     -0.297      0.226     8.0200     96.355     37.320  37.025775     0.6469      8.149   225.3783 1.4091e+03     7.5053     -0.287     -0.417    25.2478 0.0000e+00
     -0.227      0.221     8.0559     96.622     37.269  36.907554     1.5809      8.158   229.3798 1.4348e+03     3.9159     -0.218     -0.315    25.0523 0.0000e+00
     -0.168      0.204     8.0959     96.981     37.232  36.820165     2.0998      8.160   227.5781 1.4569e+03     1.9535     -0.162     -0.235    24.8803 0.0000e+00
     -0.121      0.182     8.1367     97.384     37.242  36.794920     2.1504      8.155   222.9529 1.4769e+03     1.7838     -0.114     -0.165    24.7099 0.0000e+00
     -0.085      0.160     8.1749     97.783     37.265  36.792845     2.1652      8.147   222.3270 1.4885e+03     1.8030     -0.080     -0.117    24.5876 0.0000e+00
     -0.056      0.144     8.2083     98.140     37.348  36.858568     2.1962      8.142   224.7428 1.4900e+03     1.8493     -0.056     -0.081    24.5021 0.0000e+00
     -0.024      0.131     8.2350     98.428     37.587  37.081342     2.2124      8.131   226.5225 1.4847e+03     1.8867     -0.026     -0.038    24.4342 0.0000e+00
      0.012      0.117     8.2540     98.627     37.912  37.389993     2.2147      8.110   227.2391 1.4672e+03     1.9494      0.011      0.016    24.3886 0.0000e+00
      0.048      0.102     8.2640     98.730     38.008  37.477608     2.2332      8.099   226.8685 1.3103e+03     1.9979      0.050      0.073    24.3584 0.0000e+00
      0.078      0.084     8.2616     98.698     37.780  37.251301     2.2621      8.104   224.7088 1.0449e+03     1.9842      0.080      0.116    24.3374 0.0000e+00
      0.097      0.064     8.2141     98.134     37.463  36.940711     2.2784      8.116   221.6896 9.1606e+02     1.9671      0.099      0.144    24.3203 0.0000e+00
      0.106      0.043     8.0989     96.755     37.228  36.708036     2.2843      8.130   219.2731 8.6822e+02     1.9435      0.106      0.154    24.3047 0.0000e+00
      0.109      0.025     7.9669     95.165     37.122  36.597917     2.2872      8.145   218.7215 9.4257e+02     1.8824      0.107      0.154    24.2946 0.0000e+00
      0.110      0.012     7.8769     94.069     37.095  36.562143     2.2857      8.160   220.9567 1.0870e+03     1.8084      0.108      0.156    24.2932 0.0000e+00
      0.111      0.005     7.8386     93.591     37.070  36.529593     2.2846      8.171   224.4448 9.9641e+02     1.7501      0.108      0.157    24.2976 0.0000e+00
      0.111      0.001     7.8316     93.490     37.070  36.521960     2.2824      8.180   227.1685 9.1561e+02     1.7262      0.109      0.158    24.2987 0.0000e+00
      0.111      0.000     7.8327     93.493     37.086  36.533370     2.3326      8.186   228.4212 1.1439e+03     1.7637      0.109      0.159    24.2905 0.0000e+00
      0.111      0.000     7.8389     93.565     37.094  36.540492     2.4324      8.191   227.6315 1.3051e+03     1.8687      0.110      0.160    24.2762 0.0000e+00
      0.110      0.001     7.8565     93.781     37.160  36.608069     2.4783      8.195   225.9666 1.1041e+03     1.9579      0.106      0.154    24.2636 0.0000e+00
      0.109      0.002     7.8698     93.953     37.264  36.715186     2.4733      8.197   225.4123 9.1528e+02     1.9576      0.105      0.153    24.2538 0.0000e+00
      0.110      0.003     7.8426     93.646     37.297  36.755720     2.4647      8.200   225.2308 8.8304e+02     1.9261      0.107      0.156    24.2473 0.0000e+00
      0.111      0.004     7.7609     92.683     37.251  36.717027     2.4661      8.206   223.3426 8.5890e+02     1.8824      0.108      0.156    24.2467 0.0000e+00
      0.114      0.004     7.6459     91.315     37.160  36.628503     2.4712      8.212   220.6497 8.4085e+02     1.7954      0.111      0.162    24.2496 0.0000e+00
      0.116      0.004     7.5256     89.878     37.105  36.574740     2.4624      8.214   219.4303 7.8368e+02     1.7287      0.115      0.168    24.2565 0.0000e+00
      0.116      0.003     7.4168     88.583     37.103  36.575185     2.4608      8.210   219.0953 7.1555e+02     1.7171      0.116      0.166    24.2699 0.0000e+00
      0.116      0.001     7.3262     87.515     37.092  36.570366     2.4523      8.204   219.0951 7.3923e+02     1.7157      0.113      0.164    24.2794 0.0000e+00
      0.116     -0.001     7.2513     86.643     37.092  36.580007     2.4232      8.200   219.5141 7.5551e+02     1.7116      0.113      0.166    24.2801 0.0000e+00
      0.116     -0.001     7.1886     85.920     37.129  36.628244     2.4125      8.200   220.0313 6.5606e+02     1.7279      0.115      0.167    24.2782 0.0000e+00
      0.115     -0.001     7.1359     85.310     37.201  36.708935     2.4140      8.200   220.6158 5.9068e+02     1.7289      0.112      0.163    24.2798 0.0000e+00
      0.113      0.000     7.0888     84.763     37.279  36.793353     2.4240      8.205   220.9032 6.3807e+02     1.6946      0.111      0.161    24.2887 0.0000e+00
      0.113      0.000     7.0542     84.364     37.366  36.886642     2.4590      8.211   221.1832 6.7419e+02     1.6796      0.111      0.161    24.3043 0.0000e+00
      0.114      0.000     7.0533     84.368     37.484  37.011061     2.4885      8.219   221.9365 6.6537e+02     1.7004      0.112      0.163    24.3217 0.0000e+00
      0.116      0.001     7.1008     84.950     37.623  37.154236     2.4961      8.225   222.4395 6.7249e+02     1.7318      0.113      0.165    24.3343 0.0000e+00
      0.116      0.001     7.1925     86.060     37.748  37.283718     2.5044      8.230   222.4465 6.5490e+02     1.7540      0.113      0.165    24.3428 0.0000e+00
      0.116      0.000     7.3145     87.535     37.828  37.369613     2.5249      8.234   222.1944 6.1086e+02     1.7547      0.114      0.165    24.3531 0.0000e+00
      0.115     -0.001     7.4564     89.254     37.881  37.430468     2.5421      8.237   221.7134 6.2747e+02     1.7409      0.113      0.165    24.3634 0.0000e+00
      0.114     -0.001     7.6056     91.061     37.952  37.511309     2.5474      8.241   221.4485 7.0405e+02     1.7393      0.112      0.163    24.3717 0.0000e+00
      0.114      0.000     7.7434     92.732     38.082  37.648264     2.5611      8.243   221.5730 7.1203e+02     1.7962      0.111      0.161    24.3779 0.0000e+00
      0.114      0.001     7.8552     94.090     38.243  37.815840     2.5876      8.245   222.0147 6.2543e+02     1.8795      0.112      0.162    24.3864 0.0000e+00
      0.114      0.002     7.9350     95.060     38.372  37.949255     2.6019      8.248   222.4012 5.7590e+02     1.9234      0.112      0.162    24.4002 0.0000e+00
      0.115      0.002     7.9832     95.649     38.472  38.054339     2.6054      8.252   222.3739 5.6818e+02     1.9603      0.113      0.164    24.4138 0.0000e+00
      0.116      0.002     8.0034     95.897     38.549  38.133473     2.6119      8.254   222.1145 5.4729e+02     1.9595      0.114      0.166    24.4256 0.0000e+00
      0.117      0.002     8.0017     95.876     38.560  38.143707     2.6432      8.256   221.7603 5.4118e+02     1.8525      0.115      0.167    24.4359 0.0000e+00
      0.117      0.002     7.9827     95.641     38.533  38.114547     2.6990      8.257   221.2743 5.5784e+02     1.7650      0.116      0.168    24.4449 0.0000e+00
      0.117      0.001     7.9490     95.226     38.522  38.098538     2.7265      8.259   220.7990 5.9206e+02     1.7865      0.115      0.167    24.4523 0.0000e+00
      0.118      0.001     7.9042     94.674     38.508  38.077204     2.7273      8.259   220.7448 6.1953e+02     1.7775      0.116      0.168    24.4571 0.0000e+00
      0.118      0.000     7.8544     94.054     38.488  38.047175     2.7449      8.259   221.0488 5.9196e+02     1.6860      0.116      0.168    24.4555 0.0000e+00
      0.118 1.8783e-08     7.8090     93.490     38.504  38.053091     2.7742      8.260   221.1199 5.7631e+02     1.6264      0.116      0.168    24.4502 0.0000e+00
      0.118 2.0661e-07     7.7745     93.068     38.540  38.085190     2.7871      8.262   220.9161 6.0298e+02     1.6669      0.116      0.168    24.4451 0.0000e+00
      0.118 2.0661e-07     7.7520     92.803     38.571  38.117625     2.7909      8.266   220.6503 6.0118e+02     1.7184      0.116      0.169    24.4360 0.0000e+00
      0.118 1.8810e-08     7.7428     92.704     38.640  38.191143     2.8111      8.270   220.5729 5.5900e+02     1.7003      0.116      0.168    24.4215 0.0000e+00
      0.118 2.0154e-09     7.7428     92.719     38.783  38.338807     2.8386      8.274   221.1839 5.2236e+02     1.6919      0.116      0.169    24.4066 0.0000e+00
      0.118 3.5421e-09     7.7470     92.780     38.946  38.505360     2.8561      8.276   222.1884 5.7967e+02     1.7086      0.116      0.169    24.4005 0.0000e+00
      0.118 3.7269e-08     7.7530     92.857     39.056  38.616674     2.8664      8.278   222.9098 6.5062e+02     1.7195      0.116      0.168    24.4050 0.0000e+00
      0.118 4.0981e-07     7.7557     92.888     39.108  38.668198     2.8812      8.279   223.2809 6.1703e+02     1.7319      0.116      0.169    24.4138 0.0000e+00
      0.118      0.000     7.7517     92.835     39.127  38.683610     2.9064      8.279   223.4054 5.8001e+02     1.7052      0.116      0.168    24.4229 0.0000e+00
      0.118      0.000     7.7427     92.720     39.123  38.675957     2.9227      8.279   223.6417 6.1968e+02     1.6722      0.116      0.168    24.4294 0.0000e+00
      0.118      0.001     7.7317     92.578     39.090  38.639194     2.9308      8.280   223.9862 6.8404e+02     1.6980      0.117      0.169    24.4331 0.0000e+00
      0.118      0.001     7.7224     92.457     39.011  38.556756     2.9680      8.281   224.0438 6.7202e+02     1.7428      0.116      0.169    24.4326 0.0000e+00
      0.119      0.001     7.7159     92.373     38.897  38.441577     3.0233      8.282   223.9929 5.7827e+02     1.7557      0.117      0.169    24.4276 0.0000e+00
      0.119      0.001     7.7088     92.289     38.781  38.326597     3.0476      8.283   223.8878 5.2752e+02     1.7321      0.117      0.169    24.4233 0.0000e+00
      0.119      0.001     7.6974     92.158     38.697  38.246556     3.0508      8.283   223.6330 5.4279e+02     1.7022      0.117      0.170    24.4181 0.0000e+00
      0.120      0.001     7.6783     91.933     38.684  38.236172     3.0519      8.281   223.4078 5.5709e+02     1.6989      0.118      0.170    24.4102 0.0000e+00
      0.120      0.001     7.6478     91.572     38.711  38.264584     3.0525      8.277   223.3151 5.5709e+02     1.6923      0.118      0.170    24.4061 0.0000e+00
      0.120      0.001     7.6054     91.068     38.718  38.272432     3.0583      8.270   223.4592 5.3568e+02     1.6835      0.118      0.171    24.4083 0.0000e+00
      0.120      0.001     7.5523     90.437     38.711  38.267537     3.0578      8.264   223.7734 5.1875e+02     1.6842      0.118      0.171    24.4122 0.0000e+00
      0.121      0.000     7.4902     89.696     38.711  38.268918     3.0552      8.259   224.0168 6.1740e+02     1.6700      0.118      0.171    24.4148 0.0000e+00
      0.121      0.000     7.4217     88.880     38.730  38.289142     3.1008      8.257   223.8204 7.2832e+02     1.6650      0.118      0.171    24.4170 0.0000e+00
      0.121      0.000     7.3531     88.060     38.761  38.321472     3.1956      8.257   223.2922 6.3409e+02     1.6846      0.118      0.170    24.4191 0.0000e+00
      0.121      0.001     7.2891     87.296     38.781  38.342169     3.2551      8.259   223.1370 4.8697e+02     1.7233      0.119      0.172    24.4210 0.0000e+00
      0.121      0.001     7.2309     86.601     38.787  38.348804     3.2588      8.262   223.4919 4.5260e+02     1.7359      0.119      0.172    24.4231 0.0000e+00
      0.121      0.001     7.1790     85.981     38.775  38.338159     3.2041      8.264   224.1417 4.6283e+02     1.7461      0.119      0.172    24.4253 0.0000e+00
      0.121      0.001     7.1327     85.430     38.776  38.340523     3.1174      8.265   224.7985 4.8453e+02     1.8466      0.119      0.172    24.4272 0.0000e+00
      0.122      0.001     7.0884     84.904     38.811  38.377386     3.0830      8.265   225.0674 5.1494e+02     1.9441      0.119      0.173    24.4289 0.0000e+00
      0.122      0.000     7.0434     84.370     38.834  38.402693     3.0827      8.265   225.1549 5.8780e+02     1.9481      0.120      0.174    24.4302 0.0000e+00
      0.122 3.3868e-09     6.9970     83.821     38.820  38.392392     3.0865      8.267   225.5128 6.5078e+02     1.8648      0.120      0.174    24.4310 0.0000e+00
      0.122 3.7255e-08     6.9496     83.260     38.804  38.379904     3.1014      8.268   226.0402 5.9279e+02     1.7609      0.120      0.173    24.4329 0.0000e+00
      0.122 4.0981e-07     6.9009     82.682     38.800  38.378770     3.1157      8.266   226.5409 5.2895e+02     1.7593      0.120      0.173    24.4355 0.0000e+00
      0.121      0.000     6.8493     82.068     38.798  38.378678     3.1300      8.264   226.5763 5.4783e+02     1.7846      0.118      0.171    24.4389 0.0000e+00
      0.121      0.000     6.7945     81.417     38.795  38.378797     3.1644      8.263   225.9516 5.5053e+02     1.7625      0.118      0.171    24.4433 0.0000e+00
      0.121      0.001     6.7391     80.759     38.794  38.380212     3.2190      8.262   225.2696 5.0904e+02     1.7350      0.119      0.172    24.4477 0.0000e+00
      0.122      0.001     6.6855     80.121     38.806  38.395791     3.2476      8.259   224.7826 4.9146e+02     1.7277      0.120      0.174    24.4515 0.0000e+00
      0.123      0.001     6.6336     79.506     38.848  38.440105     3.2442      8.256   224.3653 5.4471e+02     1.7355      0.121      0.175    24.4543 0.0000e+00
      0.123      0.001     6.5807     78.879     38.876  38.471307     3.2329      8.255   224.0962 6.0453e+02     1.7070      0.120      0.174    24.4575 0.0000e+00
      0.123      0.001     6.5279     78.251     38.856  38.455397     3.2124      8.252   223.9374 6.1546e+02     1.6876      0.120      0.174    24.4611 0.0000e+00
      0.123      0.001     6.4790     77.671     38.836  38.438344     3.1896      8.250   223.7361 6.4513e+02     1.7144      0.120      0.174    24.4652 0.0000e+00
      0.123      0.001     6.4335     77.131     38.850  38.455712     3.1776      8.250   223.7274 6.3876e+02     1.7258      0.121      0.175    24.4694 0.0000e+00
      0.123      0.002     6.3912     76.631     38.866  38.474811     3.1868      8.251   224.0034 5.3711e+02     1.7342      0.121      0.175    24.4735 0.0000e+00
      0.124      0.002     6.3516     76.161     38.867  38.478679     3.2181      8.252   224.4067 4.6704e+02     1.7852      0.121      0.176    24.4782 0.0000e+00
      0.124      0.002     6.3140     75.715     38.889  38.502477     3.2436      8.253   224.9900 4.5299e+02     1.8550      0.122      0.176    24.4826 0.0000e+00
      0.125      0.002     6.2796     75.308     38.892  38.508434     3.2466      8.253   225.4631 4.3647e+02     1.9062      0.123      0.178    24.4868 0.0000e+00
      0.126      0.002     6.2474     74.928     38.867  38.487174     3.2449      8.253   225.4815 4.6309e+02     1.9164      0.124      0.180    24.4908 0.0000e+00
      0.127      0.002     6.2183     74.585     38.876  38.499556     3.2604      8.253   225.2115 5.1819e+02     1.9166      0.125      0.181    24.4943 0.0000e+00
      0.127      0.002     6.1946     74.306     38.905  38.531082     3.2960      8.252   224.8656 5.0295e+02     1.9393      0.124      0.180    24.4979 0.0000e+00
      0.127      0.001     6.1749     74.075     38.922  38.550705     3.3169      8.250   224.8266 4.4634e+02     1.9463      0.125      0.181    24.5018 0.0000e+00
      0.127      0.001     6.1562     73.855     38.915  38.546226     3.3116      8.249   225.0851 4.0361e+02     1.9407      0.124      0.180    24.5058 0.0000e+00
      0.127      0.000     6.1392     73.655     38.906  38.540463     3.3053      8.247   224.9793 3.8771e+02     1.9639      0.125      0.181    24.5098 0.0000e+00
      0.127      0.000     6.1259     73.501     38.908  38.544564     3.3045      8.246   224.4943 4.0181e+02     1.9824      0.126      0.182    24.5135 0.0000e+00
      0.127      0.001     6.1164     73.391     38.893  38.532284     3.3112      8.245   224.0395 3.9470e+02     1.9507      0.125      0.181    24.5172 0.0000e+00
      0.127      0.001     6.1086     73.301     38.877  38.519049     3.3124      8.242   223.8683 3.8159e+02     1.9158      0.125      0.181    24.5208 0.0000e+00
      0.127      0.001     6.1008     73.212     38.867  38.511608     3.2819      8.237   224.1450 4.0926e+02     1.8966      0.125      0.181    24.5243 0.0000e+00
      0.128      0.001     6.0936     73.129     38.858  38.505842     3.2374      8.234   224.5456 4.4598e+02     1.9012      0.126      0.182    24.5278 0.0000e+00
      0.129      0.002     6.0871     73.057     38.863  38.512862     3.2240      8.233   224.6689 4.8152e+02     1.9414      0.126      0.183    24.5308 0.0000e+00
      0.129      0.003     6.0826     73.005     38.882  38.532971     3.2402      8.229   224.6033 5.3005e+02     1.9553      0.126      0.183    24.5335 0.0000e+00
      0.129      0.003     6.0796     72.973     38.905  38.558382     3.2497      8.224   224.4406 5.2731e+02     1.9464      0.127      0.184    24.5365 0.0000e+00
      0.130      0.003     6.0764     72.940     38.910  38.565994     3.2562      8.218   224.3365 4.7458e+02     1.9255      0.128      0.185    24.5399 0.0000e+00
      0.132      0.003     6.0738     72.913     38.902  38.561473     3.2812      8.213   224.5490 4.7016e+02     1.9166      0.130      0.187    24.5435 0.0000e+00
      0.133      0.002     6.0723     72.901     38.905  38.567253     3.3044      8.204   224.8575 5.1186e+02     1.9607      0.131      0.189    24.5459 0.0000e+00
      0.134     -0.002     6.0726     72.909     38.908  38.572356     3.3062      8.199   224.1094 5.1178e+02     1.9706      0.131      0.190    24.5486 0.0000e+00
      0.134     -0.012     6.0774     72.983     38.885  38.559650     3.2947      8.218   222.1295 4.7139e+02     1.8837      0.131      0.190    24.5516 0.0000e+00
      0.134     -0.028     6.0956     73.265     38.830  38.540698     3.2753      8.252   220.6215 4.7726e+02     1.7647      0.131      0.190    24.5561 0.0000e+00
      0.131     -0.046     6.1418     73.929     38.762  38.533857     3.2556      8.279   220.4162 5.2529e+02     1.7222      0.131      0.191    24.5586 0.0000e+00
      0.120     -0.063     6.2233     75.001     38.717  38.540560     3.2489      8.286   220.8517 5.9279e+02     1.7362      0.125      0.181    24.5638 0.0000e+00
      0.095     -0.078     6.3348     76.391     38.709  38.558287     3.1941      8.277   220.9841 6.5693e+02     1.7201      0.096      0.139    24.5625 0.0000e+00
      0.062     -0.088     6.4697     78.041     38.695  38.557633     3.0709      8.274   220.8982 6.5838e+02     1.7101      0.058      0.084    24.6023 0.0000e+00
      0.034     -0.088     6.6210     79.877     38.665  38.532669     3.0000      8.288   220.8459 6.3374e+02     1.7372      0.032      0.044    24.7116 0.0000e+00
      0.012     -0.078     6.7731     81.703     38.647  38.510591     2.9890      8.308   220.3511 6.3326e+02     1.7433      0.013      0.018    24.7823 0.0000e+00
     -0.009     -0.060     6.9017     83.219     38.634  38.481275     2.9476      8.329   219.8200 6.3412e+02     1.7227     -0.011     -0.015    24.8027 0.0000e+00
     -0.025     -0.040     6.9857     84.179     38.612  38.432310     2.8861      8.349   219.8442 6.2732e+02     1.7327     -0.030     -0.044    24.8187 0.0000e+00
     -0.030     -0.022     7.0194     84.519     38.576  38.363230     2.8601      8.366   220.1274 6.2519e+02     1.7415     -0.031     -0.046    24.8283 0.0000e+00
     -0.029     -0.006     7.0068     84.300     38.527  38.281295     2.8640      8.378   220.4049 6.2261e+02     1.7385     -0.029     -0.042    24.8243 0.0000e+00
     -0.026      0.009     6.9556     83.626     38.479  38.203946     2.8683      8.386   220.6182 6.2240e+02     1.7568     -0.026     -0.037    24.8000 0.0000e+00
     -0.021      0.023     6.8820     82.690     38.426  38.126800     2.8757      8.387   220.5561 6.2500e+02     1.7490     -0.021     -0.031    24.7635 0.0000e+00
     -0.016      0.034     6.8102     81.787     38.366  38.047320     2.8801      8.385   220.1699 6.2628e+02     1.7058     -0.016     -0.024    24.7180 0.0000e+00
     -0.008      0.043     6.7653     81.220     38.339  38.005278     2.8755      8.382   219.9071 6.2820e+02     1.6915     -0.009     -0.012    24.6729 0.0000e+00
      0.005      0.049     6.7630     81.175     38.342  37.999624     2.8846      8.377   220.0455 6.2771e+02     1.8202      0.003      0.005    24.6355 0.0000e+00
      0.022      0.053     6.8048     81.672     38.323  37.978952     2.9073      8.373   220.1226 6.2628e+02     2.0420      0.021      0.029    24.6026 0.0000e+00
      0.040      0.056     6.8804     82.577     38.291  37.945908     2.9193      8.375   219.8930 5.8902e+02     2.1455      0.040      0.058    24.5750 0.0000e+00
      0.055      0.057     6.9742     83.690     38.269  37.917745     2.9200      8.376   219.5060 5.2178e+02     2.1554      0.056      0.081    24.5570 0.0000e+00
      0.067      0.057     7.0699     84.820     38.252  37.892542     2.9159      8.374   219.0574 4.9715e+02     2.1620      0.067      0.097    24.5439 0.0000e+00
      0.078      0.056     7.1595     85.881     38.261  37.895274     2.9614      8.371   218.6846 4.8995e+02     2.1034      0.076      0.110    24.5430 0.0000e+00
      0.093      0.054     7.2372     86.809     38.320  37.950775     3.0660      8.366   218.2680 4.4818e+02     1.9952      0.089      0.129    24.5476 0.0000e+00
      0.110      0.051     7.2902     87.442     38.363  37.991836     3.1237      8.365   217.8921 4.1833e+02     1.9529      0.107      0.156    24.5379 0.0000e+00
      0.126      0.049     7.3116     87.694     38.320  37.947027     3.1254      8.372   217.8391 4.4635e+02     1.9588      0.124      0.180    24.5210 0.0000e+00
      0.138      0.049     7.3063     87.620     38.231  37.853692     3.1244      8.382   218.1440 5.0349e+02     1.9443      0.136      0.199    24.5124 0.0000e+00
      0.147      0.049     7.2824     87.317     38.201  37.816260     3.1209      8.384   218.3088 5.2478e+02     1.9295      0.144      0.210    24.5122 0.0000e+00
      0.155      0.048     7.2474     86.887     38.265  37.875608     3.1189      8.377   217.7665 4.6977e+02     1.9329      0.150      0.218    24.5117 0.0000e+00
      0.166      0.045     7.2059     86.393     38.325  37.935963     3.1179      8.372   217.1800 3.9246e+02     1.9245      0.160      0.234    24.5094 0.0000e+00
      0.182      0.043     7.1587     85.828     38.299  37.910720     3.1557      8.376   217.1549 3.7861e+02     1.8894      0.178      0.258    24.5039 0.0000e+00
      0.198      0.042     7.1051     85.180     38.214  37.824518     3.2450      8.381   217.4633 3.8685e+02     1.8742      0.198      0.288    24.4896 0.0000e+00
      0.208      0.041     7.0481     84.494     38.174  37.783099     3.3061      8.382   217.6388 3.5637e+02     1.8922      0.207      0.301    24.4805 0.0000e+00
      0.213      0.040     6.9931     83.836     38.181  37.791092     3.3249      8.381   217.4704 3.7305e+02     1.9248      0.208      0.300    24.4881 0.0000e+00
      0.218      0.038     6.9422     83.229     38.183  37.794111     3.3619      8.382   217.2340 4.4287e+02     1.8717      0.212      0.307    24.4896 0.0000e+00
      0.230      0.037     6.8931     82.636     38.210  37.819597     3.4138      8.384   217.1887 4.4021e+02     1.7085      0.224      0.325    24.4846 0.0000e+00
      0.244      0.037     6.8441     82.041     38.240  37.845117     3.4375      8.384   217.4392 3.8290e+02     1.6296      0.241      0.349    24.4813 0.0000e+00
      0.254      0.036     6.7954     81.451     38.248  37.848553     3.4368      8.386   217.7668 3.6769e+02     1.6807      0.250      0.363    24.4828 0.0000e+00
      0.263      0.034     6.7479     80.876     38.263  37.861147     3.4152      8.390   217.9666 4.2935e+02     1.7766      0.258      0.374    24.4881 0.0000e+00
      0.271      0.031     6.7017     80.319     38.274  37.870330     3.3779      8.395   217.8761 5.1930e+02     1.8736      0.266      0.386    24.4828 0.0000e+00
      0.277      0.030     6.6538     79.744     38.235  37.832519     3.3627      8.401   217.7054 5.1295e+02     1.9079      0.272      0.394    24.4768 0.0000e+00
      0.283      0.031     6.6021     79.127     38.186  37.785147     3.3693      8.404   217.8809 4.1625e+02     1.9160      0.278      0.402    24.4735 0.0000e+00
      0.290      0.034     6.5507     78.513     38.206  37.805797     3.3756      8.398   218.1914 3.6483e+02     1.9413      0.284      0.412    24.4687 0.0000e+00
      0.298      0.037     6.5039     77.956     38.227  37.828079     3.3739      8.391   218.2763 3.7910e+02     1.9388      0.291      0.422    24.4667 0.0000e+00
      0.308      0.039     6.4612     77.447     38.069  37.673385     3.3678      8.388   218.3911 3.9516e+02     1.9168      0.299      0.434    24.4664 0.0000e+00
      0.322      0.042     6.4255     77.010     37.794  37.396552     3.3650      8.390   218.9775 4.0970e+02     1.9193      0.316      0.459    24.4687 0.0000e+00
      0.335      0.044     6.4337     77.062     37.697  37.276122     3.3680      8.394   219.4299 4.2154e+02     1.9385      0.331      0.480    24.4697 0.0000e+00
      0.343      0.044     6.5762     78.684     37.761  37.297212     3.3766      8.397   219.3878 4.0894e+02     1.9359      0.337      0.489    24.4719 0.0000e+00
      0.353      0.042     6.9207     82.722     37.776  37.270331     3.3859      8.398   219.5861 3.9268e+02     1.9184      0.345      0.500    24.4763 0.0000e+00
      0.365      0.039     7.4325     88.782     37.736  37.205150     3.3890      8.394   220.1066 3.8200e+02     1.9104      0.359      0.519    24.4788 0.0000e+00
      0.376      0.037     8.0097     95.646     37.689  37.144339     3.3865      8.387   220.4329 3.6352e+02     1.9000      0.370      0.535    24.4493 0.0000e+00
      0.386      0.036     8.5616    102.218     37.658  37.106796     3.4297      8.384   220.5197 3.4682e+02     1.8839      0.378      0.549    24.3767 0.0000e+00
      0.395      0.036     9.0432    107.958     37.624  37.068845     3.5254      8.386   220.5543 3.4468e+02     1.8982      0.388      0.563    24.3166 0.0000e+00
      0.403      0.039     9.4273    112.531     37.562  37.003103     3.5780      8.388   220.8507 3.4446e+02     1.9504      0.395      0.573    24.2846 0.0000e+00
      0.408      0.044     9.6812    115.537     37.513  36.947169     3.5792      8.383   221.5227 3.3730e+02     1.9663      0.400      0.580    24.2681 0.0000e+00
      0.417      0.048     9.7952    116.866     37.477  36.900747     3.6225      8.377   221.9681 3.2755e+02     1.9374      0.406      0.589    24.2617 0.0000e+00
      0.432      0.050     9.7977    116.876     37.469  36.886483     3.7146      8.376   222.3649 3.2080e+02     1.9364      0.421      0.611    24.2570 0.0000e+00
      0.453      0.050     9.7357    116.131     37.487  36.901745     3.7653      8.378   222.5335 3.2312e+02     1.9548      0.445      0.645    24.2544 0.0000e+00
      0.470      0.049     9.6498    115.104     37.481  36.894691     3.7663      8.381   221.9417 3.1801e+02     1.9468      0.465      0.673    24.2422 0.0000e+00
      0.480      0.046     9.5620    114.050     37.452  36.864721     3.7636      8.381   221.7492 3.1349e+02     1.8702      0.472      0.684    24.2224 0.0000e+00
      0.485      0.042     9.4823    113.096     37.445  36.857010     3.7604      8.376   222.1857 3.1793e+02     1.7602      0.476      0.690    24.2129 0.0000e+00
      0.492      0.037     9.4154    112.300     37.453  36.864985     3.7643      8.369   222.5726 3.0727e+02     1.7160      0.481      0.697    24.2138 0.0000e+00
      0.503      0.034     9.3620    111.667     37.420  36.834090     3.7742      8.364   222.8132 2.9370e+02     1.7022      0.491      0.713    24.2127 0.0000e+00
      0.516      0.033     9.3180    111.140     37.323  36.737567     3.7791      8.366   222.9429 2.9893e+02     1.6538      0.507      0.735    24.2086 0.0000e+00
      0.526      0.032     9.2791    110.645     37.182  36.587289     3.7780      8.370   223.1087 3.0808e+02     1.6194      0.517      0.749    24.2072 0.0000e+00
      0.532      0.029     9.2453    110.167     37.099  36.478151     3.7701      8.372   223.2699 3.0002e+02     1.6525      0.522      0.758    24.2082 0.0000e+00
      0.537      0.026     9.2178    109.741     37.091  36.434344     3.7660      8.372   223.3433 2.8577e+02     1.7176      0.525      0.762    24.2114 0.0000e+00
      0.542      0.022     9.1973    109.421     37.059  36.375186     3.7737      8.375   223.2217 2.8494e+02     1.7363      0.530      0.769    24.2145 0.0000e+00
      0.549      0.020     9.1825    109.215     36.964  36.271031     3.7992      8.380   223.3485 2.8940e+02     1.7573      0.539      0.782    24.2034 0.0000e+00
      0.555      0.020     9.1709    109.071     36.819  36.127858     3.8263      8.384   223.8437 2.8509e+02     1.8489      0.545      0.790    24.1639 0.0000e+00
      0.559      0.020     9.1616    108.953     36.734  36.041618     3.8256      8.387   224.0468 2.7662e+02     1.9284      0.547      0.793    24.1039 0.0000e+00
      0.562      0.020     9.1551    108.865     36.751  36.054105     3.8180      8.392   223.9972 2.8037e+02     1.9549      0.551      0.799    24.0617 0.0000e+00
      0.567      0.020     9.1511    108.805     36.725  36.024743     3.8350      8.400   224.1906 2.9202e+02     1.8939      0.556      0.806    24.0530 0.0000e+00
      0.573      0.021     9.1475    108.735     36.650  35.940690     3.8662      8.407   224.4920 2.8991e+02     1.7709      0.563      0.816    24.0575 0.0000e+00
      0.579      0.023     9.1392    108.594     36.652  35.927131     3.8829      8.408   225.0610 2.7342e+02     1.7194      0.569      0.825    24.0527 0.0000e+00
      0.584      0.024     9.1234    108.373     36.726  35.987826     3.8904      8.406   225.9936 2.5965e+02     1.7298      0.571      0.828    24.0448 0.0000e+00
      0.590      0.023     9.1065    108.167     36.780  36.039300     3.9106      8.404   226.2178 2.5890e+02     1.7437      0.578      0.838    24.0437 0.0000e+00
      0.599      0.023     9.0954    108.042     36.780  36.041312     3.9345      8.408   225.6206 2.6402e+02     1.7342      0.589      0.854    24.0306 0.0000e+00
      0.606      0.023     9.0886    107.959     36.751  36.012157     3.9489      8.415   225.1400 2.6144e+02     1.7062      0.595      0.864    24.0041 0.0000e+00
      0.609      0.025     9.0816    107.864     36.682  35.940878     3.9659      8.421   225.2245 2.5442e+02     1.7109      0.598      0.868    23.9815 0.0000e+00
      0.612      0.029     9.0733    107.742     36.562  35.814712     3.9564      8.423   225.9543 2.5565e+02     1.7909      0.600      0.870    23.9846 0.0000e+00
      0.618      0.033     9.0659    107.608     36.455  35.693602     3.9071      8.422   226.9084 2.6537e+02     1.9105      0.604      0.874    23.9937 0.0000e+00
      0.628      0.037     9.0609    107.488     36.403  35.619937     3.8753      8.418   227.2104 2.6838e+02     1.9673      0.615      0.891    23.9897 0.0000e+00
      0.643      0.041     9.0562    107.378     36.426  35.622735     3.8756      8.416   226.9385 2.5623e+02     1.9276      0.630      0.914    23.9843 0.0000e+00
      0.657      0.045     9.0494    107.262     36.481  35.663882     3.8923      8.415   226.6320 2.4193e+02     1.8881      0.645      0.936    23.9761 0.0000e+00
      0.669      0.049     9.0424    107.155     36.499  35.672769     3.9213      8.407   226.6020 2.3609e+02     1.9169      0.657      0.953    23.9541 0.0000e+00
      0.677      0.050     9.0364    107.061     36.501  35.666659     3.9500      8.390   227.1775 2.3342e+02     1.9404      0.663      0.962    23.9165 0.0000e+00
      0.686      0.049     9.0294    106.959     36.495  35.653505     3.9634      8.372   227.7403 2.2798e+02     1.9284      0.670      0.972    23.8871 0.0000e+00
      0.701      0.047     9.0207    106.843     36.487  35.640760     3.9543      8.359   227.7278 2.2312e+02     1.8936      0.686      0.995    23.8723 0.0000e+00
      0.720      0.042     9.0103    106.714     36.488  35.639601     3.9416      8.353   227.3706 2.2045e+02     1.8868      0.709      1.027    23.8616 0.0000e+00
      0.735      0.036     8.9971    106.559     36.487  35.639485     3.9470      8.353   226.9492 2.1978e+02     1.9378      0.725      1.050    23.8503 0.0000e+00
      0.742      0.031     8.9858    106.429     36.486  35.639360     3.9558      8.357   226.6772 2.2434e+02     1.9605      0.728      1.056    23.8397 0.0000e+00
      0.743      0.028     8.9803    106.364     36.485  35.638099     3.9555      8.361   226.7495 2.2828e+02     1.9479      0.728      1.056    23.8329 0.0000e+00
      0.744      0.028     8.9805    106.359     36.473  35.624241     3.9531      8.361   227.2206 2.2406e+02     1.9370      0.728      1.056    23.8307 0.0000e+00
      0.749      0.030     8.9846    106.394     36.452  35.598832     3.9540      8.352   227.5550 2.1772e+02     1.9206      0.731      1.060    23.8318 0.0000e+00
      0.759      0.034     8.9885    106.428     36.442  35.584964     3.9580      8.340   227.6087 2.1374e+02     1.9327      0.743      1.078    23.8347 0.0000e+00
      0.774      0.035     8.9894    106.432     36.443  35.583600     3.9550      8.334   227.6114 2.0895e+02     1.9610      0.759      1.101    23.8359 0.0000e+00
      0.787      0.035     8.9858    106.388     36.443  35.582341     3.9362      8.336   227.1579 2.0418e+02     1.8966      0.774      1.123    23.8314 0.0000e+00
      0.796      0.034     8.9773    106.284     36.431  35.569731     3.9056      8.344   226.5144 2.0207e+02     1.7653      0.782      1.134    23.8239 0.0000e+00
      0.800      0.033     8.9634    106.112     36.422  35.558181     3.8884      8.350   226.4550 2.0268e+02     1.7155      0.783      1.137    23.8166 0.0000e+00
      0.804      0.033     8.9447    105.880     36.438  35.569730     3.8840      8.355   226.8703 2.0268e+02     1.7527      0.786      1.142    23.8125 0.0000e+00
      0.812      0.035     8.9244    105.632     36.453  35.582320     3.8522      8.359   227.3198 1.9996e+02     1.8187      0.793      1.150    23.8133 0.0000e+00
      0.823      0.040     8.9058    105.408     36.456  35.583350     3.7983      8.361   227.7596 1.9776e+02     1.9027      0.806      1.169    23.8135 0.0000e+00
      0.836      0.045     8.8901    105.219     36.456  35.582195     3.7653      8.356   227.7992 1.9731e+02     1.9442      0.821      1.190    23.8093 0.0000e+00
      0.849      0.048     8.8779    105.071     36.444  35.568346     3.7559      8.346   227.1111 1.9424e+02     1.9236      0.832      1.207    23.8028 0.0000e+00
      0.861      0.049     8.8689    104.960     36.420  35.542949     3.7587      8.340   226.6666 1.8776e+02     1.8976      0.843      1.224    23.7987 0.0000e+00
      0.875      0.048     8.8624    104.878     36.408  35.529204     3.7812      8.340   226.9854 1.8274e+02     1.8741      0.857      1.243    23.7970 0.0000e+00
      0.889      0.047     8.8586    104.828     36.409  35.529194     3.8164      8.338   227.3528 1.8173e+02     1.8528      0.873      1.266    23.7953 0.0000e+00
      0.899      0.044     8.8538    104.769     36.424  35.542824     3.8350      8.335   227.4087 1.8177e+02     1.8539      0.882      1.280    23.7936 0.0000e+00
      0.908      0.041     8.8427    104.635     36.450  35.566963     3.8313      8.334   227.3172 1.7977e+02     1.8872      0.888      1.289    23.7909 0.0000e+00
      0.920      0.038     8.8255    104.430     36.451  35.566963     3.8086      8.335   227.2787 1.7688e+02     1.9199      0.902      1.308    23.7882 0.0000e+00
      0.930      0.036     8.8030    104.162     36.427  35.542824     3.7714      8.336   227.3728 1.7433e+02     1.9130      0.914      1.326    23.7869 0.0000e+00
      0.938      0.035     8.7778    103.861     36.413  35.529194     3.7499      8.335   227.5093 1.7188e+02     1.8955      0.919      1.334    23.7851 0.0000e+00
      0.944      0.034     8.7559    103.596     36.415  35.529194     3.7594      8.332   227.6392 1.7046e+02     1.9222      0.925      1.342    23.7829 0.0000e+00
      0.953      0.032     8.7389    103.391     36.431  35.542826     3.8041      8.328   227.7385 1.6990e+02     1.9607      0.934      1.355    23.7822 0.0000e+00
      0.963      0.032     8.7274    103.251     36.457  35.566966     3.8677      8.323   227.8495 1.6802e+02     1.9344      0.944      1.369    23.7819 0.0000e+00
      0.971      0.033     8.7245    103.213     36.459  35.566986     3.9033      8.315   228.0340 1.6521e+02     1.9094      0.953      1.382    23.7808 0.0000e+00
      0.977      0.035     8.7293    103.264     36.436  35.543067     3.9037      8.302   228.1628 1.6247e+02     1.9326      0.959      1.391    23.7782 0.0000e+00
      0.984      0.035     8.7366    103.346     36.426  35.531841     3.8901      8.290   228.0293 1.5949e+02     1.9409      0.963      1.397    23.7754 0.0000e+00
      0.995      0.036     8.7441    103.431     36.455  35.558300     3.8766      8.282   227.7967 1.5686e+02     1.9182      0.974      1.413    23.7735 0.0000e+00
      1.007      0.037     8.7481    103.474     36.508  35.608889     3.8790      8.276   228.1042 1.5585e+02     1.9026      0.990      1.436    23.7713 0.0000e+00
      1.017      0.040     8.7438    103.418     36.538  35.635339     3.8917      8.271   228.8218 1.5560e+02     1.9354      0.998      1.449    23.7686 0.0000e+00
      1.023      0.042     8.7314    103.267     36.528  35.624009     3.9099      8.268   229.1606 1.5320e+02     1.9793      1.001      1.452    23.7662 0.0000e+00
      1.033      0.043     8.7130    103.045     36.504  35.598935     3.9433      8.263   229.1888 1.4958e+02     1.9744      1.011      1.466    23.7647 0.0000e+00
      1.047      0.043     8.6908    102.777     36.493  35.586253     3.9652      8.252   229.1627 1.4770e+02     1.9380      1.028      1.491    23.7630 0.0000e+00
      1.060      0.042     8.6680    102.502     36.507  35.597708     3.9636      8.237   229.4470 1.4668e+02     1.9054      1.041      1.508    23.7601 0.0000e+00
      1.072      0.040     8.6459    102.238     36.521  35.610402     3.9691      8.226   230.1313 1.4435e+02     1.8855      1.050      1.523    23.7572 0.0000e+00
      1.082      0.035     8.6252    101.994     36.523  35.612692     4.0039      8.221   230.3810 1.4218e+02     1.8803      1.061      1.541    23.7548 0.0000e+00
      1.090      0.031     8.6094    101.809     36.535  35.625396     4.0534      8.220   230.4015 1.4118e+02     1.9036      1.071      1.554    23.7519 0.0000e+00
      1.095      0.029     8.6032    101.732     36.548  35.636965     4.0809      8.220   230.4650 1.4002e+02     1.9226      1.075      1.559    23.7487 0.0000e+00
      1.099      0.030     8.6072    101.770     36.540  35.625524     4.0892      8.219   230.2884 1.3897e+02     1.8973      1.078      1.563    23.7475 0.0000e+00
      1.103      0.033     8.6165    101.865     36.535  35.614096     4.0887      8.218   230.4176 1.3736e+02     1.9027      1.081      1.567    23.7481 0.0000e+00
      1.113      0.038     8.6249    101.950     36.552  35.625828     4.0837      8.214   230.9078 1.3420e+02     1.9572      1.090      1.579    23.7496 0.0000e+00
      1.127      0.043     8.6284    101.981     36.571  35.640319     4.0845      8.205   231.0534 1.3155e+02     1.9764      1.106      1.605    23.7500 0.0000e+00
      1.141      0.047     8.6262    101.945     36.598  35.662259     4.0887      8.197   230.9730 1.3040e+02     1.9514      1.120      1.625    23.7437 0.0000e+00
      1.154      0.051     8.6206    101.867     36.642  35.700529     4.1345      8.189   231.2271 1.2903e+02     1.9605      1.130      1.639    23.7336 0.0000e+00
      1.167      0.052     8.6146    101.785     36.667  35.721901     4.2252      8.178   231.4590 1.2714e+02     2.0250      1.145      1.661    23.7272 0.0000e+00
      1.179      0.052     8.6112    101.733     36.681  35.730093     4.2754      8.165   231.4535 1.2542e+02     2.0902      1.156      1.677    23.7224 0.0000e+00
      1.190      0.050     8.6104    101.713     36.691  35.736043     4.2817      8.152   231.5910 1.2308e+02     2.1387      1.163      1.687    23.7158 0.0000e+00
      1.206      0.046     8.6093    101.696     36.687  35.730316     4.2828      8.142   231.7440 1.2003e+02     2.0931      1.182      1.716    23.7105 0.0000e+00
      1.222      0.041     8.6044    101.640     36.680  35.724366     4.2708      8.135   231.6692 1.1765e+02     1.9657      1.201      1.743    23.7055 0.0000e+00
      1.232      0.035     8.5959    101.541     36.683  35.727624     4.2650      8.132   231.6335 1.1664e+02     1.9107      1.210      1.754    23.6978 0.0000e+00
      1.238      0.030     8.5872    101.440     36.726  35.769711     4.2770      8.134   231.8283 1.1659e+02     1.9167      1.214      1.763    23.6908 0.0000e+00
      1.242      0.025     8.5782    101.337     36.809  35.852099     4.2594      8.137   231.8733 1.1647e+02     1.9164      1.218      1.767    23.6899 0.0000e+00
      1.245      0.023     8.5685    101.223     36.855  35.897983     4.1992      8.139   231.5751 1.1604e+02     1.9069      1.221      1.769    23.6914 0.0000e+00
      1.250      0.025     8.5599    101.119     36.837  35.879832     4.1562      8.141   231.4064 1.1548e+02     1.8930      1.225      1.776    23.6922 0.0000e+00
      1.257      0.028     8.5567    101.073     36.782  35.823207     4.1526      8.143   231.7261 1.1433e+02     1.9010      1.232      1.786    23.6933 0.0000e+00
      1.266      0.032     8.5589    101.084     36.750  35.785031     4.1645      8.142   232.0860 1.1283e+02     1.9121      1.242      1.801    23.6951 0.0000e+00
      1.275      0.036     8.5561    101.028     36.774  35.799377     4.2268      8.137   232.0574 1.1171e+02     1.9052      1.252      1.815    23.6968 0.0000e+00
      1.285      0.037     8.5381    100.794     36.789  35.806084     4.3453      8.129   231.8963 1.1087e+02     1.9082      1.259      1.825    23.6953 0.0000e+00
      1.295      0.037     8.5032    100.369     36.791  35.802591     4.4121      8.124   231.8592 1.0983e+02     1.9187      1.269      1.840    23.6919 0.0000e+00
      1.305      0.036     8.4549     99.792     36.811  35.820652     4.4099      8.121   231.8673 1.0868e+02     1.9402      1.281      1.858    23.6837 0.0000e+00
      1.315      0.036     8.3951     99.087     36.825  35.833896     4.3921      8.119   231.9941 1.0775e+02     1.9544      1.291      1.872    23.6690 0.0000e+00
      1.323      0.036     8.3259     98.275     36.825  35.835667     4.3623      8.115   232.4462 1.0700e+02     1.9382      1.298      1.882    23.6567 0.0000e+00
      1.331      0.035     8.2545     97.440     36.828  35.842075     4.3347      8.109   232.6870 1.0625e+02     1.9274      1.304      1.891    23.6507 0.0000e+00
      1.339      0.032     8.1902     96.685     36.833  35.847860     4.3150      8.103   232.5826 1.0531e+02     1.9156      1.313      1.904    23.6481 0.0000e+00
      1.349      0.030     8.1411     96.102     36.828  35.842087     4.2801      8.098   232.6464 1.0423e+02     1.9179      1.323      1.919    23.6474 0.0000e+00
      1.358      0.029     8.1116     95.751     36.823  35.835792     4.2351      8.094   232.5986 1.0349e+02     1.9551      1.333      1.934    23.6501 0.0000e+00
      1.365      0.027     8.0986     95.598     36.823  35.835272     4.2114      8.092   232.6067 1.0322e+02     1.9676      1.339      1.942    23.6556 0.0000e+00
      1.370      0.022     8.0971     95.580     36.823  35.835793     4.2058      8.091   232.8298 1.0301e+02     1.9474      1.342      1.947    23.6590 0.0000e+00
      1.375      0.018     8.1073     95.697     36.830  35.842099     4.2215      8.093   232.8870 1.0291e+02     1.9247      1.349      1.957    23.6562 0.0000e+00
      1.380      0.017     8.1272     95.930     36.838  35.847993     4.2631      8.096   233.0408 1.0303e+02     1.9062      1.355      1.965    23.6535 0.0000e+00
      1.383      0.017     8.1483     96.178     36.833  35.843523     4.2955      8.097   233.2268 1.0320e+02     1.9069      1.356      1.967    23.6548 0.0000e+00
      1.385      0.019     8.1635     96.355     36.842  35.851588     4.3007      8.096   233.2420 1.0348e+02     1.9024      1.357      1.969    23.6546 0.0000e+00
      1.388      0.022     8.1709     96.440     36.874  35.881981     4.3085      8.095   233.2250 1.0345e+02     1.9134      1.361      1.973    23.6526 0.0000e+00
      1.394      0.027     8.1687     96.414     36.951  35.956910     4.3347      8.093   233.4511 1.0277e+02     1.9485      1.367      1.983    23.6505 0.0000e+00
      1.403      0.033     8.1578     96.278     37.125  36.122319     4.3512      8.088   233.9109 1.0188e+02     1.9609      1.375      1.995    23.6507 0.0000e+00
      1.414      0.039     8.1421     96.063     37.314  36.293839     4.3512      8.078   234.0534 1.0116e+02     1.9711      1.386      2.010    23.6502 0.0000e+00
      1.424      0.043     8.1219     95.773     37.423  36.379101     4.3529      8.066   234.0551 1.0081e+02     1.9506      1.397      2.027    23.6478 0.0000e+00
      1.435      0.046     8.0942     95.394     37.523  36.454426     4.4548      8.058   234.1028 1.0028e+02     1.8955      1.406      2.040    23.6493 0.0000e+00
      1.449      0.049     8.0578     94.924     37.660  36.569314     4.6551      8.051   234.0287 9.9564e+01     1.8849      1.421      2.062    23.6488 0.0000e+00
      1.463      0.051     8.0155     94.389     37.798  36.688248     4.7711      8.042   234.2774 9.9353e+01     1.9146      1.436      2.084    23.6323 0.0000e+00
      1.474      0.053     7.9742     93.872     37.939  36.812504     4.8011      8.031   234.8729 9.8963e+01     1.9496      1.445      2.095    23.5985 0.0000e+00
      1.487      0.054     7.9391     93.432     38.071  36.928208     4.8709      8.017   235.3784 9.8034e+01     1.9720      1.457      2.113    23.5671 0.0000e+00
      1.502      0.054     7.9076     93.034     38.165  37.007248     4.9716      7.997   235.5711 9.7173e+01     1.9716      1.474      2.137    23.5449 0.0000e+00
      1.517      0.052     7.8739     92.610     38.241  37.069375     5.0168      7.975   235.4815 9.6483e+01     1.9444      1.487      2.157    23.5251 0.0000e+00
      1.532      0.047     7.8327     92.105     38.290  37.107619     5.0219      7.955   235.6722 9.5902e+01     1.9177      1.502      2.179    23.5085 0.0000e+00
      1.547      0.040     7.7782     91.455     38.276  37.088476     5.0060      7.941   236.1555 9.5757e+01     1.9239      1.519      2.203    23.4942 0.0000e+00
      1.557      0.033     7.7112     90.662     38.281  37.092019     4.9439      7.935   236.4213 9.6111e+01     1.9274      1.529      2.218    23.4779 0.0000e+00
      1.562      0.027     7.6360     89.776     38.407  37.213981     4.8960      7.934   236.5630 9.6626e+01     1.9293      1.531      2.221    23.4606 0.0000e+00
      1.564      0.023     7.5592     88.867     38.557  37.356098     4.8951      7.931   236.6637 9.7222e+01     1.9470      1.534      2.224    23.4486 0.0000e+00
      1.566      0.022     7.4941     88.089     38.687  37.476270     4.9149      7.927   236.7785 9.7757e+01     1.9580      1.536      2.227    23.4431 0.0000e+00
      1.571      0.026     7.4441     87.487     38.940  37.714045     4.9339      7.922   237.0054 9.7891e+01     1.9401      1.539      2.232    23.4413 0.0000e+00
      1.578      0.032     7.4017     86.972     39.185  37.943992     4.9406      7.912   237.2560 9.8069e+01     1.9145      1.548      2.245    23.4415 0.0000e+00
      1.587      0.038     7.3633     86.501     39.287  38.033021     4.9499      7.902   237.5711 9.8448e+01     1.9223      1.555      2.257    23.4383 0.0000e+00
      1.597      0.042     7.3265     86.051     39.488  38.218716     4.9635      7.896   237.9764 9.8051e+01     1.9428      1.563      2.267    23.4294 0.0000e+00
      1.613      0.044     7.2865     85.570     39.758  38.473877     4.9671      7.889   238.3709 9.7267e+01     1.9488      1.582      2.295    23.4215 0.0000e+00
      1.627      0.044     7.2395     85.004     39.806  38.513394     4.9651      7.880   238.3825 9.7149e+01     1.9348      1.600      2.321    23.4123 0.0000e+00
      1.636      0.043     7.1906     84.411     39.610  38.315333     4.9678      7.871   238.1166 9.6934e+01     1.8952      1.604      2.326    23.3975 0.0000e+00
      1.644      0.040     7.1513     83.930     39.344  38.048561     5.0271      7.865   238.1667 9.6187e+01     1.8673      1.611      2.336    23.3860 0.0000e+00
      1.655      0.039     7.1278     83.635     39.193  37.892593     5.1400      7.861   238.4730 9.5660e+01     1.9025      1.624      2.355    23.3807 0.0000e+00
      1.665      0.039     7.1191     83.510     39.203  37.890708     5.2025      7.858   238.7219 9.5412e+01     1.9547      1.633      2.369    23.3725 0.0000e+00
      1.674      0.043     7.1141     83.424     39.357  38.025749     5.2125      7.852   238.9392 9.5031e+01     1.9486      1.641      2.380    23.3602 0.0000e+00
      1.683      0.049     7.0897     83.109     39.675  38.318285     5.2246      7.842   238.9492 9.4433e+01     1.9203      1.650      2.393    23.3481 0.0000e+00
      1.695      0.055     7.0309     82.390     40.147  38.759454     5.3022      7.830   238.7571 9.3483e+01     1.9784      1.661      2.409    23.3359 0.0000e+00
      1.710      0.060     6.9380     81.271     40.652  39.230322     5.4434      7.818   238.8541 9.1828e+01     2.1021      1.675      2.430    23.3213 0.0000e+00
      1.728      0.063     6.8128     79.778     40.947  39.500671     5.5172      7.805   239.2613 8.9737e+01     2.1647      1.694      2.458    23.3041 0.0000e+00
      1.748      0.061     6.6603     77.971     40.945  39.486869     5.5230      7.790   239.5503 8.7852e+01     2.1561      1.716      2.490    23.2862 0.0000e+00
      1.768      0.055     6.4896     75.959     40.778  39.317569     5.5593      7.777   239.3378 8.6445e+01     2.0590      1.735      2.517    23.2661 0.0000e+00
      1.783      0.047     6.3132     73.888     40.693  39.232612     5.6250      7.768   239.0142 8.5685e+01     1.9065      1.751      2.539    23.2449 0.0000e+00
      1.793      0.039     6.1493     71.968     40.881  39.412657     5.6555      7.761   239.0794 8.5453e+01     1.8688      1.761      2.553    23.2264 0.0000e+00
      1.797      0.033     6.0151     70.391     41.132  39.651990     5.6435      7.750   239.3520 8.5326e+01     1.9081      1.764      2.558    23.2119 0.0000e+00
      1.800      0.029     5.9196     69.264     41.202  39.712069     5.5901      7.739   239.7288 8.4874e+01     1.8928      1.764      2.559    23.2030 0.0000e+00
      1.806      0.028     5.8556     68.505     41.191  39.694314     5.5061      7.732   240.1085 8.3637e+01     1.8666      1.767      2.563    23.1997 0.0000e+00
      1.817      0.028     5.8055     67.911     41.192  39.691451     5.4645      7.727   240.2425 8.2111e+01     1.8972      1.781      2.584    23.1999 0.0000e+00
      1.828      0.029     5.7540     67.301     41.182  39.677443     5.4736      7.721   240.2300 8.1235e+01     1.9581      1.795      2.603    23.1968 0.0000e+00
      1.833      0.029     5.6933     66.583     41.162  39.652017     5.5881      7.716   240.3880 8.0653e+01     1.9618      1.798      2.607    23.1867 0.0000e+00
      1.838      0.027     5.6184     65.699     41.152  39.638156     5.7920      7.710   240.6903 7.9752e+01     1.9113      1.801      2.612    23.1772 0.0000e+00
      1.845      0.024     5.5178     64.517     41.156  39.636909     5.8986      7.702   240.9595 7.8719e+01     1.8967      1.810      2.625    23.1727 0.0000e+00
      1.853      0.022     5.3838     62.943     41.161  39.636932     5.9027      7.694   241.1479 7.7846e+01     1.9381      1.817      2.635    23.1682 0.0000e+00
      1.858      0.022     5.2251     61.082     41.167  39.638423     5.8877      7.688   241.2475 7.6992e+01     2.0147      1.822      2.643    23.1608 0.0000e+00
      1.863      0.022     5.0609     59.157     41.187  39.654928     5.8642      7.682   241.2171 7.6071e+01     2.0897      1.828      2.652    23.1543 0.0000e+00
      1.867      0.022     4.9048     57.327     41.249  39.709421     5.8401      7.677   241.1242 7.5222e+01     2.1136      1.832      2.657    23.1484 0.0000e+00
      1.872      0.024     4.7656     55.691     41.339  39.789005     5.8255      7.672   241.0710 7.4319e+01     2.1204      1.835      2.661    23.1426 0.0000e+00
      1.877      0.027     4.6421     54.237     41.416  39.854747     5.8347      7.668   241.4345 7.3198e+01     2.1410      1.840      2.669    23.1385 0.0000e+00
      1.884      0.031     4.5296     52.917     41.436  39.868936     5.9055      7.660   241.9918 7.1929e+01     2.1492      1.847      2.679    23.1346 0.0000e+00
      1.893      0.034     4.4257     51.702     41.399  39.833491     6.0294      7.650   241.9586 7.0557e+01     2.1273      1.858      2.693    23.1293 0.0000e+00
      1.904      0.037     4.3288     50.572     41.371  39.807396     6.1004      7.642   241.8080 6.9067e+01     2.0901      1.868      2.708    23.1207 0.0000e+00
      1.915      0.040     4.2488     49.637     41.372  39.807564     6.1019      7.634   241.8915 6.7598e+01     2.0963      1.879      2.724    23.1079 0.0000e+00
      1.926      0.044     4.1913     48.961     41.405  39.835519     6.1037      7.622   242.0207 6.6377e+01     2.1722      1.890      2.742    23.1002 0.0000e+00
      1.934      0.046     4.1538     48.515     41.470  39.891244     6.1308      7.611   242.3382 6.5154e+01     2.2749      1.895      2.749    23.1028 0.0000e+00
      1.944      0.048     4.1342     48.275     41.499  39.909507     6.1542      7.601   242.5471 6.3466e+01     2.3004      1.903      2.761    23.1054 0.0000e+00
      1.960      0.050     4.1267     48.173     41.467  39.865716     6.1576      7.590   242.5669 6.1704e+01     2.2360      1.923      2.789    23.1051 0.0000e+00
      1.975      0.052     4.1221     48.103     41.421  39.806497     6.1625      7.578   242.8366 6.0213e+01     2.2294      1.939      2.812    23.1007 0.0000e+00
      1.989      0.054     4.1132     47.984     41.393  39.765286     6.1671      7.564   243.3129 5.8695e+01     2.2818      1.951      2.828    23.0916 0.0000e+00
      2.002      0.054     4.0943     47.750     41.388  39.748635     6.1681      7.549   243.6799 5.7249e+01     2.2903      1.965      2.848    23.0814 0.0000e+00
      2.015      0.051     4.0603     47.341     41.383  39.732217     6.1653      7.536   244.0896 5.5938e+01     2.2709      1.976      2.866    23.0641 0.0000e+00
      2.028      0.049     4.0098     46.743     41.352  39.693828     6.0866      7.524   244.4808 5.4473e+01     2.2304      1.988      2.884    23.0442 0.0000e+00
      2.043      0.047     3.9416     45.939     41.331  39.665676     5.9426      7.514   244.5390 5.3076e+01     2.1964      2.004      2.907    23.0280 0.0000e+00
      2.055      0.045     3.8585     44.964     41.318  39.645965     5.8668      7.504   244.5350 5.1990e+01     2.2263      2.016      2.924    23.0128 0.0000e+00
      2.064      0.043     3.7665     43.884     41.260  39.582566     5.8500      7.493   244.8629 5.0961e+01     2.2865      2.024      2.935    22.9987 0.0000e+00
      2.074      0.042     3.6689     42.738     41.219  39.534457     5.8222      7.479   245.3193 4.9976e+01     2.3442      2.034      2.950    22.9883 0.0000e+00
      2.084      0.040     3.5683     41.557     41.268  39.572544     5.7887      7.462   245.4932 4.9056e+01     2.4058      2.043      2.964    22.9796 0.0000e+00
      2.094      0.038     3.4527     40.205     41.368  39.661862     5.7755      7.448   245.5889 4.8011e+01     2.4518      2.052      2.976    22.9709 0.0000e+00
      2.106      0.038     3.3030     38.458     41.571  39.851964     5.7822      7.438   245.9599 4.7002e+01     2.4728      2.065      2.995    22.9630 0.0000e+00
      2.117      0.039     3.1143     36.257     42.026  40.282662     5.7774      7.431   246.2789 4.6275e+01     2.4763      2.078      3.014    22.9502 0.0000e+00
      2.124      0.040     2.9028     33.788     42.644  40.866585     5.7266      7.422   246.2631 4.5667e+01     2.4639      2.083      3.021    22.9380 0.0000e+00
      2.131      0.040     2.7016     31.436     43.199  41.384345     5.6463      7.412   246.2857 4.4895e+01     2.4452      2.088      3.028    22.9319 0.0000e+00
      2.142      0.040     2.5366     29.508     43.556  41.713853     5.6063      7.399   246.5516 4.3967e+01     2.4329      2.100      3.044    22.9266 0.0000e+00
      2.155      0.039     2.4153     28.091     43.656  41.800676     5.6012      7.385   246.8101 4.3098e+01     2.4373      2.114      3.066    22.9224 0.0000e+00
      2.168      0.035     2.3364     27.171     43.594  41.735154     5.5662      7.373   246.8306 4.2348e+01     2.4674      2.126      3.083    22.9126 0.0000e+00
      2.178      0.030     2.3016     26.763     43.479  41.620570     5.5039      7.363   246.7137 4.1781e+01     2.4914      2.136      3.099    22.8936 0.0000e+00
      2.185      0.023     2.3101     26.861     43.417  41.558985     5.4731      7.354   246.6874 4.1476e+01     2.4838      2.145      3.112    22.8770 0.0000e+00
      2.189      0.017     2.3505     27.329     43.421  41.562409     5.4693      7.346   246.6843 4.1325e+01     2.4982      2.147      3.114    22.8679 0.0000e+00
      2.190      0.012     2.4050     27.964     43.391  41.534879     5.4683      7.341   246.7625 4.1260e+01     2.5128      2.147      3.115    22.8613 0.0000e+00
      2.190      0.010     2.4607     28.613     43.464  41.607374     5.4699      7.335   247.0310 4.1188e+01     2.4773      2.148      3.115    22.8559 0.0000e+00
      2.191      0.013     2.5126     29.221     43.728  41.867065     5.4607      7.325   247.2631 4.1057e+01     2.4648      2.149      3.117    22.8545 0.0000e+00
      2.193      0.018     2.5595     29.774     43.994  42.133139     5.4401      7.313   247.2456 4.0857e+01     2.4839      2.150      3.119    22.8542 0.0000e+00
      2.198      0.022     2.6024     30.278     44.143  42.282789     5.3591      7.302   247.0778 4.0406e+01     2.4940      2.153      3.123    22.8545 0.0000e+00
      2.207      0.025     2.6415     30.731     44.273  42.405629     5.2249      7.293   247.1270 3.9820e+01     2.4955      2.164      3.139    22.8556 0.0000e+00
      2.217      0.028     2.6735     31.098     44.554  42.665231     5.1508      7.287   247.4101 3.9428e+01     2.4722      2.175      3.155    22.8641 0.0000e+00
      2.225      0.030     2.6959     31.350     44.990  43.070473     5.1334      7.281   247.6612 3.9209e+01     2.4557      2.184      3.166    22.8817 0.0000e+00
      2.231      0.032     2.7070     31.468     45.450  43.492666     5.0887      7.274   247.7540 3.8949e+01     2.4495      2.187      3.172    22.8926 0.0000e+00
      2.236      0.033     2.7048     31.426     45.894  43.893585     5.0144      7.265   247.8445 3.8500e+01     2.4584      2.191      3.178    22.8879 0.0000e+00
      2.245      0.036     2.6876     31.209     46.209  44.168612     4.9709      7.255   247.9808 3.7921e+01     2.5023      2.201      3.192    22.8747 0.0000e+00
      2.255      0.040     2.6545     30.808     46.218  44.148921     4.9574      7.242   247.9390 3.7407e+01     2.5220      2.212      3.209    22.8637 0.0000e+00
      2.266      0.042     2.6028     30.192     45.994  43.909664     4.9614      7.231   247.9423 3.6862e+01     2.5138      2.222      3.222    22.8438 0.0000e+00
      2.280      0.044     2.5291     29.326     45.650  43.563484     5.0557      7.221   248.2779 3.6194e+01     2.5555      2.235      3.241    22.8145 0.0000e+00
      2.293      0.045     2.4331     28.206     45.285  43.204181     5.2061      7.210   248.5553 3.5702e+01     2.6600      2.251      3.264    22.7870 0.0000e+00
      2.303      0.044     2.3192     26.881     45.077  42.996869     5.2725      7.197   248.4568 3.5369e+01     2.7401      2.260      3.277    22.7558 0.0000e+00
      2.312      0.041     2.1941     25.424     45.053  42.963259     5.2614      7.186   248.3784 3.4846e+01     2.7302      2.266      3.286    22.7250 0.0000e+00
      2.324      0.036     2.0633     23.902     45.026  42.924888     5.1542      7.177   248.5532 3.4233e+01     2.6618      2.278      3.305    22.7049 0.0000e+00
      2.336      0.033     1.9333     22.392     44.828  42.723533     4.9512      7.170   248.7634 3.3860e+01     2.6456      2.292      3.326    22.6974 0.0000e+00
      2.344      0.032     1.8136     20.998     44.541  42.435009     4.8379      7.163   248.9409 3.3730e+01     2.6866      2.299      3.335    22.6901 0.0000e+00
      2.348      0.032     1.7102     19.793     44.347  42.232293     4.8317      7.156   249.0654 3.3579e+01     2.7002      2.301      3.338    22.6745 0.0000e+00
      2.352      0.031     1.6233     18.778     44.313  42.178790     4.8217      7.146   248.9775 3.3248e+01     2.6887      2.305      3.343    22.6614 0.0000e+00
      2.361      0.031     1.5449     17.865     44.323  42.169325     4.7998      7.137   248.9964 3.2779e+01     2.6702      2.314      3.356    22.6494 0.0000e+00
      2.373      0.031     1.4634     16.916     44.217  42.054293     4.7874      7.130   249.3800 3.2284e+01     2.6586      2.327      3.375    22.6324 0.0000e+00
      2.384      0.031     1.3747     15.886     44.036  41.868139     4.7901      7.124   249.6576 3.1951e+01     2.6703      2.339      3.393    22.6112 0.0000e+00
      2.390      0.030     1.2799     14.786     43.872  41.697720     4.8508      7.118   249.6857 3.1784e+01     2.6906      2.345      3.401    22.5855 0.0000e+00
      2.395      0.028     1.1799     13.625     43.699  41.518750     4.9606      7.112   249.8060 3.1537e+01     2.6900      2.348      3.405    22.5628 0.0000e+00
      2.402      0.026     1.0719     12.375     43.477  41.292731     5.0153      7.106   250.1661 3.1209e+01     2.6627      2.355      3.416    22.5482 0.0000e+00
      2.409      0.026     0.9581     11.058     43.183  40.998211     5.0167      7.101   250.5981 3.0961e+01     2.6349      2.362      3.427    22.5338 0.0000e+00
      2.415      0.028     0.8483      9.787     42.808  40.626361     4.9682      7.096   250.8985 3.0726e+01     2.6589      2.368      3.434    22.5164 0.0000e+00
      2.421      0.030     0.7451      8.593     42.473  40.291319     4.8597      7.090   251.0447 3.0413e+01     2.7089      2.374      3.443    22.4993 0.0000e+00
      2.428      0.032     0.6513      7.509     42.314  40.124097     4.7892      7.084   251.1618 3.0053e+01     2.7209      2.381      3.453    22.4833 0.0000e+00
      2.438      0.033     0.5667      6.531     42.268  40.065817     4.7774      7.077   251.2818 2.9655e+01     2.7122      2.391      3.468    22.4659 0.0000e+00
      2.448      0.033     0.4849      5.586     42.244  40.031393     4.7730      7.070   251.2908 2.9238e+01     2.6953      2.401      3.482    22.4461 0.0000e+00
      2.458      0.032     0.4091      4.712     42.247  40.025545     4.7549      7.062   251.2714 2.8897e+01     2.7308      2.411      3.497    22.4268 0.0000e+00
      2.466      0.029     0.3434      3.955     42.288  40.058640     4.7322      7.055   251.3057 2.8644e+01     2.8362      2.418      3.509    22.4060 0.0000e+00
      2.473      0.025     0.2898      3.338     42.352  40.113857     4.7194      7.049   251.4477 2.8410e+01     2.9015      2.424      3.516    22.3871 0.0000e+00
      2.478      0.021     0.2500      2.879     42.435  40.184868     4.7108      7.042   251.3529 2.8227e+01     2.9098      2.432      3.526    22.3747 0.0000e+00
      2.483      0.017     0.2237      2.576     42.548  40.281853     4.6643      7.035   250.6752 2.8118e+01     2.8751      2.436      3.533    22.3643 0.0000e+00
      2.486      0.016     0.2108      2.426     42.610  40.333425     4.5801      7.028   250.1368 2.7974e+01     2.7877      2.437      3.535    22.3579 0.0000e+00
      2.489      0.017     0.2116      2.434     42.515  40.236580     4.5384      7.021   250.2634 2.7787e+01     2.7384      2.441      3.540    22.3542 0.0000e+00
      2.492      0.020     0.2236      2.573     42.346  40.063947     4.5375      7.011   250.5717 2.7665e+01     2.7367      2.444      3.544    22.3441 0.0000e+00
      2.495      0.025     0.2418      2.781     42.258  39.961602     4.5318      7.001   250.5948 2.7495e+01     2.7662      2.445      3.547    22.3294 0.0000e+00
      2.502      0.029     0.2628      3.021     42.197  39.888617     4.5245      6.994   250.3703 2.7087e+01     2.8512      2.451      3.555    22.3210 0.0000e+00
      2.513      0.033     0.2821      3.242     42.066  39.753286     4.5237      6.989   250.2666 2.6601e+01     2.9097      2.465      3.574    22.3194 0.0000e+00
      2.525      0.036     0.2962      3.403     41.915  39.596014     4.5214      6.985   250.4597 2.6301e+01     2.9243      2.478      3.594    22.3048 0.0000e+00
      2.533      0.038     0.3056      3.509     41.776  39.448339     4.4409      6.980   250.8977 2.6061e+01     2.9366      2.484      3.603    22.2747 0.0000e+00
      2.541      0.039     0.3103      3.562     41.639  39.301968     4.2950      6.973   251.4332 2.5702e+01     2.9358      2.492      3.613    22.2569 0.0000e+00
      2.550      0.039     0.3108      3.567     41.577  39.223978     4.2195      6.962   251.6859 2.5295e+01     2.8848      2.502      3.627    22.2491 0.0000e+00
      2.560      0.039     0.3106      3.562     41.644  39.267743     4.2075      6.949   251.6289 2.4873e+01     2.8385      2.510      3.641    22.2297 0.0000e+00
      2.571      0.039     0.3117      3.575     41.782  39.386363     4.1874      6.939   251.6059 2.4394e+01     2.8640      2.521      3.656    22.2060 0.0000e+00
      2.584      0.038     0.3113      3.570     41.922  39.514571     4.1602      6.930   251.6654 2.3985e+01     2.8883      2.535      3.677    22.1888 0.0000e+00
      2.594      0.036     0.3094      3.548     42.028  39.610736     4.1449      6.920   251.6594 2.3785e+01     2.8883      2.546      3.693    22.1656 0.0000e+00
      2.600      0.033     0.3091      3.543     42.156  39.723135     4.1396      6.911   251.7923 2.3576e+01     2.8953      2.549      3.697    22.1364 0.0000e+00
      2.608      0.030     0.3112      3.567     42.443  39.984076     4.1156      6.905   252.0681 2.3237e+01     2.9114      2.557      3.708    22.1236 0.0000e+00
      2.617      0.028     0.3139      3.597     42.849  40.351377     4.0659      6.899   252.0680 2.2994e+01     2.9304      2.568      3.725    22.1243 0.0000e+00
      2.624      0.028     0.3175      3.636     43.144  40.606077     4.0254      6.892   251.7054 2.2833e+01     2.9117      2.574      3.733    22.1203 0.0000e+00
      2.629      0.028     0.3228      3.694     43.351  40.776257     4.0111      6.886   251.3838 2.2558e+01     2.8674      2.576      3.737    22.1105 0.0000e+00
      2.636      0.029     0.3295      3.768     43.556  40.947593     4.0043      6.880   251.7070 2.2228e+01     2.8533      2.585      3.748    22.1003 0.0000e+00
      2.645      0.030     0.3395      3.881     43.591  40.962112     3.9525      6.871   252.4302 2.1991e+01     2.9241      2.596      3.764    22.0859 0.0000e+00
      2.652      0.032     0.3535      4.040     43.459  40.824703     3.8626      6.863   252.8134 2.1793e+01     3.0511      2.601      3.772    22.0543 0.0000e+00
      2.659      0.035     0.3702      4.230     43.454  40.811098     3.8174      6.858   252.8126 2.1497e+01     3.1076      2.605      3.779    22.0216 0.0000e+00
      2.669      0.040     0.3902      4.457     43.736  41.051753     3.8194      6.852   252.6788 2.1194e+01     3.1187      2.618      3.797    22.0027 0.0000e+00
      2.679      0.045     0.4158      4.745     44.075  41.319928     3.8597      6.843   252.5724 2.0961e+01     3.2472      2.628      3.811    21.9767 0.0000e+00
      2.689      0.049     0.4473      5.096     44.277  41.448393     3.9274      6.832   252.6448 2.0618e+01     3.4704      2.634      3.822    21.9589 0.0000e+00
      2.703      0.050     0.4806      5.469     44.416  41.524736     3.9579      6.822   252.9526 2.0113e+01     3.5901      2.650      3.843    21.9623 0.0000e+00
      2.721      0.049     0.5093      5.792     44.546  41.607502     3.9620      6.814   253.1104 1.9625e+01     3.5954      2.670      3.872    21.9401 0.0000e+00
      2.737      0.046     0.5292      6.015     44.660  41.686564     4.0143      6.806   252.9177 1.9320e+01     3.5951      2.687      3.898    21.8738 0.0000e+00
      2.747      0.042     0.5372      6.103     44.785  41.781678     4.1031      6.798   252.6882 1.9125e+01     3.5862      2.695      3.909    21.7961 0.0000e+00
      2.754      0.037     0.5307      6.026     44.898  41.867911     4.1523      6.791   252.5721 1.8911e+01     3.5795      2.700      3.916    21.7327 0.0000e+00
      2.762      0.032     0.5107      5.797     44.957  41.903129     4.1598      6.782   252.6323 1.8713e+01     3.5756      2.709      3.929    21.6929 0.0000e+00
      2.769      0.030     0.4805      5.452     45.028  41.953301     4.1386      6.772   252.8995 1.8531e+01     3.5397      2.716      3.939    21.6650 0.0000e+00
      2.777      0.030     0.4426      5.021     45.192  42.093265     4.0983      6.766   253.1355 1.8341e+01     3.5117      2.723      3.950    21.6400 0.0000e+00
      2.785      0.033     0.4009      4.547     45.393  42.261005     4.0860      6.762   253.1626 1.8197e+01     3.5112      2.732      3.962    21.6210 0.0000e+00
      2.790      0.038     0.3592      4.071     45.502  42.329282     4.1002      6.758   252.9692 1.8058e+01     3.5342      2.736      3.968    21.5972 0.0000e+00
      2.798      0.043     0.3192      3.614     45.496  42.283316     4.1318      6.753   252.8619 1.7795e+01     3.5456      2.741      3.976    21.5770 0.0000e+00
      2.811      0.049     0.2821      3.192     45.461  42.213521     4.1739      6.748   253.3280 1.7446e+01     3.5265      2.755      3.996    21.5708 0.0000e+00
      2.826      0.054     0.2481      2.804     45.461  42.184322     4.1955      6.742   254.0446 1.7105e+01     3.5175      2.772      4.020    21.5512 0.0000e+00
      2.842      0.058     0.2171      2.452     45.486  42.184407     4.2095      6.736   254.3857 1.6750e+01     3.5274      2.786      4.041    21.5116 0.0000e+00
      2.858      0.059     0.1884      2.127     45.549  42.214521     4.2238      6.729   254.0109 1.6373e+01     3.5550      2.803      4.065    21.4615 0.0000e+00
      2.874      0.058     0.1620      1.828     45.681  42.294216     4.2862      6.720   253.3841 1.6035e+01     3.5457      2.821      4.091    21.4173 0.0000e+00
      2.889      0.055     0.1406      1.585     45.904  42.448956     4.4031      6.711   253.2602 1.5762e+01     3.5067      2.834      4.110    21.3893 0.0000e+00
      2.902      0.052     0.1241      1.397     46.149  42.623901     4.4606      6.700   253.4596 1.5529e+01     3.5107      2.846      4.127    21.3667 0.0000e+00
      2.914      0.048     0.1108      1.247     46.342  42.757234     4.4757      6.689   253.7295 1.5305e+01     3.5326      2.858      4.146    21.3418 0.0000e+00
      2.926      0.043     0.1001      1.124     46.550  42.917208     4.6507      6.682   253.5983 1.5050e+01     3.5276      2.869      4.162    21.2908 0.0000e+00
      2.938      0.038     0.0916      1.028     46.698  43.033006     4.9678      6.676   252.9919 1.4834e+01     3.5420      2.883      4.181    21.2295 0.0000e+00
      2.948      0.032     0.0863      0.969     46.692  43.013494     5.1398      6.671   252.6787 1.4720e+01     3.5847      2.892      4.196    21.1757 0.0000e+00
      2.955      0.026     0.0844      0.947     46.684  42.999009     5.1492      6.668   252.8228 1.4636e+01     3.5552      2.898      4.203    21.1217 0.0000e+00
      2.960      0.021     0.0833      0.936     46.874  43.175575     5.1447      6.666   253.2718 1.4577e+01     3.4607      2.905      4.212    21.0869 0.0000e+00
      2.964      0.021     0.0812      0.912     47.288  43.559682     5.1511      6.664   253.8918 1.4562e+01     3.3879      2.907      4.217    21.0702 0.0000e+00
      2.966      0.027     0.0805      0.904     47.797  44.021045     5.1716      6.661   254.2954 1.4544e+01     3.3469      2.908      4.218    21.0528 0.0000e+00
      2.969      0.040     0.0832      0.934     48.272  44.432589     5.3364      6.656   254.2809 1.4475e+01     3.3305      2.911      4.221    21.0453 0.0000e+00
      2.974      0.054     0.0860      0.965     48.634  44.722633     7.1354      6.650   254.2321 1.4245e+01     3.4034      2.913      4.224    21.0486 0.0000e+00
      2.990      0.066     0.0883      0.989     48.918  44.922311    10.4262      6.643   254.4796 1.3749e+01     3.5266      2.927      4.245    21.0570 0.0000e+00
      3.019      0.075     0.0917      1.024     49.156  45.067347    12.2248      6.635   255.0367 1.3151e+01     3.5688      2.960      4.294    21.0550 0.0000e+00
      3.049      0.078     0.0944      1.054     49.310  45.141560    12.4596      6.630   255.5471 1.2692e+01     3.5779      2.994      4.341    21.0227 0.0000e+00
      3.071      0.076     0.0972      1.086     49.408  45.184000    13.2371      6.625   255.4891 1.2390e+01     3.5758      3.014      4.371    20.9805 0.0000e+00
      3.087      0.069     0.1010      1.127     49.532  45.262657    14.6321      6.619   255.1099 1.2170e+01     3.5123      3.028      4.392    20.9176 0.0000e+00
      3.100      0.061     0.1030      1.148     49.716  45.393468    15.3941      6.612   254.8344 1.1983e+01     3.4818      3.040      4.409    20.8318 0.0000e+00
      3.111      0.054     0.1027      1.144     49.945  45.558073    15.4761      6.605   255.0824 1.1767e+01     3.5118      3.050      4.424    20.7595 0.0000e+00
      3.124      0.050     0.1022      1.137     50.180  45.727524    15.6044      6.600   255.6133 1.1505e+01     3.5091      3.063      4.442    20.7141 0.0000e+00
      3.139      0.049     0.1011      1.123     50.362  45.853376    16.9635      6.593   255.0579 1.1267e+01     3.4491      3.078      4.465    20.6866 0.0000e+00
      3.152      0.048     0.0987      1.096     50.487  45.935706    19.4480      6.586   253.0142 1.1082e+01     3.3670      3.091      4.484    20.6513 0.0000e+00
      3.162      0.045     0.0968      1.075     50.603  46.023827    20.8030      6.581   249.1430 1.0892e+01     3.3396      3.100      4.497    20.6031 0.0000e+00
      3.174      0.042     0.0958      1.063     50.749  46.156154    21.0317      6.580   243.2704 1.0697e+01     3.3621      3.113      4.515    20.5563 0.0000e+00
      3.186      0.040     0.0953      1.058     50.935  46.328106    22.2047      6.579   237.4176 1.0557e+01     3.3648      3.127      4.535    20.5165 0.0000e+00
      3.194      0.040     0.0956      1.062     51.155  46.513989    24.3252      6.578   232.7542 1.0452e+01     3.3409      3.133      4.544    20.4839 0.0000e+00
      3.200      0.041     0.0961      1.067     51.455  46.751154    25.4782      6.576   228.7873 1.0313e+01     3.3169      3.137      4.550    20.4627 0.0000e+00
      3.210      0.042     0.0976      1.082     51.820  47.034659    25.5853      6.574   225.5045 1.0116e+01     3.3198      3.147      4.565    20.4674 0.0000e+00
      3.223      0.044     0.0997      1.104     52.068  47.208758    25.6755      6.573   222.1426 9.9006e+00     3.3144      3.162      4.585    20.4812 0.0000e+00
      3.236      0.047     0.1004      1.111     52.112  47.203571    25.8250      6.572   217.8221 9.7156e+00     3.3127      3.174      4.603    20.4684 0.0000e+00
      3.249      0.051     0.1001      1.107     52.374  47.416792    25.8855      6.568   213.7042 9.5442e+00     3.3301      3.185      4.620    20.4285 0.0000e+00
      3.262      0.053     0.0991      1.096     53.110  48.070612    25.7728      6.563   210.8132 9.3543e+00     3.3116      3.199      4.639    20.3782 0.0000e+00
      3.274      0.055     0.0976      1.079     53.775  48.625613    24.5997      6.556   207.9912 9.1267e+00     3.2419      3.211      4.657    20.3291 0.0000e+00
      3.288      0.056     0.0960      1.059     54.127  48.851581    22.4541      6.549   204.1906 8.8422e+00     3.1583      3.223      4.675    20.2767 0.0000e+00
      3.304      0.058     0.0940      1.034     54.360  48.959300    21.2805      6.542   200.3086 8.5404e+00     3.1244      3.239      4.698    20.2519 0.0000e+00
      3.320      0.058     0.0931      1.023     54.478  48.974422    21.1256      6.534   197.5351 8.3153e+00     3.1074      3.258      4.725    20.2672 0.0000e+00
      3.334      0.056     0.0946      1.038     54.550  48.970733    20.5904      6.528   195.1774 8.1345e+00     2.9820      3.271      4.744    20.2288 0.0000e+00
      3.349      0.052     0.0964      1.058     54.604  48.978165    19.6334      6.524   192.5376 7.8960e+00     2.7987      3.283      4.761    20.1219 0.0000e+00
      3.365      0.048     0.0969      1.063     54.659  49.000669    19.1214      6.522   190.3107 7.6621e+00     2.7227      3.302      4.789    20.0233 0.0000e+00
      3.378      0.045     0.0966      1.058     54.899  49.179219    19.0962      6.521   188.3856 7.5395e+00     2.7342      3.315      4.808    19.9374 0.0000e+00
      3.385      0.044     0.0963      1.054     55.309  49.484257    19.0814      6.517   186.5548 7.4973e+00     2.7246      3.320      4.816    19.8702 0.0000e+00
      3.391      0.044     0.0965      1.054     55.780  49.828321    18.7956      6.512   184.3500 7.4095e+00     2.6361      3.323      4.821    19.8398 0.0000e+00
      3.402      0.046     0.0973      1.062     56.380  50.287942    18.2865      6.508   181.3454 7.2085e+00     2.5196      3.333      4.834    19.8212 0.0000e+00
      3.417      0.050     0.0982      1.070     56.975  50.718732    18.0082      6.505   178.6191 6.9915e+00     2.4758      3.351      4.861    19.7981 0.0000e+00
      3.432      0.054     0.0988      1.074     57.335  50.904833    17.9310      6.502   176.5960 6.8250e+00     2.5029      3.366      4.883    19.7367 0.0000e+00
      3.445      0.055     0.0992      1.076     57.530  50.948646    17.4631      6.498   174.3503 6.6100e+00     2.4810      3.376      4.897    19.6537 0.0000e+00
      3.461      0.053     0.0986      1.068     57.690  50.994025    16.6156      6.495   171.4273 6.3243e+00     2.3635      3.394      4.922    19.6014 0.0000e+00
      3.478      0.049     0.0988      1.068     57.798  51.008385    16.1474      6.492   168.7007 6.1046e+00     2.2725      3.414      4.951    19.5230 0.0000e+00
      3.489      0.044     0.1012      1.093     57.801  50.931445    16.1219      6.491   166.5063 5.9914e+00     2.2664      3.424      4.966    19.3846 0.0000e+00
      3.498      0.039     0.1021      1.101     57.686  50.762926    16.2977      6.489   163.9957 5.8894e+00     2.2885      3.428      4.973    19.2605 0.0000e+00
      3.507      0.037     0.1013      1.091     57.442  50.496445    16.6182      6.488   161.1456 5.7921e+00     2.3262      3.439      4.988    19.1890 0.0000e+00
      3.515      0.039     0.1018      1.095     57.089  50.125035    16.7902      6.488   158.7186 5.7344e+00     2.3562      3.449      5.003    19.1256 0.0000e+00
      3.521      0.047     0.1030      1.107     56.784  49.768454    16.7503      6.483   156.6768 5.6604e+00     2.3160      3.451      5.006    19.0469 0.0000e+00
      3.529      0.057     0.1040      1.116     56.585  49.490482    16.1363      6.477   154.7851 5.5090e+00     2.2678      3.458      5.015    18.9868 0.0000e+00
      3.545      0.066     0.1033      1.106     56.274  49.115945    15.0086      6.472   153.5709 5.2804e+00     2.2618      3.474      5.039    18.9539 0.0000e+00
      3.568      0.072     0.1012      1.081     55.961  48.735939    14.3828      6.466   152.9226 5.0459e+00     2.2731      3.498      5.074    18.9070 0.0000e+00
      3.593      0.075     0.1013      1.080     55.992  48.646061    14.2119      6.461   152.0228 4.8584e+00     2.2827      3.525      5.112    18.8241 0.0000e+00
      3.616      0.072     0.1035      1.101     56.127  48.664727    12.8973      6.456   150.7791 4.7014e+00     2.1944      3.547      5.145    18.7224 0.0000e+00
      3.636      0.066     0.1043      1.108     55.884  48.389419    10.4894      6.453   149.1565 4.5921e+00     2.0304      3.567      5.175    18.6359 0.0000e+00
      3.650      0.059     0.1043      1.107     55.578  48.050471     9.1760      6.449   147.8040 4.5500e+00     1.9465      3.582      5.195    18.5487 0.0000e+00
      3.657      0.051     0.1063      1.126     55.640  47.998845     9.0750      6.446   147.3327 4.5258e+00     1.9435      3.587      5.201    18.4313 0.0000e+00
      3.667      0.044     0.1085      1.148     55.776  48.019333     9.2965      6.445   146.7274 4.4548e+00     1.9636      3.591      5.209    18.3292 0.0000e+00
      3.682      0.039     0.1087      1.149     55.796  47.980258     9.7120      6.445   145.4768 4.3780e+00     2.0063      3.612      5.239    18.2939 0.0000e+00
      3.696      0.037     0.1074      1.134     55.739  47.907689     9.9274      6.445   143.9987 4.3415e+00     2.0636      3.628      5.263    18.2437 0.0000e+00
      3.702      0.037     0.1057      1.115     55.672  47.841064     9.9337      6.443   142.7074 4.3015e+00     2.1075      3.630      5.265    18.1220 0.0000e+00
      3.707      0.039     0.1042      1.099     55.739  47.873878     9.8793      6.440   141.8238 4.2577e+00     2.1086      3.635      5.272    18.0275 0.0000e+00
      3.713      0.042     0.1037      1.094     55.930  47.986591     9.3167      6.436   141.1444 4.2167e+00     2.1073      3.641      5.280    17.9822 0.0000e+00
      3.724      0.045     0.1034      1.089     56.167  48.123256     8.2868      6.433   140.5163 4.1533e+00     2.1223      3.648      5.291    17.9636 0.0000e+00
      3.741      0.048     0.1014      1.067     56.382  48.254944     7.7193      6.431   139.7354 4.0762e+00     2.1069      3.667      5.319    17.9704 0.0000e+00
      3.759      0.048     0.0988      1.038     56.539  48.371059     7.6292      6.429   138.7577 4.0125e+00     2.0740      3.687      5.348    17.9496 0.0000e+00
      3.773      0.046     0.0973      1.022     56.709  48.510170     7.2347      6.428   138.1602 3.9626e+00     2.0912      3.702      5.368    17.8998 0.0000e+00
      3.783      0.042     0.0961      1.010     56.924  48.665635     6.5245      6.428   138.1031 3.9226e+00     2.1616      3.710      5.382    17.8334 0.0000e+00
      3.790      0.037     0.0946      0.994     57.058  48.725211     6.1362      6.428   137.9820 3.8898e+00     2.1932      3.716      5.390    17.7704 0.0000e+00
      3.796      0.033     0.0934      0.980     57.138  48.721918     6.1060      6.427   137.0392 3.8554e+00     2.1684      3.723      5.399    17.7701 0.0000e+00
      3.804      0.033     0.0930      0.975     57.266  48.752853     6.2235      6.426   135.6523 3.8170e+00     2.1972      3.730      5.410    17.7767 0.0000e+00
      3.813      0.035     0.0933      0.975     57.490  48.844897     6.4531      6.424   134.9795 3.7913e+00     2.2665      3.740      5.424    17.7482 0.0000e+00
      3.821      0.038     0.0943      0.985     57.905  49.071916     6.5853      6.421   134.9267 3.7711e+00     2.2735      3.747      5.435    17.7019 0.0000e+00
      3.829      0.040     0.0966      1.006     58.355  49.336325     6.6087      6.418   134.8417 3.7154e+00     2.2523      3.753      5.444    17.6289 0.0000e+00
      3.842      0.041     0.0981      1.021     58.645  49.499058     6.6536      6.415   134.2966 3.6479e+00     2.2841      3.768      5.464    17.5677 0.0000e+00
      3.855      0.041     0.0980      1.018     58.896  49.640945     6.7327      6.412   133.4112 3.6097e+00     2.3839      3.783      5.487    17.4935 0.0000e+00
      3.865      0.040     0.0983      1.019     59.162  49.780447     6.7845      6.410   132.9133 3.5727e+00     2.4824      3.792      5.499    17.3634 0.0000e+00
      3.875      0.036     0.0993      1.027     59.356  49.850740     6.7833      6.409   132.8361 3.5191e+00     2.5292      3.799      5.510    17.2531 0.0000e+00
      3.885      0.031     0.0986      1.019     59.440  49.855054     6.6266      6.407   132.8223 3.4879e+00     2.5822      3.810      5.528    17.1949 0.0000e+00
      3.893      0.026     0.0974      1.007     59.441  49.832522     6.3329      6.405   132.6606 3.4882e+00     2.6657      3.817      5.537    17.1469 0.0000e+00
      3.898      0.024     0.0967      1.000     59.434  49.832555     6.1639      6.404   132.3434 3.4801e+00     2.7153      3.822      5.544    17.0717 0.0000e+00
      3.903      0.024     0.0966      0.998     59.462  49.855465     6.1449      6.403   132.0848 3.4608e+00     2.7247      3.829      5.553    16.9789 0.0000e+00
      3.906      0.025     0.0971      1.003     59.512  49.855252     6.1309      6.402   131.9429 3.4564e+00     2.7179      3.831      5.556    16.9187 0.0000e+00
      3.910      0.028     0.0960      0.990     59.574  49.829922     5.8851      6.400   132.0906 3.4426e+00     2.7864      3.831      5.557    16.9034 0.0000e+00
      3.918      0.030     0.0939      0.966     59.637  49.803381     5.4242      6.399   132.4077 3.3876e+00     2.9724      3.840      5.570    16.9187 0.0000e+00
      3.930      0.031     0.0925      0.951     59.688  49.788519     5.1716      6.397   132.3354 3.3309e+00     3.1054      3.855      5.592    16.9340 0.0000e+00
      3.942      0.032     0.0905      0.930     59.724  49.777288     5.1551      6.397   131.9905 3.3077e+00     3.1126      3.867      5.609    16.8963 0.0000e+00
      3.949      0.033     0.0883      0.906     59.793  49.794678     5.2345      6.396   132.1092 3.2985e+00     3.0902      3.874      5.618    16.8156 0.0000e+00
      3.954      0.033     0.0872      0.895     59.939  49.871588     5.3781      6.392   132.6517 3.2788e+00     3.1094      3.876      5.623    16.7433 0.0000e+00
      3.959      0.032     0.0875      0.897     60.076  49.944328     5.4494      6.389   132.9578 3.2452e+00     3.1304      3.881      5.630    16.6978 0.0000e+00
      3.969      0.032     0.0881      0.903     60.215  50.038438     5.4519      6.388   132.8850 3.2151e+00     3.1009      3.891      5.644    16.6690 0.0000e+00
      3.981      0.032     0.0890      0.912     60.393  50.183041     5.4540      6.385   132.5454 3.1875e+00     3.0879      3.905      5.664    16.6376 0.0000e+00
      3.991      0.033     0.0902      0.924     60.540  50.294192     5.4565      6.383   132.2925 3.1673e+00     3.1258      3.916      5.680    16.5977 0.0000e+00
      3.997      0.034     0.0910      0.932     60.745  50.428810     5.4555      6.382   132.3230 3.1569e+00     3.1622      3.920      5.685    16.5569 0.0000e+00
      4.002      0.036     0.0921      0.943     61.016  50.602818     5.4317      6.381   132.3118 3.1220e+00     3.1614      3.924      5.689    16.5377 0.0000e+00
      4.010      0.042     0.0936      0.957     61.113  50.618073     5.2155      6.378   132.2434 3.0815e+00     3.2687      3.933      5.704    16.5460 0.0000e+00
      4.020      0.051     0.0922      0.940     61.219  50.613184     4.8263      6.372   132.1845 3.0515e+00     3.5445      3.942      5.718    16.5450 0.0000e+00
      4.033      0.058     0.0890      0.905     61.509  50.734292     4.6135      6.364   132.3742 3.0072e+00     3.7192      3.952      5.732    16.5072 0.0000e+00
      4.051      0.063     0.0886      0.900     61.665  50.747243     4.5914      6.359   132.9018 2.9430e+00     3.7635      3.971      5.759    16.4657 0.0000e+00
      4.074      0.064     0.0901      0.913     61.725  50.706068     4.5490      6.355   133.0581 2.8664e+00     3.9269      3.995      5.795    16.4193 0.0000e+00
      4.096      0.064     0.0917      0.928     61.863  50.744918     4.4690      6.352   132.7147 2.8154e+00     4.1998      4.021      5.832    16.3435 0.0000e+00
      4.110      0.060     0.0932      0.942     62.071  50.835456     4.4240      6.350   132.1911 2.7949e+00     4.3464      4.034      5.850    16.2381 0.0000e+00
      4.120      0.054     0.0935      0.944     62.418  51.037804     4.3999      6.348   131.6317 2.7627e+00     4.3874      4.039      5.857    16.1311 0.0000e+00
      4.132      0.048     0.0925      0.934     62.888  51.347799     4.2876      6.346   131.3717 2.7199e+00     4.5737      4.052      5.877    16.0660 0.0000e+00
      4.145      0.044     0.0923      0.930     63.286  51.595571     4.1141      6.345   131.3707 2.6968e+00     4.8587      4.067      5.898    16.0154 0.0000e+00
      4.156      0.043     0.0946      0.952     63.649  51.808442     4.0293      6.343   131.1896 2.6791e+00     4.9961      4.075      5.910    15.9456 0.0000e+00
      4.166      0.043     0.0963      0.969     63.999  52.014273     4.0250      6.342   130.8161 2.6430e+00     5.0136      4.085      5.923    15.8753 0.0000e+00
      4.177      0.044     0.0958      0.962     64.143  52.049766     4.0070      6.343   130.5549 2.6098e+00     5.0408      4.099      5.945    15.8230 0.0000e+00
      4.186      0.045     0.0954      0.957     64.253  52.046778     3.8581      6.343   130.3534 2.5806e+00     5.1717      4.106      5.956    15.7630 0.0000e+00
      4.196      0.045     0.0956      0.957     64.433  52.105187     3.5939      6.342   130.1017 2.5357e+00     5.3757      4.113      5.965    15.6909 0.0000e+00
      4.210      0.044     0.0967      0.966     64.528  52.120114     3.4498      6.342   129.7481 2.4915e+00     5.4628      4.128      5.987    15.6341 0.0000e+00
      4.226      0.041     0.1000      0.999     64.538  52.100034     3.4390      6.342   129.4332 2.4531e+00     5.4617      4.146      6.013    15.5741 0.0000e+00
      4.238      0.039     0.1025      1.024     64.576  52.116675     3.4819      6.342   129.3057 2.4206e+00     5.5150      4.158      6.030    15.4977 0.0000e+00
      4.246      0.038     0.1000      0.999     64.707  52.194161     3.5739      6.342   129.1537 2.4045e+00     5.6194      4.165      6.040    15.4212 0.0000e+00
      4.251      0.035     0.0950      0.947     64.881  52.273970     3.6320      6.341   129.0587 2.3884e+00     5.6867      4.169      6.047    15.3717 0.0000e+00
      4.257      0.031     0.0924      0.920     65.028  52.318652     3.6506      6.340   129.1028 2.3633e+00     5.6872      4.173      6.052    15.3561 0.0000e+00
      4.267      0.030     0.0915      0.911     65.143  52.352861     3.7171      6.340   128.9980 2.3382e+00     5.6567      4.183      6.067    15.3526 0.0000e+00
      4.278      0.030     0.0909      0.905     65.288  52.433201     3.8206      6.340   128.7380 2.3284e+00     5.6218      4.198      6.088    15.3399 0.0000e+00
      4.286      0.033     0.0898      0.894     65.509  52.590656     3.8723      6.340   128.5405 2.3275e+00     5.6009      4.205      6.098    15.2854 0.0000e+00
      4.290      0.034     0.0868      0.864     65.718  52.730771     3.8825      6.339   128.4168 2.3080e+00     5.6175      4.206      6.100    15.2156 0.0000e+00
      4.295      0.034     0.0856      0.850     65.855  52.792164     3.8800      6.338   128.3611 2.2680e+00     5.6099      4.209      6.105    15.1754 0.0000e+00
      4.307      0.035     0.0877      0.870     65.948  52.824268     3.8503      6.338   128.2974 2.2214e+00     5.5087      4.223      6.124    15.1452 0.0000e+00
      4.321      0.038     0.0885      0.878     66.013  52.864577     3.8177      6.338   128.1628 2.2004e+00     5.4313      4.241      6.150    15.1379 0.0000e+00
      4.331      0.041     0.0877      0.871     66.045  52.898058     3.7992      6.337   128.1098 2.2054e+00     5.4364      4.248      6.161    15.1265 0.0000e+00
      4.338      0.041     0.0870      0.864     66.138  52.974790     3.7267      6.336   128.1734 2.1879e+00     5.3880      4.252      6.167    15.0758 0.0000e+00
      4.348      0.041     0.0860      0.853     66.467  53.220132     3.5945      6.336   128.2437 2.1408e+00     5.2737      4.263      6.183    15.0342 0.0000e+00
      4.361      0.042     0.0857      0.850     66.912  53.512023     3.5237      6.336   128.0984 2.1056e+00     5.2140      4.278      6.205    15.0312 0.0000e+00
      4.371      0.042     0.0872      0.863     67.222  53.642877     3.5134      6.336   127.8796 2.0856e+00     5.2149      4.287      6.218    15.0483 0.0000e+00
      4.380      0.042     0.0886      0.875     67.389  53.657690     3.4979      6.336   127.8360 2.0487e+00     5.2234      4.293      6.227    15.0464 0.0000e+00
      4.393      0.038     0.0888      0.877     67.443  53.627402     3.4466      6.336   127.7421 2.0115e+00     5.2866      4.309      6.249    15.0443 0.0000e+00
      4.406      0.033     0.0904      0.892     67.437  53.594480     3.3617      6.336   127.5195 1.9950e+00     5.4292      4.324      6.271    15.0051 0.0000e+00
      4.414      0.029     0.0914      0.902     67.580  53.704664     3.3165      6.337   127.2953 1.9904e+00     5.5138      4.331      6.281    14.8940 0.0000e+00
      4.419      0.025     0.0902      0.890     67.802  53.878752     3.3141      6.337   127.0967 1.9902e+00     5.4857      4.334      6.285    14.7930 0.0000e+00
      4.423      0.021     0.0892      0.880     67.876  53.919100     3.2504      6.337   126.9254 1.9822e+00     5.3945      4.337      6.291    14.7421 0.0000e+00
      4.427      0.017     0.0870      0.857     67.847  53.874586     3.1252      6.338   126.7725 1.9612e+00     5.2960      4.339      6.294    14.7263 0.0000e+00
      4.432      0.016     0.0839      0.826     67.887  53.912742     3.0595      6.339   126.7965 1.9436e+00     5.2716      4.345      6.302    14.7304 0.0000e+00
      4.437      0.019     0.0814      0.802     68.189  54.189689     3.0443      6.340   126.9570 1.9376e+00     5.3122      4.353      6.313    14.7343 0.0000e+00
      4.440      0.028     0.0804      0.793     69.116  54.934232     2.9589      6.339   126.9925 1.9289e+00     5.3298      4.355      6.316    14.7180 0.0000e+00
      4.443      0.040     0.0806      0.794     70.702  56.111411     2.8179      6.336   127.0540 1.9201e+00     5.2713      4.356      6.318    14.6910 0.0000e+00
      4.449      0.054     0.0825      0.810     72.076  57.040741     2.7456      6.333   127.2710 1.9030e+00     5.2150      4.360      6.323    14.6899 0.0000e+00
      4.464      0.065     0.0853      0.835     72.658  57.331675     2.7375      6.331   127.3777 1.8462e+00     5.1978      4.373      6.342    14.7379 0.0000e+00
      4.490      0.073     0.0857      0.838     72.754  57.276008     2.7655      6.330   127.1399 1.7669e+00     5.0939      4.403      6.385    14.7669 0.0000e+00
      4.519      0.076     0.0853      0.833     72.774  57.194220     2.8264      6.331   126.6326 1.7147e+00     4.9050      4.435      6.432    14.7016 0.0000e+00
      4.543      0.072     0.0870      0.848     73.164  57.423735     2.8582      6.331   125.9762 1.6855e+00     4.8057      4.458      6.466    14.5675 0.0000e+00
      4.560      0.065     0.0887      0.864     74.159  58.143165     2.8558      6.332   125.3127 1.6550e+00     4.8092      4.474      6.489    14.4353 0.0000e+00
      4.571      0.056     0.0882      0.859     75.277  58.960949     2.8068      6.335   124.8052 1.6329e+00     4.8257      4.484      6.503    14.3517 0.0000e+00
      4.579      0.049     0.0886      0.862     75.957  59.425569     2.7159      6.336   124.4865 1.6225e+00     4.8514      4.490      6.512    14.2899 0.0000e+00
      4.589      0.044     0.0899      0.874     76.135  59.499752     2.6670      6.336   124.0404 1.6090e+00     4.8768      4.498      6.524    14.2334 0.0000e+00
      4.601      0.040     0.0896      0.871     75.980  59.349020     2.6657      6.336   123.3689 1.5777e+00     4.8581      4.512      6.545    14.1991 0.0000e+00
      4.615      0.036     0.0893      0.869     75.732  59.193008     2.6357      6.336   122.9069 1.5375e+00     4.7168      4.527      6.565    14.1632 0.0000e+00
      4.626      0.031     0.0889      0.865     75.573  59.139840     2.5705      6.337   122.7549 1.5121e+00     4.5112      4.538      6.582    14.1148 0.0000e+00
      4.632      0.024     0.0888      0.864     75.398  59.024245     2.5391      6.340   122.3924 1.5019e+00     4.4165      4.544      6.591    14.0649 0.0000e+00
      4.635      0.016     0.0889      0.865     75.108  58.749350     2.5413      6.342   121.7078 1.4973e+00     4.4265      4.545      6.593    14.0327 0.0000e+00
      4.637      0.010     0.0874      0.849     74.839  58.487119     2.5328      6.344   121.4467 1.4991e+00     4.4485      4.547      6.595    14.0647 0.0000e+00
      4.639      0.008     0.0849      0.825     74.910  58.524609     2.5098      6.346   121.6439 1.5051e+00     4.4389      4.549      6.598    14.1405 0.0000e+00
      4.639      0.008     0.0828      0.805     75.476  58.948224     2.4837      6.348   121.4250 1.5067e+00     4.4020      4.550      6.599    14.1620 0.0000e+00
      4.639      0.012     0.0809      0.786     76.055  59.348002     2.4656      6.350   120.4358 1.5050e+00     4.3689      4.549      6.598    14.1038 0.0000e+00
      4.640      0.017     0.0797      0.773     76.322  59.478792     2.4647      6.351   119.4051 1.4985e+00     4.3749      4.549      6.598    14.0582 0.0000e+00
      4.645      0.023     0.0797      0.773     76.456  59.511929     2.4922      6.353   118.9440 1.4854e+00     4.4438      4.553      6.605    14.0610 0.0000e+00
      4.654      0.030     0.0802      0.778     76.577  59.557778     2.5315      6.354   118.9040 1.4782e+00     4.5307      4.564      6.620    14.0584 0.0000e+00
      4.663      0.036     0.0809      0.783     76.665  59.587893     2.5450      6.354   118.8354 1.4715e+00     4.5705      4.573      6.633    14.0202 0.0000e+00
      4.673      0.039     0.0820      0.793     76.679  59.558013     2.5360      6.355   118.5446 1.4443e+00     4.5593      4.581      6.645    13.9593 0.0000e+00
      4.686      0.039     0.0818      0.790     76.673  59.514453     2.5050      6.357   118.1409 1.3998e+00     4.5167      4.596      6.665    13.9086 0.0000e+00
      4.699      0.039     0.0808      0.780     76.703  59.506360     2.4457      6.358   117.9122 1.3744e+00     4.4829      4.610      6.686    13.8813 0.0000e+00
      4.707      0.038     0.0818      0.790     76.769  59.523717     2.4076      6.359   118.0164 1.3711e+00     4.4862      4.617      6.697    13.8620 0.0000e+00
      4.713      0.036     0.0829      0.800     76.831  59.533486     2.4106      6.360   117.8527 1.3613e+00     4.4642      4.620      6.701    13.8313 0.0000e+00
      4.722      0.033     0.0827      0.797     76.906  59.560826     2.4648      6.361   117.3088 1.3445e+00     4.3705      4.629      6.713    13.8045 0.0000e+00
      4.734      0.032     0.0830      0.800     77.235  59.790651     2.5488      6.362   117.1192 1.3325e+00     4.2376      4.644      6.736    13.7887 0.0000e+00
      4.744      0.032     0.0846      0.816     77.901  60.277033     2.5896      6.362   117.2810 1.3292e+00     4.1703      4.654      6.751    13.7665 0.0000e+00
      4.749      0.032     0.0858      0.827     78.623  60.798730     2.5994      6.362   116.9421 1.3284e+00     4.1968      4.656      6.753    13.7375 0.0000e+00
      4.754      0.031     0.0847      0.815     79.188  61.201025     2.6039      6.363   116.2050 1.3179e+00     4.1012      4.660      6.759    13.7169 0.0000e+00
      4.763      0.031     0.0830      0.799     79.457  61.388496     2.5974      6.364   115.9397 1.2861e+00     3.8377      4.671      6.776    13.7056 0.0000e+00
      4.773      0.034     0.0822      0.792     79.655  61.538899     2.5943      6.366   116.1441 1.2546e+00     3.6658      4.681      6.790    13.6871 0.0000e+00
      4.780      0.040     0.0807      0.777     80.008  61.811019     2.5932      6.366   116.2679 1.2504e+00     3.6716      4.687      6.798    13.6608 0.0000e+00
      4.788      0.045     0.0795      0.764     80.138  61.880001     2.5750      6.366   116.0601 1.2554e+00     3.6937      4.694      6.808    13.6362 0.0000e+00
      4.799      0.049     0.0794      0.763     79.960  61.673274     2.5485      6.367   115.4384 1.2309e+00     3.6282      4.704      6.823    13.6214 0.0000e+00
      4.815      0.053     0.0793      0.761     79.730  61.410426     2.5399      6.367   114.6870 1.1823e+00     3.5508      4.720      6.847    13.6232 0.0000e+00
      4.833      0.054     0.0793      0.761     79.540  61.182436     2.5359      6.368   114.2017 1.1639e+00     3.5209      4.741      6.875    13.6327 0.0000e+00
      4.848      0.053     0.0803      0.770     79.408  61.015541     2.5273      6.368   113.9587 1.1599e+00     3.5109      4.755      6.896    13.6155 0.0000e+00
      4.862      0.049     0.0816      0.781     79.256  60.855331     2.5273      6.368   113.3840 1.1350e+00     3.3991      4.767      6.913    13.5642 0.0000e+00
      4.874      0.043     0.0812      0.777     79.022  60.644578     2.5359      6.370   112.2435 1.1246e+00     3.2064      4.782      6.935    13.5068 0.0000e+00
      4.884      0.038     0.0804      0.769     78.712  60.375411     2.5484      6.371   111.6982 1.1324e+00     3.1039      4.791      6.949    13.4537 0.0000e+00
      4.891      0.036     0.0809      0.773     78.292  60.017702     2.5416      6.372   111.9540 1.1234e+00     3.0757      4.796      6.955    13.4100 0.0000e+00
      4.897      0.036     0.0820      0.784     77.750  59.563172     2.5090      6.373   111.5501 1.1091e+00     3.0782      4.802      6.964    13.3849 0.0000e+00
      4.904      0.037     0.0835      0.797     77.260  59.140874     2.4848      6.373   110.3426 1.1084e+00     3.1045      4.809      6.974    13.3700 0.0000e+00
      4.913      0.040     0.0856      0.816     76.960  58.854813     2.4783      6.373   109.5707 1.0896e+00     3.1184      4.817      6.987    13.3505 0.0000e+00
      4.925      0.043     0.0870      0.829     76.674  58.584691     2.4771      6.374   109.3585 1.0566e+00     3.1237      4.829      7.003    13.3260 0.0000e+00
      4.940      0.044     0.0858      0.817     76.346  58.291459     2.4423      6.374   109.1539 1.0516e+00     3.1682      4.846      7.028    13.3036 0.0000e+00
      4.953      0.044     0.0838      0.798     76.077  58.043954     2.3695      6.375   108.7319 1.0576e+00     3.2603      4.861      7.050    13.2742 0.0000e+00
      4.963      0.042     0.0831      0.791     75.920  57.881505     2.3325      6.376   108.1276 1.0501e+00     3.3219      4.867      7.059    13.2322 0.0000e+00
      4.973      0.038     0.0826      0.786     75.846  57.789915     2.3436      6.377   107.7846 1.0375e+00     3.3335      4.876      7.071    13.1979 0.0000e+00
      4.983      0.034     0.0801      0.761     75.593  57.572455     2.3855      6.377   107.9397 1.0208e+00     3.3390      4.888      7.089    13.1742 0.0000e+00
      4.993      0.032     0.0771      0.732     75.333  57.350756     2.4440      6.377   108.2827 1.0009e+00     3.3590      4.897      7.103    13.1454 0.0000e+00
      4.999      0.032     0.0760      0.722     75.181  57.207911     2.4714      6.378   108.3182 9.9284e-01     3.3605      4.902      7.111    13.1156 0.0000e+00
      5.005      0.033     0.0754      0.716     74.762  56.862770     2.4688      6.378   107.9385 9.9048e-01     3.3270      4.906      7.115    13.0904 0.0000e+00
      5.013      0.035     0.0769      0.730     74.385  56.547977     2.4854      6.379   107.8219 9.7518e-01     3.3203      4.917      7.131    13.0764 0.0000e+00
      5.021      0.039     0.0793      0.753     74.136  56.326937     2.5259      6.379   108.1132 9.5557e-01     3.3400      4.925      7.143    13.0649 0.0000e+00
      5.031      0.045     0.0794      0.753     73.540  55.843468     2.5446      6.379   108.1046 9.4192e-01     3.3519      4.930      7.150    13.0421 0.0000e+00
      5.045      0.050     0.0802      0.760     72.929  55.344299     2.5365      6.378   107.8037 9.3950e-01     3.3428      4.949      7.179    13.0263 0.0000e+00
      5.058      0.053     0.0815      0.771     72.691  55.124135     2.4655      6.378   107.7443 9.4458e-01     3.2599      4.962      7.197    13.0094 0.0000e+00
      5.071      0.054     0.0812      0.768     72.438  54.898269     2.3385      6.379   108.0747 9.3307e-01     3.1433      4.970      7.209    12.9837 0.0000e+00
      5.089      0.055     0.0811      0.767     71.978  54.520869     2.2780      6.380   108.0990 9.0566e-01     3.0927      4.991      7.240    12.9657 0.0000e+00
      5.104      0.054     0.0817      0.773     71.745  54.312457     2.2857      6.380   107.6079 8.8764e-01     3.1064      5.009      7.264    12.9433 0.0000e+00
      5.115      0.051     0.0810      0.766     71.755  54.285871     2.2937      6.381   107.1268 8.7983e-01     3.1257      5.014      7.273    12.9114 0.0000e+00
      5.128      0.046     0.0804      0.760     71.673  54.199374     2.3187      6.382   106.5848 8.7411e-01     3.0513      5.027      7.291    12.8867 0.0000e+00
      5.143      0.040     0.0807      0.763     71.551  54.093173     2.3687      6.382   105.9590 8.6386e-01     2.9393      5.047      7.320    12.8723 0.0000e+00
      5.154      0.035     0.0786      0.742     71.382  53.955528     2.4014      6.382   105.5834 8.5293e-01     2.9311      5.056      7.334    12.8492 0.0000e+00
      5.159      0.031     0.0766      0.723     71.114  53.743167     2.4114      6.384   105.3127 8.5843e-01     2.9513      5.057      7.337    12.8200 0.0000e+00
      5.164      0.027     0.0767      0.725     70.889  53.560127     2.4154      6.386   104.6648 8.6673e-01     2.9702      5.063      7.344    12.8047 0.0000e+00
      5.170      0.025     0.0777      0.734     70.691  53.395509     2.4138      6.387   103.8585 8.6159e-01     3.0382      5.070      7.353    12.7965 0.0000e+00
      5.176      0.025     0.0791      0.746     70.389  53.151534     2.4102      6.387   103.4790 8.5568e-01     3.0715      5.076      7.362    12.7903 0.0000e+00
      5.183      0.026     0.0793      0.748     70.080  52.899085     2.4077      6.387   103.3465 8.5540e-01     3.0679      5.084      7.373    12.7858 0.0000e+00
      5.189      0.028     0.0791      0.746     69.927  52.759146     2.4116      6.387   102.9437 8.5563e-01     3.1465      5.089      7.382    12.7754 0.0000e+00
      5.195      0.028     0.0796      0.751     69.833  52.667520     2.4211      6.387   102.3943 8.5328e-01     3.2896      5.094      7.388    12.7628 0.0000e+00
      5.204      0.029     0.0808      0.762     69.694  52.554155     2.4202      6.387   102.0386 8.4909e-01     3.3646      5.104      7.402    12.7545 0.0000e+00
      5.213      0.030     0.0796      0.752     69.492  52.405686     2.4105      6.388   101.8270 8.4370e-01     3.3501      5.113      7.416    12.7410 0.0000e+00
      5.220      0.033     0.0768      0.725     69.227  52.207519     2.4052      6.388   101.6422 8.3870e-01     3.4201      5.119      7.423    12.7205 0.0000e+00
      5.227      0.034     0.0761      0.718     69.056  52.065434     2.4026      6.388   101.4391 8.3575e-01     3.6315      5.125      7.434    12.7031 0.0000e+00
      5.236      0.034     0.0755      0.712     69.026  52.022838     2.4058      6.388   101.2641 8.3526e-01     3.7698      5.133      7.445    12.6962 0.0000e+00
      5.246      0.034     0.0733      0.691     68.941  51.946778     2.4068      6.388   101.0751 8.2663e-01     3.7489      5.143      7.460    12.7038 0.0000e+00
      5.257      0.034     0.0717      0.676     68.820  51.845116     2.3690      6.388   100.7890 8.1047e-01     3.7457      5.157      7.480    12.7100 0.0000e+00
      5.265      0.033     0.0717      0.675     68.798  51.810843     2.3071      6.388   100.6435 8.1536e-01     3.8526      5.165      7.491    12.6972 0.0000e+00
      5.270      0.032     0.0713      0.672     68.789  51.786672     2.2838      6.387   100.6925 8.3633e-01     3.9424      5.166      7.493    12.6763 0.0000e+00
      5.279      0.029     0.0713      0.672     68.743  51.743571     2.2889      6.387   100.5216 8.3093e-01     3.9777      5.176      7.507    12.6714 0.0000e+00
      5.289      0.026     0.0728      0.686     68.733  51.734723     2.2772      6.387   100.2113 8.1068e-01     4.0052      5.189      7.527    12.6676 0.0000e+00
      5.295      0.024     0.0737      0.694     68.746  51.743264     2.2166      6.386   100.2099 8.0908e-01     4.0297      5.193      7.532    12.6503 0.0000e+00
      5.299      0.024     0.0734      0.691     68.635  51.656111     2.1251      6.385   100.3335 8.0434e-01     4.0903      5.195      7.535    12.6358 0.0000e+00
      5.304      0.024     0.0728      0.685     68.358  51.443860     2.0808      6.385   100.2429 7.9794e-01     4.1584      5.203      7.545    12.6294 0.0000e+00
      5.309      0.026     0.0723      0.681     68.145  51.274898     2.0857      6.384    99.9752 8.0601e-01     4.1824      5.207      7.552    12.6314 0.0000e+00
      5.314      0.030     0.0723      0.681     68.158  51.266108     2.0915      6.383    99.7639 8.0877e-01     4.2269      5.209      7.555    12.6323 0.0000e+00
      5.322      0.032     0.0726      0.683     68.266  51.337565     2.0871      6.380    99.8388 7.9762e-01     4.3000      5.217      7.565    12.6262 0.0000e+00
      5.335      0.036     0.0720      0.677     68.223  51.312418     2.0782      6.377   100.0202 7.7634e-01     4.3342      5.232      7.588    12.6265 0.0000e+00
      5.348      0.040     0.0707      0.666     68.012  51.152773     2.0762      6.374    99.9780 7.6731e-01     4.3659      5.248      7.610    12.6233 0.0000e+00
      5.355      0.042     0.0713      0.671     67.923  51.060224     2.0816      6.371    99.7590 7.7820e-01     4.4085      5.253      7.618    12.6028 0.0000e+00
      5.362      0.042     0.0729      0.686     67.997  51.083412     2.0881      6.367    99.6093 7.7298e-01     4.4222      5.254      7.621    12.5902 0.0000e+00
      5.376      0.040     0.0741      0.696     67.977  51.051667     2.0893      6.365    99.5450 7.4895e-01     4.4102      5.270      7.644    12.6059 0.0000e+00
      5.391      0.038     0.0748      0.703     67.911  50.994233     2.0787      6.364    99.4106 7.3869e-01     4.3842      5.290      7.673    12.6134 0.0000e+00
      5.400      0.036     0.0747      0.702     67.962  51.024698     2.0422      6.363    99.2751 7.4157e-01     4.4135      5.296      7.681    12.5846 0.0000e+00
      5.405      0.033     0.0739      0.694     67.985  51.038579     1.9887      6.362    99.1124 7.3497e-01     4.5210      5.299      7.684    12.5535 0.0000e+00
      5.413      0.028     0.0733      0.689     67.978  51.034920     1.9650      6.362    98.9058 7.3129e-01     4.5845      5.309      7.700    12.5451 0.0000e+00
      5.421      0.024     0.0738      0.694     68.076  51.107607     1.9577      6.361    98.7558 7.4266e-01     4.6017      5.317      7.712    12.5441 0.0000e+00
      5.426      0.021     0.0740      0.695     68.138  51.154557     1.9275      6.359    98.5892 7.4657e-01     4.7290      5.319      7.716    12.5334 0.0000e+00
      5.431      0.021     0.0729      0.684     68.051  51.093998     1.8950      6.358    98.4400 7.4170e-01     4.9326      5.326      7.726    12.5318 0.0000e+00
      5.436      0.021     0.0719      0.676     67.761  50.883988     1.8859      6.357    98.5005 7.3766e-01     5.0186      5.332      7.734    12.5372 0.0000e+00
      5.438      0.026     0.0715      0.672     67.196  50.458950     1.8904      6.356    98.7189 7.3288e-01     5.0376      5.332      7.734    12.5325 0.0000e+00
      5.442      0.033     0.0702      0.659     66.649  50.023459     1.8850      6.353    98.7574 7.2821e-01     5.2227      5.334      7.738    12.5342 0.0000e+00
      5.450      0.038     0.0688      0.646     66.510  49.877694     1.8764      6.350    98.5361 7.1392e-01     5.5171      5.341      7.747    12.5366 0.0000e+00
      5.463      0.041     0.0690      0.647     66.589  49.904293     1.8777      6.349    98.3665 6.9328e-01     5.6380      5.355      7.767    12.5437 0.0000e+00
      5.481      0.042     0.0697      0.654     66.686  49.963610     1.8829      6.348    98.5125 6.9003e-01     5.6161      5.377      7.799    12.5530 0.0000e+00
      5.496      0.040     0.0697      0.654     66.761  50.022745     1.8841      6.345    98.8399 6.9315e-01     5.6183      5.393      7.823    12.5302 0.0000e+00
      5.504      0.036     0.0691      0.648     66.612  49.920032     1.8369      6.344    98.9693 6.7915e-01     5.7250      5.397      7.829    12.4890 0.0000e+00
      5.508      0.032     0.0697      0.654     66.455  49.802409     1.7448      6.343    98.8713 6.6710e-01     5.9304      5.402      7.835    12.4634 0.0000e+00
      5.512      0.031     0.0718      0.674     66.474  49.808396     1.6886      6.340    98.7739 6.6547e-01     6.0567      5.406      7.840    12.4548 0.0000e+00
      5.518      0.033     0.0737      0.691     66.389  49.738136     1.6817      6.339    98.7383 6.5745e-01     6.0919      5.408      7.843    12.4589 0.0000e+00
      5.528      0.038     0.0736      0.690     66.108  49.525011     1.6616      6.339    98.7847 6.4928e-01     6.2654      5.420      7.862    12.4713 0.0000e+00
      5.541      0.043     0.0729      0.683     65.766  49.265703     1.6012      6.339    98.9047 6.4440e-01     6.5671      5.435      7.882    12.4715 0.0000e+00
      5.553      0.047     0.0734      0.688     65.619  49.145559     1.5573      6.338    98.8995 6.3420e-01     6.7180      5.445      7.897    12.4596 0.0000e+00
      5.566      0.048     0.0725      0.679     65.823  49.280123     1.5453      6.336    98.4635 6.3339e-01     6.7470      5.459      7.917    12.4555 0.0000e+00
      5.579      0.046     0.0709      0.664     66.132  49.494205     1.5014      6.333    97.9353 6.4531e-01     7.1615      5.471      7.935    12.4556 0.0000e+00
      5.592      0.045     0.0707      0.662     66.330  49.636265     1.4221      6.329    97.9331 6.4563e-01     7.9458      5.484      7.954    12.4536 0.0000e+00
      5.604      0.045     0.0706      0.661     66.369  49.662821     1.3674      6.326    98.1785 6.2819e-01     8.3871      5.498      7.974    12.4480 0.0000e+00
      5.613      0.044     0.0705      0.660     66.333  49.624590     1.3540      6.322    97.9773 6.0246e-01     8.4380      5.505      7.985    12.4314 0.0000e+00
      5.621      0.042     0.0706      0.661     66.346  49.618980     1.3436      6.319    97.3940 5.8383e-01     8.4390      5.509      7.990    12.4124 0.0000e+00
      5.633      0.039     0.0710      0.665     66.327  49.594961     1.3157      6.317    97.0624 5.8024e-01     8.4613      5.524      8.012    12.4110 0.0000e+00
      5.647      0.037     0.0725      0.679     66.242  49.524871     1.3011      6.316    97.0645 5.8070e-01     8.5241      5.541      8.038    12.4165 0.0000e+00
      5.657      0.035     0.0736      0.689     66.177  49.470779     1.3048      6.315    97.2474 5.7699e-01     8.5276      5.548      8.047    12.4038 0.0000e+00
      5.663      0.032     0.0727      0.681     65.983  49.322339     1.2883      6.314    97.2950 5.6209e-01     8.4415      5.552      8.053    12.3883 0.0000e+00
      5.670      0.031     0.0714      0.668     65.555  49.001430     1.2571      6.313    97.0376 5.3963e-01     8.3987      5.560      8.064    12.3824 0.0000e+00
      5.677      0.031     0.0699      0.655     65.252  48.769025     1.2400      6.311    96.8889 5.3430e-01     8.4068      5.569      8.076    12.3795 0.0000e+00
      5.683      0.032     0.0682      0.638     65.227  48.737180     1.2378      6.309    96.9606 5.5195e-01     8.4175      5.572      8.081    12.3742 0.0000e+00
      5.690      0.034     0.0669      0.625     65.252  48.743507     1.2580      6.308    97.3017 5.6040e-01     8.5282      5.577      8.089    12.3700 0.0000e+00
      5.702      0.037     0.0669      0.626     65.227  48.718381     1.2919      6.307    97.6577 5.5179e-01     8.7076      5.593      8.112    12.3741 0.0000e+00
      5.713      0.039     0.0691      0.646     65.192  48.687641     1.3068      6.306    97.5650 5.4722e-01     8.7866      5.604      8.129    12.3697 0.0000e+00
      5.723      0.040     0.0730      0.682     65.200  48.689649     1.3092      6.304    97.2135 5.4103e-01     8.8115      5.610      8.137    12.3547 0.0000e+00
      5.733      0.039     0.0761      0.712     65.187  48.679097     1.3031      6.301    96.9347 5.3182e-01     8.8865      5.620      8.153    12.3458 0.0000e+00
      5.745      0.038     0.0756      0.707     65.112  48.623615     1.2328      6.299    97.2053 5.2727e-01     9.1145      5.634      8.172    12.3424 0.0000e+00
      5.755      0.038     0.0733      0.685     65.071  48.590909     1.1110      6.297    97.8184 5.2438e-01     9.4622      5.646      8.187    12.3390 0.0000e+00
      5.761      0.037     0.0724      0.677     65.091  48.601481     1.0435      6.296    98.0664 5.1983e-01     9.6418      5.650      8.194    12.3350 0.0000e+00
      5.769      0.035     0.0721      0.674     65.126  48.624306     1.0425      6.295    97.9675 5.1047e-01     9.6685      5.656      8.203    12.3341 0.0000e+00
      5.780      0.034     0.0692      0.647     65.112  48.612611     1.0622      6.293    97.5684 5.0205e-01     9.7847      5.668      8.220    12.3369 0.0000e+00
      5.791      0.034     0.0656      0.613     65.079  48.587202     1.0883      6.293    97.6299 4.9768e-01     9.9784      5.680      8.239    12.3351 0.0000e+00
      5.798      0.034     0.0655      0.612     65.059  48.571357     1.1010      6.292    98.5389 4.9047e-01    10.0880      5.686      8.247    12.3300 0.0000e+00
      5.803      0.034     0.0674      0.630     65.028  48.548147     1.0970      6.290    99.0937 4.8680e-01    10.1032      5.689      8.251    12.3268 0.0000e+00
      5.813      0.032     0.0693      0.649     65.044  48.560841     1.1033      6.288    99.0040 4.9186e-01    10.0397      5.700      8.266    12.3264 0.0000e+00
      5.823      0.030     0.0708      0.662     65.094  48.597707     1.1226      6.288    98.9163 4.9416e-01     9.9305      5.712      8.284    12.3269 0.0000e+00
      5.833      0.030     0.0698      0.653     65.113  48.612504     1.1284      6.287    98.9805 4.9242e-01     9.8817      5.722      8.298    12.3250 0.0000e+00
      5.838      0.031     0.0693      0.648     65.111  48.612618     1.1175      6.287    99.1777 4.8711e-01     9.9082      5.726      8.304    12.3254 0.0000e+00
      5.843      0.032     0.0711      0.664     65.093  48.599091     1.0732      6.287    99.3218 4.8042e-01    10.1894      5.729      8.309    12.3268 0.0000e+00
      5.850      0.033     0.0710      0.664     65.068  48.576074     1.0063      6.286    99.3465 4.7374e-01    10.6871      5.736      8.319    12.3257 0.0000e+00
      5.860      0.033     0.0679      0.634     65.092  48.588575     0.9800      6.284    99.1319 4.6804e-01    10.9516      5.746      8.333    12.3256 0.0000e+00
      5.871      0.033     0.0648      0.605     65.141  48.623111     0.9853      6.282    98.7914 4.6640e-01    10.9762      5.758      8.351    12.3283 0.0000e+00
      5.883      0.032     0.0647      0.605     65.124  48.612250     0.9685      6.281    98.8442 4.6455e-01    11.0766      5.771      8.369    12.3292 0.0000e+00
      5.892      0.031     0.0672      0.628     65.079  48.584386     0.9330      6.281    98.9961 4.6800e-01    11.2492      5.781      8.383    12.3251 0.0000e+00
      5.896      0.031     0.0692      0.646     65.015  48.540479     0.9147      6.280    98.7355 4.7430e-01    11.3240      5.783      8.387    12.3191 0.0000e+00
      5.898      0.035     0.0698      0.652     64.914  48.462763     0.9122      6.277    98.2744 4.7303e-01    11.3398      5.782      8.387    12.3167 0.0000e+00
      5.904      0.040     0.0700      0.654     64.853  48.407502     0.9036      6.273    98.1532 4.6620e-01    11.3802      5.787      8.394    12.3197 0.0000e+00
      5.916      0.044     0.0694      0.648     64.830  48.380834     0.8561      6.271    98.3881 4.5913e-01    11.6290      5.800      8.413    12.3243 0.0000e+00
      5.934      0.046     0.0693      0.647     64.856  48.394568     0.7702      6.269    98.7053 4.5494e-01    12.0892      5.819      8.439    12.3290 0.0000e+00
      5.953      0.043     0.0689      0.643     64.928  48.446420     0.7195      6.266    98.7195 4.5121e-01    12.3367      5.841      8.471    12.3279 0.0000e+00
      5.967      0.035     0.0662      0.618     64.996  48.499245     0.7206      6.263    98.4732 4.4401e-01    12.3628      5.854      8.492    12.3183 0.0000e+00
      5.972      0.024     0.0637      0.595     65.025  48.524765     0.7289      6.263    98.5667 4.3624e-01    12.3439      5.857      8.496    12.3091 0.0000e+00
      5.973      0.015     0.0632      0.591     64.990  48.500724     0.7288      6.263    98.9029 4.3289e-01    12.2605      5.858      8.496    12.3052 0.0000e+00
      5.972      0.010     0.0639      0.598     64.938  48.462829     0.7281      6.262    99.1833 4.2531e-01    12.2090      5.857      8.496    12.3039 0.0000e+00
      5.971      0.010     0.0654      0.611     64.920  48.447961     0.7294      6.261    99.4613 4.1375e-01    12.2104      5.854      8.493    12.3059 0.0000e+00
      5.971      0.014     0.0673      0.629     64.923  48.448086     0.7440      6.260    99.6833 4.1047e-01    12.2160      5.852      8.487    12.3103 0.0000e+00
      5.977      0.021     0.0693      0.649     64.944  48.464342     0.7765      6.259    99.7164 4.0632e-01    12.2160      5.860      8.499    12.3114 0.0000e+00
      5.987      0.029     0.0711      0.665     65.014  48.517389     0.7911      6.257    99.6898 3.9868e-01    12.2097      5.873      8.518    12.3128 0.0000e+00
      5.994      0.035     0.0716      0.669     65.103  48.580953     0.7835      6.256   100.0506 4.0546e-01    12.2012      5.878      8.525    12.3112 0.0000e+00
      6.002      0.040     0.0713      0.666     65.128  48.597229     0.7666      6.255   100.7233 4.2177e-01    12.2345      5.883      8.533    12.3071 0.0000e+00
      6.014      0.043     0.0715      0.668     65.112  48.587047     0.7440      6.255   100.9388 4.2025e-01    12.3385      5.898      8.553    12.3097 0.0000e+00
      6.028      0.046     0.0710      0.663     65.109  48.584975     0.7300      6.254   100.7641 4.0262e-01    12.3904      5.913      8.576    12.3120 0.0000e+00
      6.039      0.050     0.0695      0.648     65.100  48.572180     0.7170      6.252   100.7619 3.8849e-01    12.3736      5.923      8.590    12.3074 0.0000e+00
      6.050      0.052     0.0678      0.633     65.094  48.559461     0.6975      6.250   100.9119 3.6877e-01    12.3795      5.931      8.603    12.3040 0.0000e+00
      6.064      0.050     0.0665      0.622     65.099  48.558313     0.6869      6.249   101.1150 3.4261e-01    12.4005      5.945      8.623    12.3082 0.0000e+00
      6.081      0.046     0.0664      0.620     65.103  48.558303     0.6904      6.248   101.2387 3.3349e-01    12.4142      5.964      8.651    12.3100 0.0000e+00
      6.096      0.043     0.0674      0.630     65.105  48.559332     0.6937      6.247   101.1168 3.3682e-01    12.4229      5.981      8.674    12.3032 0.0000e+00
      6.105      0.038     0.0684      0.639     65.118  48.570751     0.6990      6.247   101.0178 3.4078e-01    12.4751      5.987      8.684    12.2958 0.0000e+00
      6.110      0.032     0.0685      0.640     65.110  48.569243     0.7178      6.247   101.1605 3.4524e-01    12.5581      5.991      8.690    12.2919 0.0000e+00
      6.116      0.026     0.0678      0.633     65.065  48.541103     0.7280      6.246   101.2935 3.3789e-01    12.6026      5.998      8.700    12.2898 0.0000e+00
      6.123      0.024     0.0655      0.612     64.985  48.484786     0.7204      6.245   101.2492 3.2204e-01    12.6160      6.003      8.709    12.2894 0.0000e+00
      6.128      0.026     0.0644      0.602     64.868  48.396838     0.7175      6.243   101.1413 3.1576e-01    12.6279      6.010      8.717    12.2905 0.0000e+00
      6.133      0.029     0.0654      0.611     64.835  48.367633     0.7118      6.243   101.1934 3.1615e-01    12.6852      6.015      8.724    12.2940 0.0000e+00
      6.139      0.032     0.0650      0.607     64.864  48.385913     0.6973      6.242   101.3635 3.1127e-01    12.7602      6.017      8.728    12.2994 0.0000e+00
      6.149      0.034     0.0645      0.602     64.833  48.363611     0.6893      6.240   101.5632 2.9746e-01    12.7718      6.028      8.743    12.3025 0.0000e+00
      6.162      0.038     0.0664      0.620     64.819  48.352233     0.6802      6.238   101.8871 2.8294e-01    12.7946      6.045      8.768    12.3033 0.0000e+00
      6.172      0.045     0.0701      0.655     64.859  48.375469     0.6696      6.233   102.3532 2.7886e-01    12.9137      6.053      8.779    12.2969 0.0000e+00
      6.180      0.055     0.0723      0.675     64.886  48.390287     0.6719      6.228   102.8113 2.8514e-01    13.0215      6.060      8.788    12.2926 0.0000e+00
      6.190      0.062     0.0714      0.667     64.911  48.404260     0.6796      6.224   103.0379 2.9279e-01    13.0301      6.069      8.802    12.2980 0.0000e+00
      6.205      0.065     0.0694      0.648     64.932  48.417283     0.6800      6.222   103.0280 2.8981e-01    13.0180      6.079      8.817    12.2962 0.0000e+00
      6.232      0.066     0.0679      0.633     64.936  48.420627     0.6770      6.221   102.9502 2.7721e-01    12.9975      6.109      8.860    12.2890 0.0000e+00
      6.261      0.064     0.0678      0.633     64.966  48.444688     0.6804      6.221   103.0439 2.6436e-01    12.9338      6.147      8.915    12.2846 0.0000e+00
      6.276      0.059     0.0675      0.630     64.976  48.453944     0.6831      6.221   103.3002 2.5192e-01    12.8891      6.159      8.933    12.2815 0.0000e+00
      6.282      0.049     0.0660      0.617     64.908  48.405404     0.6824      6.222   103.4679 2.4589e-01    12.8834      6.158      8.931    12.2797 0.0000e+00
      6.289      0.039     0.0657      0.613     64.851  48.366320     0.6814      6.223   103.5231 2.4489e-01    12.8659      6.167      8.944    12.2802 0.0000e+00
      6.299      0.031     0.0668      0.623     64.844  48.362767     0.6811      6.224   103.5368 2.4747e-01    12.8601      6.178      8.960    12.2823 0.0000e+00
      6.307      0.030     0.0685      0.639     64.846  48.362451     0.6881      6.224   103.4623 2.4733e-01    12.9054      6.187      8.972    12.2832 0.0000e+00
      6.313      0.032     0.0684      0.639     64.848  48.362501     0.6924      6.225   103.4817 2.3491e-01    12.9251      6.191      8.979    12.2843 0.0000e+00
      6.319      0.032     0.0652      0.609     64.847  48.363368     0.6866      6.226   103.6854 2.3031e-01    12.8846      6.195      8.985    12.2881 0.0000e+00
      6.329      0.031     0.0621      0.580     64.854  48.372929     0.6822      6.226   103.8611 2.3147e-01    12.8429      6.206      9.000    12.2903 0.0000e+00
      6.339      0.031     0.0621      0.580     64.820  48.350986     0.6847      6.226   103.9707 2.2132e-01    12.8166      6.218      9.019    12.2877 0.0000e+00
      6.348      0.032     0.0634      0.592     64.735  48.288749     0.6797      6.226   103.8064 2.1018e-01    12.8121      6.227      9.032    12.2847 0.0000e+00
      6.354      0.032     0.0631      0.589     64.694  48.256074     0.6677      6.226   103.5089 2.1393e-01    12.8189      6.231      9.038    12.2868 0.0000e+00
      6.360      0.031     0.0628      0.586     64.722  48.273734     0.6695      6.225   103.6433 2.2293e-01    12.8069      6.235      9.044    12.2918 0.0000e+00
      6.368      0.029     0.0638      0.596     64.769  48.311572     0.6826      6.225   103.9684 2.1969e-01    12.7897      6.244      9.056    12.2936 0.0000e+00
      6.378      0.027     0.0645      0.603     64.782  48.332191     0.6887      6.225   103.6545 2.1564e-01    12.7933      6.256      9.072    12.2946 0.0000e+00
      6.387      0.027     0.0644      0.602     64.763  48.332358     0.6789      6.226   102.8592 2.1212e-01    12.8207      6.266      9.088    12.2934 0.0000e+00
      6.391      0.026     0.0664      0.621     64.726  48.313607     0.6739      6.226   102.5265 1.9733e-01    12.8454      6.268      9.091    12.2885 0.0000e+00
      6.395      0.025     0.0693      0.647     64.701  48.296182     0.6830      6.226   102.8160 1.8579e-01    12.8475      6.270      9.093    12.2893 0.0000e+00
      6.402      0.023     0.0697      0.650     64.725  48.312357     0.6791      6.225   103.3479 1.8098e-01    12.8155      6.278      9.105    12.2994 0.0000e+00
      6.410      0.022     0.0688      0.643     64.735  48.318489     0.6637      6.225   103.4508 1.7008e-01    12.7951      6.286      9.117    12.3134 0.0000e+00
      6.417      0.022     0.0673      0.630     64.724  48.306759     0.6627      6.225   103.0280 1.6565e-01    12.8149      6.292      9.126    12.3223 0.0000e+00
      6.422      0.021     0.0666      0.624     64.718  48.297649     0.6748      6.225   102.8813 1.7359e-01    12.8405      6.298      9.134    12.3201 0.0000e+00
      6.426      0.018     0.0681      0.636     64.689  48.271904     0.6818      6.225   103.0536 1.8644e-01    12.8614      6.302      9.139    12.3173 0.0000e+00
      6.429      0.017     0.0686      0.640     64.663  48.249729     0.6831      6.225   103.2188 1.9584e-01    12.8529      6.304      9.144    12.3177 0.0000e+00
      6.433      0.017     0.0664      0.620     64.626  48.220217     0.6912      6.225   103.2436 1.9137e-01    12.8297      6.309      9.150    12.3150 0.0000e+00
      6.437      0.018     0.0650      0.607     64.557  48.169332     0.7061      6.224   103.0101 1.8334e-01    12.8248      6.314      9.157    12.3108 0.0000e+00
      6.441      0.020     0.0661      0.617     64.519  48.142987     0.7254      6.224   102.8903 1.7998e-01    12.8543      6.316      9.160    12.3073 0.0000e+00
      6.446      0.021     0.0661      0.617     64.531  48.155946     0.7406      6.225   102.9134 1.8136e-01    12.9127      6.320      9.167    12.3052 0.0000e+00
      6.454      0.022     0.0644      0.602     64.581  48.198898     0.7332      6.225   103.2037 1.8616e-01    12.9199      6.329      9.181    12.3043 0.0000e+00
      6.460      0.024     0.0636      0.595     64.597  48.217368     0.7095      6.225   103.9044 1.8562e-01    12.8494      6.336      9.189    12.3037 0.0000e+00
      6.465      0.027     0.0630      0.589     64.553  48.188585     0.6931      6.224   104.2443 1.7267e-01    12.7933      6.340      9.195    12.3061 0.0000e+00
      6.470      0.030     0.0620      0.580     64.533  48.168705     0.6920      6.223   104.0437 1.5279e-01    12.7913      6.346      9.204    12.3092 0.0000e+00
      6.476      0.032     0.0620      0.580     64.548  48.167693     0.6955      6.221   103.8027 1.4569e-01    12.7938      6.350      9.210    12.3135 0.0000e+00
      6.485      0.034     0.0631      0.591     64.573  48.176335     0.6890      6.221   104.2561 1.6108e-01    12.7937      6.359      9.221    12.3195 0.0000e+00
      6.499      0.037     0.0643      0.601     64.539  48.146053     0.6779      6.221   105.2232 1.8155e-01    12.7904      6.375      9.245    12.3245 0.0000e+00
      6.511      0.039     0.0650      0.608     64.424  48.055813     0.6711      6.221   105.5151 1.8180e-01    12.7836      6.387      9.264    12.3217 0.0000e+00
      6.519      0.040     0.0661      0.618     64.324  47.975124     0.6720      6.220   105.2899 1.6391e-01    12.8035      6.392      9.271    12.3076 0.0000e+00
      6.527      0.039     0.0675      0.631     64.279  47.933205     0.6881      6.219   105.3394 1.5853e-01    12.8780      6.399      9.281    12.2986 0.0000e+00
      6.538      0.038     0.0683      0.637     64.288  47.930343     0.7106      6.218   105.6835 1.6053e-01    12.9830      6.412      9.300    12.2968 0.0000e+00
      6.549      0.038     0.0687      0.641     64.312  47.940505     0.7234      6.219   106.0091 1.4974e-01    13.0350      6.424      9.317    12.2936 0.0000e+00
      6.559      0.039     0.0698      0.652     64.302  47.928936     0.7237      6.219   106.1789 1.4255e-01    13.0500      6.432      9.330    12.2893 0.0000e+00
      6.569      0.039     0.0707      0.660     64.290  47.917589     0.7326      6.219   106.1881 1.4379e-01    13.1026      6.442      9.344    12.2825 0.0000e+00
      6.578      0.038     0.0702      0.655     64.310  47.930435     0.7662      6.218   105.8620 1.5074e-01    13.1833      6.451      9.357    12.2746 0.0000e+00
      6.587      0.037     0.0687      0.641     64.348  47.957132     0.7901      6.218   105.4197 1.5031e-01    13.2313      6.459      9.368    12.2683 0.0000e+00
      6.597      0.037     0.0665      0.620     64.388  47.986121     0.7825      6.218   105.3997 1.3569e-01    13.2257      6.469      9.382    12.2652 0.0000e+00
      6.608      0.036     0.0650      0.606     64.443  48.026685     0.7472      6.218   105.6211 1.2884e-01    13.1152      6.480      9.399    12.2634 0.0000e+00
      6.618      0.036     0.0650      0.606     64.496  48.066208     0.7032      6.218   105.6869 1.3007e-01    12.9330      6.491      9.414    12.2618 0.0000e+00
      6.626      0.036     0.0651      0.608     64.518  48.082599     0.6826      6.217   105.5928 1.2910e-01    12.8540      6.498      9.424    12.2606 0.0000e+00
      6.633      0.037     0.0646      0.604     64.537  48.097749     0.6825      6.216   105.5166 1.2848e-01    12.8618      6.504      9.434    12.2598 0.0000e+00
      6.643      0.041     0.0631      0.589     64.568  48.122258     0.7108      6.211   105.6253 1.3142e-01    12.9354      6.514      9.448    12.2595 0.0000e+00
      6.651      0.045     0.0632      0.591     64.570  48.124677     0.7578      6.206   105.8749 1.3372e-01    13.1029      6.523      9.460    12.2602 0.0000e+00
      6.660      0.048     0.0640      0.598     64.572  48.127001     0.7822      6.202   106.0399 1.3000e-01    13.2085      6.528      9.468    12.2600 0.0000e+00
      6.677      0.050     0.0628      0.587     64.601  48.150354     0.7852      6.200   105.9849 1.2624e-01    13.2356      6.546      9.494    12.2606 0.0000e+00
      6.696      0.051     0.0623      0.582     64.602  48.152792     0.7667      6.199   105.8992 1.2570e-01    13.2174      6.570      9.530    12.2625 0.0000e+00
      6.709      0.051     0.0638      0.596     64.603  48.156476     0.7332      6.198   105.9502 1.2550e-01    13.1109      6.581      9.545    12.2627 0.0000e+00
      6.719      0.050     0.0653      0.610     64.648  48.194899     0.7205      6.198   106.1708 1.2551e-01    13.0163      6.586      9.553    12.2630 0.0000e+00
      6.730      0.047     0.0651      0.609     64.693  48.235990     0.7240      6.199   106.4157 1.2548e-01    12.9888      6.599      9.572    12.2642 0.0000e+00
      6.742      0.046     0.0653      0.610     64.736  48.271923     0.7199      6.199   106.4157 1.2547e-01    12.9922      6.613      9.591    12.2663 0.0000e+00
      6.753      0.047     0.0655      0.612     64.790  48.311540     0.7084      6.198   106.2568 1.2550e-01    13.1181      6.622      9.604    12.2665 0.0000e+00
      6.765      0.049     0.0634      0.592     64.827  48.333615     0.6948      6.197   106.3006 1.2554e-01    13.3516      6.634      9.622    12.2717 0.0000e+00
      6.778      0.050     0.0614      0.573     64.859  48.348127     0.6838      6.196   106.5160 1.2554e-01    13.4653      6.647      9.642    12.2795 0.0000e+00
      6.791      0.049     0.0619      0.577     64.885  48.359858     0.6765      6.196   106.6243 1.2551e-01    13.4557      6.657      9.657    12.2814 0.0000e+00
      6.805      0.045     0.0627      0.585     64.876  48.348317     0.6615      6.195   106.6634 1.2551e-01    13.4482      6.674      9.680    12.2817 0.0000e+00
      6.820      0.039     0.0624      0.583     64.861  48.335710     0.6403      6.195   106.7305 1.2553e-01    13.4670      6.690      9.703    12.2770 0.0000e+00
      6.830      0.032     0.0632      0.590     64.859  48.334565     0.6313      6.195   106.8327 1.2556e-01    13.4999      6.699      9.716    12.2681 0.0000e+00
      6.837      0.024     0.0640      0.597     64.857  48.334460     0.6262      6.195   106.7807 1.2552e-01    13.5096      6.705      9.725    12.2620 0.0000e+00
      6.840      0.015     0.0638      0.595     64.854  48.334451     0.6160      6.195   106.6192 1.2550e-01    13.4930      6.707      9.728    12.2590 0.0000e+00
      6.840      0.009     0.0660      0.616     64.853  48.334460     0.6093      6.196   106.6005 1.2550e-01    13.4829      6.707      9.728    12.2579 0.0000e+00
      6.841      0.007     0.0679      0.634     64.853  48.334575     0.6090      6.196   106.6407 1.2544e-01    13.4787      6.709      9.730    12.2577 0.0000e+00
      6.842      0.011     0.0667      0.622     64.854  48.335836     0.6121      6.196   106.8472 1.2538e-01    13.4725      6.710      9.732    12.2586 0.0000e+00
      6.842      0.020     0.0647      0.604     64.872  48.349705     0.6285      6.195   107.0312 1.2562e-01    13.4687      6.710      9.732    12.2609 0.0000e+00
      6.844      0.031     0.0640      0.597     64.908  48.375132     0.6604      6.192   106.8870 1.2589e-01    13.4634      6.710      9.732    12.2623 0.0000e+00
      6.850      0.042     0.0636      0.594     64.931  48.389012     0.6767      6.191   106.8246 1.2575e-01    13.4699      6.713      9.736    12.2618 0.0000e+00
      6.866      0.052     0.0621      0.580     64.936  48.390388     0.6774      6.191   106.9652 1.2559e-01    13.4865      6.730      9.762    12.2622 0.0000e+00
      6.889      0.061     0.0606      0.566     64.939  48.391775     0.6688      6.189   107.0380 1.2559e-01    13.4800      6.757      9.802    12.2636 0.0000e+00
      6.909      0.067     0.0599      0.559     64.959  48.405778     0.6379      6.187   107.0169 1.2554e-01    13.4528      6.778      9.831    12.2624 0.0000e+00
      6.923      0.068     0.0601      0.561     64.996  48.432569     0.6078      6.186   106.8820 1.2550e-01    13.4625      6.789      9.847    12.2589 0.0000e+00
      6.938      0.066     0.0605      0.565     65.035  48.461443     0.5987      6.186   106.6118 1.2555e-01    13.4755      6.802      9.865    12.2568 0.0000e+00
      6.955      0.061     0.0619      0.578     65.089  48.500634     0.6008      6.187   106.4163 1.2551e-01    13.4573      6.821      9.892    12.2559 0.0000e+00
      6.974      0.057     0.0636      0.594     65.122  48.525029     0.6233      6.189   106.6703 1.2542e-01    13.5164      6.840      9.920    12.2556 0.0000e+00
      6.989      0.052     0.0636      0.594     65.092  48.502135     0.6697      6.189   107.1872 1.2547e-01    13.6416      6.856      9.942    12.2553 0.0000e+00
      7.001      0.048     0.0638      0.595     65.060  48.478087     0.6932      6.187   107.3317 1.2557e-01    13.6888      6.867      9.960    12.2550 0.0000e+00
      7.011      0.045     0.0644      0.601     65.074  48.488517     0.6863      6.186   107.0410 1.2560e-01    13.6601      6.877      9.974    12.2544 0.0000e+00
      7.019      0.043     0.0640      0.598     65.089  48.501127     0.6876      6.186   106.6836 1.2559e-01    13.6000      6.884      9.984    12.2538 0.0000e+00
      7.027      0.042     0.0637      0.595     65.090  48.503421     0.6905      6.186   106.9679 1.2554e-01    13.5111      6.889      9.991    12.2535 0.0000e+00
      7.039      0.039     0.0641      0.598     65.105  48.516260     0.6836      6.186   107.8971 1.2551e-01    13.4707      6.901     10.010    12.2532 0.0000e+00
      7.054      0.036     0.0635      0.593     65.120  48.529240     0.6777      6.186   108.2829 1.2556e-01    13.4777      6.920     10.036    12.2538 0.0000e+00
      7.066      0.032     0.0631      0.589     65.121  48.533224     0.6558      6.187   108.0184 1.2558e-01    13.4733      6.932     10.053    12.2550 0.0000e+00
      7.072      0.028     0.0642      0.599     65.156  48.564438     0.6218      6.187   108.0551 1.2554e-01    13.4792      6.936     10.060    12.2561 0.0000e+00
      7.074      0.027     0.0643      0.600     65.267  48.652387     0.6065      6.188   108.4684 1.2552e-01    13.4874      6.937     10.062    12.2567 0.0000e+00
      7.076      0.028     0.0631      0.589     65.422  48.770268     0.6094      6.188   108.7134 1.2551e-01    13.4816      6.939     10.064    12.2579 0.0000e+00
      7.081      0.033     0.0623      0.581     65.527  48.845551     0.6288      6.188   108.6939 1.2550e-01    13.4701      6.943     10.070    12.2609 0.0000e+00
      7.090      0.038     0.0628      0.586     65.557  48.863396     0.6575      6.188   108.5772 1.2548e-01    13.4701      6.951     10.082    12.2646 0.0000e+00
      7.105      0.042     0.0643      0.600     65.556  48.858892     0.6712      6.188   108.5067 1.2543e-01    13.4823      6.967     10.106    12.2696 0.0000e+00
      7.121      0.044     0.0652      0.609     65.551  48.854654     0.6754      6.188   108.6166 1.2543e-01    13.4953      6.985     10.131    12.2722 0.0000e+00
      7.134      0.044     0.0648      0.604     65.579  48.875723     0.6709      6.188   108.7871 1.2545e-01    13.5655      6.997     10.148    12.2689 0.0000e+00
      7.144      0.043     0.0636      0.594     65.644  48.922939     0.6445      6.188   108.8475 1.2551e-01    13.6596      7.007     10.162    12.2640 0.0000e+00
      7.151      0.042     0.0624      0.584     65.726  48.980576     0.6228      6.188   108.5728 1.2554e-01    13.6875      7.012     10.170    12.2614 0.0000e+00
      7.159      0.041     0.0620      0.580     65.757  49.000497     0.6193      6.188   108.1323 1.2549e-01    13.6893      7.018     10.179    12.2612 0.0000e+00
      7.170      0.039     0.0621      0.580     65.722  48.973105     0.6398      6.188   108.0811 1.2549e-01    13.6807      7.031     10.197    12.2620 0.0000e+00
      7.185      0.039     0.0620      0.579     65.713  48.967212     0.6866      6.188   108.3847 1.2551e-01    13.6755      7.046     10.220    12.2613 0.0000e+00
      7.197      0.039     0.0620      0.578     65.746  48.992811     0.7168      6.188   108.6197 1.2551e-01    13.6872      7.061     10.240    12.2585 0.0000e+00
      7.204      0.038     0.0632      0.590     65.795  49.028360     0.7195      6.188   108.1690 1.2548e-01    13.6704      7.066     10.247    12.2558 0.0000e+00
      7.210      0.035     0.0649      0.606     65.865  49.079200     0.7194      6.188   107.3235 1.2546e-01    13.6555      7.068     10.250    12.2546 0.0000e+00
      7.219      0.033     0.0664      0.620     65.978  49.162545     0.7059      6.188   107.1724 1.2549e-01    13.6592      7.079     10.267    12.2557 0.0000e+00
      7.229      0.033     0.0669      0.625     66.128  49.273274     0.6766      6.189   107.5470 1.2554e-01    13.6532      7.091     10.284    12.2569 0.0000e+00
      7.238      0.033     0.0651      0.607     66.215  49.337368     0.6679      6.189   107.7227 1.2560e-01    13.6452      7.098     10.295    12.2558 0.0000e+00
      7.246      0.032     0.0644      0.601     66.255  49.365394     0.6745      6.190   107.5766 1.2562e-01    13.6529      7.105     10.305    12.2543 0.0000e+00
      7.254      0.031     0.0649      0.606     66.332  49.421425     0.6549      6.190   107.2428 1.2557e-01    13.6552      7.114     10.318    12.2536 0.0000e+00
      7.263      0.029     0.0632      0.591     66.362  49.442728     0.6239      6.190   106.9560 1.2550e-01    13.6430      7.124     10.332    12.2530 0.0000e+00
      7.269      0.029     0.0615      0.574     66.348  49.432268     0.6223      6.190   106.8628 1.2549e-01    13.6575      7.128     10.339    12.2520 0.0000e+00
      7.275      0.028     0.0615      0.574     66.418  49.485649     0.6347      6.190   107.1480 1.2554e-01    13.6785      7.132     10.344    12.2508 0.0000e+00
      7.283      0.027     0.0617      0.576     66.628  49.643177     0.6447      6.190   107.5648 1.2554e-01    13.6214      7.142     10.358    12.2497 0.0000e+00
      7.292      0.028     0.0621      0.580     67.023  49.938425     0.6607      6.191   107.5143 1.2553e-01    13.5170      7.152     10.372    12.2492 0.0000e+00
      7.297      0.030     0.0632      0.590     67.452  50.258432     0.6731      6.191   107.2256 1.2549e-01    13.4848      7.157     10.381    12.2491 0.0000e+00
      7.302      0.032     0.0637      0.594     67.724  50.461006     0.6751      6.192   107.1716 1.2542e-01    13.5066      7.160     10.384    12.2500 0.0000e+00
      7.310      0.036     0.0623      0.582     67.921  50.607762     0.6752      6.192   107.7224 1.2540e-01    13.5056      7.166     10.394    12.2517 0.0000e+00
      7.321      0.042     0.0619      0.578     68.041  50.697845     0.6745      6.191   108.5502 1.2543e-01    13.4723      7.179     10.412    12.2525 0.0000e+00
      7.331      0.050     0.0629      0.587     67.990  50.660187     0.6667      6.188   108.6626 1.2547e-01    13.4398      7.190     10.428    12.2525 0.0000e+00
      7.342      0.057     0.0639      0.597     67.820  50.533874     0.6632      6.185   108.3074 1.2551e-01    13.4488      7.198     10.440    12.2520 0.0000e+00
      7.358      0.060     0.0629      0.587     67.611  50.378467     0.6773      6.183   108.5565 1.2551e-01    13.5201      7.214     10.462    12.2522 0.0000e+00
      7.380      0.062     0.0601      0.560     67.431  50.243307     0.7089      6.181   109.2660 1.2551e-01    13.6298      7.238     10.498    12.2527 0.0000e+00
      7.399      0.062     0.0596      0.556     67.339  50.171062     0.7331      6.179   109.5727 1.2554e-01    13.6770      7.260     10.529    12.2531 0.0000e+00
      7.413      0.060     0.0621      0.580     67.304  50.140672     0.7312      6.179   109.5978 1.2554e-01    13.6637      7.269     10.544    12.2530 0.0000e+00
      7.426      0.056     0.0638      0.595     67.295  50.130135     0.7224      6.178   109.7417 1.2554e-01    13.6523      7.280     10.560    12.2528 0.0000e+00
      7.441      0.051     0.0630      0.588     67.353  50.170795     0.7094      6.177   110.0213 1.2555e-01    13.6004      7.298     10.585    12.2526 0.0000e+00
      7.453      0.049     0.0623      0.582     67.464  50.250860     0.6844      6.178   110.3116 1.2555e-01    13.5236      7.311     10.604    12.2503 0.0000e+00
      7.463      0.049     0.0636      0.593     67.581  50.335347     0.6689      6.178   110.3261 1.2562e-01    13.4560      7.318     10.613    12.2462 0.0000e+00
      7.474      0.050     0.0655      0.611     67.710  50.429477     0.6694      6.178   109.8518 1.2564e-01    13.3934      7.329     10.630    12.2432 0.0000e+00
      7.487      0.051     0.0674      0.629     67.805  50.498980     0.6809      6.178   109.1375 1.2561e-01    13.2861      7.344     10.651    12.2414 0.0000e+00
      7.500      0.053     0.0679      0.633     67.861  50.539986     0.7065      6.179   108.7449 1.2563e-01    13.1348      7.355     10.667    12.2394 0.0000e+00
      7.514      0.056     0.0661      0.617     67.951  50.607426     0.7308      6.179   108.8041 1.2565e-01    13.0597      7.368     10.686    12.2377 0.0000e+00
      7.530      0.059     0.0644      0.600     68.046  50.678672     0.7349      6.179   108.9934 1.2563e-01    13.0489      7.386     10.712    12.2366 0.0000e+00
      7.545      0.060     0.0631      0.589     68.079  50.702136     0.7296      6.179   108.9686 1.2555e-01    13.0039      7.399     10.732    12.2354 0.0000e+00
      7.560      0.059     0.0615      0.574     68.078  50.700411     0.7308      6.180   108.7631 1.2546e-01    12.9135      7.411     10.750    12.2351 0.0000e+00
      7.578      0.056     0.0615      0.574     68.107  50.721379     0.7218      6.181   108.7455 1.2546e-01    12.8402      7.432     10.778    12.2357 0.0000e+00
      7.595      0.051     0.0621      0.579     68.165  50.764952     0.7128      6.181   108.9282 1.2552e-01    12.8194      7.452     10.808    12.2356 0.0000e+00
      7.608      0.044     0.0619      0.578     68.187  50.782245     0.7230      6.182   109.1644 1.2555e-01    12.8147      7.462     10.823    12.2348 0.0000e+00
      7.616      0.037     0.0628      0.586     68.214  50.803315     0.7253      6.184   109.2784 1.2556e-01    12.8141      7.468     10.832    12.2338 0.0000e+00
      7.624      0.032     0.0643      0.600     68.334  50.892563     0.7137      6.184   109.1887 1.2558e-01    12.8435      7.476     10.843    12.2335 0.0000e+00
      7.630      0.030     0.0648      0.604     68.439  50.971324     0.7112      6.185   109.1975 1.2558e-01    12.8646      7.484     10.856    12.2340 0.0000e+00
      7.633      0.031     0.0633      0.590     68.469  50.992735     0.7223      6.185   109.2131 1.2557e-01    12.7943      7.484     10.857    12.2342 0.0000e+00
      7.639      0.032     0.0623      0.582     68.512  51.024297     0.7284      6.185   109.1186 1.2551e-01    12.6649      7.487     10.859    12.2346 0.0000e+00
      7.651      0.034     0.0631      0.589     68.611  51.098649     0.7205      6.187   109.0880 1.2547e-01    12.6129      7.502     10.882    12.2353 0.0000e+00
      7.663      0.037     0.0638      0.596     68.736  51.192418     0.7094      6.187   109.1006 1.2549e-01    12.6227      7.517     10.903    12.2355 0.0000e+00
      7.672      0.041     0.0640      0.597     68.837  51.268025     0.7052      6.188   109.1855 1.2555e-01    12.6004      7.523     10.913    12.2348 0.0000e+00
      7.680      0.044     0.0637      0.594     68.899  51.313498     0.7061      6.188   109.4265 1.2560e-01    12.5870      7.529     10.921    12.2343 0.0000e+00
      7.690      0.047     0.0644      0.600     68.964  51.360788     0.7113      6.187   109.6913 1.2555e-01    12.6134      7.541     10.937    12.2347 0.0000e+00
      7.703      0.052     0.0653      0.609     69.011  51.394782     0.7219      6.185   109.8054 1.2550e-01    12.6449      7.556     10.957    12.2356 0.0000e+00
      7.716      0.056     0.0640      0.598     69.028  51.406649     0.7246      6.184   109.8606 1.2552e-01    12.6321      7.567     10.975    12.2357 0.0000e+00
      7.731      0.056     0.0609      0.569     69.074  51.440690     0.7166      6.184   109.8419 1.2554e-01    12.5204      7.580     10.993    12.2350 0.0000e+00
      7.751      0.053     0.0577      0.539     69.139  51.488503     0.7073      6.185   109.5799 1.2551e-01    12.3927      7.602     11.025    12.2344 0.0000e+00
      7.770      0.048     0.0572      0.534     69.208  51.539734     0.7040      6.185   109.2734 1.2547e-01    12.3701      7.624     11.056    12.2338 0.0000e+00
      7.781      0.042     0.0592      0.552     69.223  51.551524     0.7128      6.185   109.1473 1.2546e-01    12.3991      7.632     11.070    12.2329 0.0000e+00
      7.786      0.035     0.0604      0.563     69.158  51.503902     0.7133      6.185   109.1743 1.2546e-01    12.3774      7.637     11.076    12.2327 0.0000e+00
      7.791      0.028     0.0610      0.569     69.116  51.472535     0.6909      6.186   109.3412 1.2550e-01    12.2906      7.639     11.079    12.2328 0.0000e+00
      7.797      0.022     0.0616      0.574     69.137  51.490148     0.6729      6.187   109.0997 1.2552e-01    12.2048      7.645     11.089    12.2327 0.0000e+00
      7.806      0.019     0.0617      0.575     69.182  51.526131     0.6704      6.188   108.3198 1.2551e-01    12.1642      7.656     11.104    12.2333 0.0000e+00
      7.811      0.018     0.0615      0.573     69.180  51.526164     0.6785      6.189   107.8277 1.2552e-01    12.2265      7.661     11.111    12.2334 0.0000e+00
      7.813      0.016     0.0607      0.567     69.131  51.490543     0.6966      6.192   107.8817 1.2553e-01    12.3484      7.662     11.113    12.2331 0.0000e+00
      7.816      0.014     0.0602      0.562     69.112  51.476884     0.7150      6.194   108.1982 1.2551e-01    12.3858      7.665     11.117    12.2344 0.0000e+00
      7.820      0.014     0.0596      0.556     69.126  51.488166     0.7262      6.195   108.2991 1.2547e-01    12.3737      7.668     11.122    12.2367 0.0000e+00
      7.822      0.016     0.0585      0.546     69.224  51.563388     0.7316      6.195   108.0686 1.2544e-01    12.3237      7.671     11.125    12.2381 0.0000e+00
      7.824      0.021     0.0588      0.548     69.473  51.750638     0.7343      6.196   107.9071 1.2549e-01    12.2392      7.672     11.127    12.2388 0.0000e+00
      7.829      0.026     0.0610      0.568     69.771  51.972099     0.7316      6.196   108.1535 1.2554e-01    12.2069      7.676     11.133    12.2381 0.0000e+00
      7.837      0.031     0.0638      0.595     70.005  52.143069     0.7256      6.196   108.5524 1.2554e-01    12.2075      7.684     11.145    12.2385 0.0000e+00
      7.848      0.034     0.0653      0.609     70.125  52.228415     0.7180      6.197   108.5144 1.2554e-01    12.2473      7.696     11.162    12.2409 0.0000e+00
      7.859      0.035     0.0652      0.608     70.147  52.241095     0.7129      6.197   108.2097 1.2553e-01    12.3521      7.707     11.178    12.2426 0.0000e+00
      7.870      0.035     0.0656      0.612     70.223  52.296375     0.7185      6.198   108.0518 1.2546e-01    12.4361      7.719     11.195    12.2424 0.0000e+00
      7.879      0.035     0.0658      0.613     70.433  52.451756     0.7217      6.198   108.5849 1.2537e-01    12.4391      7.728     11.209    12.2400 0.0000e+00
      7.885      0.040     0.0650      0.606     70.626  52.593943     0.7144      6.197   109.5790 1.2541e-01    12.3885      7.732     11.216    12.2361 0.0000e+00
      7.890      0.049     0.0634      0.592     70.745  52.680423     0.7134      6.195   109.9190 1.2552e-01    12.4044      7.735     11.219    12.2332 0.0000e+00
      7.898      0.059     0.0621      0.580     70.820  52.734435     0.7193      6.191   109.6836 1.2552e-01    12.5403      7.743     11.229    12.2325 0.0000e+00
      7.916      0.066     0.0624      0.583     70.826  52.738367     0.7118      6.189   109.6583 1.2550e-01    12.6274      7.759     11.253    12.2326 0.0000e+00
      7.942      0.070     0.0626      0.584     70.812  52.727964     0.7051      6.189   110.0436 1.2552e-01    12.6039      7.787     11.294    12.2314 0.0000e+00
      7.970      0.070     0.0616      0.574     70.821  52.735814     0.7206      6.188   110.3844 1.2547e-01    12.4997      7.820     11.342    12.2296 0.0000e+00
      7.991      0.065     0.0609      0.568     70.948  52.833278     0.7338      6.188   110.3364 1.2543e-01    12.3127      7.842     11.373    12.2285 0.0000e+00
      8.002      0.060     0.0617      0.576     71.274  53.079869     0.7274      6.188   109.9802 1.2549e-01    12.1749      7.849     11.384    12.2276 0.0000e+00
      8.008      0.056     0.0626      0.584     71.657  53.364915     0.7172      6.188   109.7767 1.2557e-01    12.1454      7.853     11.390    12.2270 0.0000e+00
      8.016      0.057     0.0620      0.579     71.991  53.609404     0.7112      6.187   110.0270 1.2557e-01    12.1087      7.859     11.399    12.2279 0.0000e+00
      8.030      0.065     0.0610      0.569     72.267  53.810635     0.7101      6.186   110.3392 1.2553e-01    12.0362      7.873     11.418    12.2309 0.0000e+00
      8.050      0.077     0.0605      0.565     72.463  53.954120     0.7131      6.185   110.5403 1.2554e-01    12.0017      7.893     11.449    12.2345 0.0000e+00
      8.072      0.088     0.0598      0.559     72.795  54.199805     0.7105      6.183   110.3073 1.2554e-01    11.9660      7.913     11.478    12.2344 0.0000e+00
      8.098      0.095     0.0591      0.552     73.275  54.555788     0.7065      6.183   109.5871 1.2552e-01    11.7873      7.941     11.517    12.2307 0.0000e+00
      8.127      0.095     0.0597      0.557     73.553  54.761190     0.7110      6.183   109.4033 1.2550e-01    11.5195      7.972     11.562    12.2275 0.0000e+00
      8.154      0.091     0.0597      0.556     73.660  54.839378     0.7189      6.183   109.6344 1.2548e-01    11.3830      7.997     11.599    12.2253 0.0000e+00
      8.179      0.085     0.0595      0.555     73.783  54.928886     0.7277      6.184   109.1121 1.2546e-01    11.3577      8.023     11.635    12.2245 0.0000e+00
      8.199      0.079     0.0612      0.571     73.903  55.016817     0.7438      6.185   108.1643 1.2540e-01    11.2447      8.043     11.666    12.2241 0.0000e+00
      8.214      0.074     0.0624      0.582     73.984  55.075937     0.7661      6.186   107.8110 1.2541e-01    11.0543      8.056     11.683    12.2230 0.0000e+00
      8.228      0.069     0.0626      0.584     74.150  55.198603     0.7857      6.187   107.9379 1.2549e-01    10.9776      8.067     11.699    12.2214 0.0000e+00
      8.247      0.066     0.0628      0.586     74.532  55.482575     0.7972      6.188   107.8063 1.2554e-01    10.9591      8.086     11.727    12.2202 0.0000e+00
      8.267      0.064     0.0628      0.586     74.926  55.775192     0.8147      6.189   107.2511 1.2555e-01    10.7994      8.110     11.762    12.2194 0.0000e+00
      8.283      0.062     0.0622      0.581     75.232  56.002370     0.8402      6.190   106.8179 1.2551e-01    10.6035      8.125     11.784    12.2186 0.0000e+00
      8.297      0.058     0.0607      0.566     75.661  56.321729     0.8478      6.192   106.7844 1.2549e-01    10.5133      8.135     11.799    12.2181 0.0000e+00
      8.311      0.053     0.0592      0.552     76.099  56.647830     0.8427      6.194   106.9325 1.2549e-01    10.4709      8.151     11.823    12.2175 0.0000e+00
      8.326      0.048     0.0593      0.553     76.430  56.892930     0.8427      6.196   106.9742 1.2544e-01    10.4574      8.166     11.843    12.2172 0.0000e+00
      8.338      0.043     0.0599      0.559     76.825  57.186701     0.8294      6.198   106.7721 1.2543e-01    10.4719      8.175     11.857    12.2170 0.0000e+00
      8.348      0.038     0.0603      0.562     76.944  57.274575     0.8013      6.200   106.5539 1.2549e-01    10.4940      8.188     11.875    12.2169 0.0000e+00
      8.357      0.033     0.0618      0.577     76.833  57.192295     0.7883      6.201   106.6586 1.2555e-01    10.5108      8.196     11.888    12.2168 0.0000e+00
      8.364      0.028     0.0633      0.590     77.452  57.654483     0.7910      6.203   106.8336 1.2555e-01    10.5228      8.201     11.895    12.2162 0.0000e+00
      8.369      0.028     0.0632      0.589     78.894  58.729225     0.7976      6.205   106.6048 1.2549e-01    10.5769      8.209     11.906    12.2156 0.0000e+00
      8.374      0.030     0.0633      0.591     80.276  59.757217     0.8040      6.205   106.2148 1.2546e-01    10.6770      8.213     11.912    12.2154 0.0000e+00
      8.378      0.033     0.0629      0.587     81.166  60.416960     0.8045      6.206   106.0764 1.2549e-01    10.7570      8.213     11.912    12.2158 0.0000e+00
      8.386      0.035     0.0618      0.576     81.587  60.727637     0.8030      6.207   106.0508 1.2549e-01    10.7820      8.221     11.925    12.2167 0.0000e+00
      8.400      0.037     0.0622      0.580     81.743  60.842286     0.8137      6.208   105.8182 1.2549e-01    10.7651      8.238     11.949    12.2180 0.0000e+00
      8.414      0.040     0.0617      0.575     82.009  61.039919     0.8418      6.211   105.5017 1.2555e-01    10.7360      8.254     11.971    12.2175 0.0000e+00
      8.424      0.042     0.0590      0.550     82.236  61.209084     0.8582      6.212   105.2349 1.2555e-01    10.7342      8.263     11.984    12.2151 0.0000e+00
      8.431      0.043     0.0579      0.539     82.186  61.170328     0.8557      6.213   105.0024 1.2548e-01    10.7434      8.268     11.991    12.2129 0.0000e+00
      8.439      0.044     0.0590      0.549     82.153  61.143768     0.8572      6.213   104.8409 1.2545e-01    10.6959      8.275     12.002    12.2121 0.0000e+00
      8.451      0.047     0.0595      0.554     82.323  61.269567     0.8581      6.213   104.5727 1.2547e-01    10.5867      8.288     12.019    12.2126 0.0000e+00
      8.465      0.049     0.0595      0.555     82.524  61.419257     0.8579      6.214   104.3413 1.2552e-01    10.4912      8.302     12.041    12.2126 0.0000e+00
      8.480      0.050     0.0598      0.558     82.706  61.554340     0.8543      6.216   104.2803 1.2557e-01    10.4565      8.317     12.064    12.2115 0.0000e+00
      8.495      0.048     0.0602      0.561     82.979  61.757942     0.8324      6.218   104.0929 1.2557e-01    10.4728      8.331     12.083    12.2104 0.0000e+00
      8.509      0.045     0.0611      0.570     83.354  62.036412     0.8054      6.220   103.7967 1.2555e-01    10.5043      8.345     12.104    12.2099 0.0000e+00
      8.519      0.040     0.0610      0.568     83.639  62.249789     0.7936      6.221   103.7101 1.2548e-01    10.5323      8.356     12.119    12.2099 0.0000e+00
      8.527      0.035     0.0602      0.561     83.622  62.238820     0.7913      6.222   103.8199 1.2548e-01    10.5368      8.362     12.128    12.2097 0.0000e+00
      8.534      0.031     0.0602      0.562     83.509  62.158223     0.7863      6.224   103.5757 1.2558e-01    10.4987      8.368     12.137    12.2097 0.0000e+00
      8.542      0.028     0.0603      0.563     83.430  62.102211     0.7798      6.226   102.9940 1.2558e-01    10.3757      8.377     12.149    12.2099 0.0000e+00
      8.549      0.027     0.0594      0.554     83.300  62.006831     0.7770      6.228   103.0678 1.2552e-01    10.1797      8.384     12.161    12.2101 0.0000e+00
      8.556      0.027     0.0576      0.537     83.489  62.149930     0.7794      6.230   103.7788 1.2554e-01    10.0812      8.390     12.169    12.2109 0.0000e+00
      8.562      0.031     0.0586      0.547     84.120  62.623848     0.7905      6.231   103.9343 1.2556e-01    10.1008      8.397     12.179    12.2134 0.0000e+00
      8.567      0.036     0.0614      0.573     84.578  62.966278     0.8095      6.231   103.4847 1.2551e-01    10.0504      8.401     12.186    12.2156 0.0000e+00
      8.574      0.040     0.0619      0.578     84.603  62.982548     0.8257      6.231   103.3337 1.2547e-01     9.8998      8.406     12.192    12.2159 0.0000e+00
      8.587      0.044     0.0609      0.568     84.734  63.075013     0.8395      6.232   103.5709 1.2548e-01     9.8049      8.418     12.209    12.2168 0.0000e+00
      8.605      0.048     0.0592      0.552     85.240  63.448143     0.8485      6.232   103.7718 1.2549e-01     9.8188      8.440     12.240    12.2202 0.0000e+00
      8.620      0.053     0.0591      0.552     85.895  63.931781     0.8517      6.232   103.6110 1.2549e-01     9.9154      8.456     12.264    12.2224 0.0000e+00
      8.629      0.058     0.0613      0.572     86.621  64.469760     0.8593      6.230   103.3478 1.2550e-01    10.0574      8.463     12.274    12.2194 0.0000e+00
      8.639      0.062     0.0614      0.573     87.238  64.927250     0.8668      6.228   103.5145 1.2551e-01    10.1320      8.470     12.285    12.2162 0.0000e+00
      8.654      0.066     0.0594      0.554     87.693  65.264637     0.8687      6.227   103.6474 1.2550e-01    10.1146      8.484     12.304    12.2145 0.0000e+00
      8.676      0.069     0.0591      0.552     88.174  65.622691     0.8732      6.228   102.9757 1.2549e-01    10.0311      8.508     12.338    12.2122 0.0000e+00
      8.700      0.069     0.0604      0.564     88.440  65.821066     0.8939      6.229   101.9324 1.2549e-01     9.9152      8.535     12.379    12.2101 0.0000e+00
      8.720      0.066     0.0616      0.575     88.520  65.881852     0.9164      6.231   101.7884 1.2545e-01     9.8722      8.553     12.405    12.2092 0.0000e+00
      8.735      0.060     0.0617      0.576     88.902  66.166785     0.9156      6.233   102.1814 1.2545e-01     9.8786      8.566     12.424    12.2091 0.0000e+00
      8.750      0.053     0.0603      0.562     89.561  66.657733     0.9035      6.236   101.5210 1.2555e-01     9.8400      8.583     12.448    12.2090 0.0000e+00
      8.760      0.047     0.0594      0.553     90.167  67.109900     0.8985      6.240   100.0840 1.2556e-01     9.8023      8.593     12.461    12.2093 0.0000e+00
      8.768      0.043     0.0609      0.568     90.601  67.434820     0.9006      6.244    99.3473 1.2548e-01     9.8195      8.596     12.467    12.2100 0.0000e+00
      8.778      0.041     0.0620      0.579     90.986  67.723244     0.9109      6.248    99.0668 1.2549e-01     9.8646      8.607     12.483    12.2101 0.0000e+00
      8.791      0.040     0.0607      0.566     91.511  68.115840     0.9215      6.252    98.3269 1.2554e-01     9.9501      8.622     12.505    12.2104 0.0000e+00
      8.803      0.040     0.0604      0.563     92.014  68.491341     0.9190      6.255    97.5434 1.2549e-01    10.0603      8.634     12.522    12.2111 0.0000e+00
      8.811      0.041     0.0615      0.574     92.122  68.573040     0.9076      6.258    97.1639 1.2545e-01    10.0992      8.640     12.532    12.2120 0.0000e+00
      8.819      0.041     0.0617      0.575     91.809  68.340125     0.9039      6.261    97.1812 1.2547e-01    10.0843      8.646     12.540    12.2135 0.0000e+00
      8.830      0.041     0.0614      0.573     91.310  67.965771     0.9100      6.263    97.3218 1.2551e-01    10.0326      8.657     12.556    12.2145 0.0000e+00
      8.843      0.044     0.0611      0.570     90.841  67.609852     0.9363      6.266    97.0576 1.2555e-01     9.9318      8.673     12.579    12.2150 0.0000e+00
      8.855      0.050     0.0606      0.565     90.587  67.408887     0.9733      6.269    96.9115 1.2552e-01     9.8730      8.685     12.597    12.2161 0.0000e+00
      8.864      0.055     0.0596      0.556     90.571  67.381031     0.9798      6.272    97.1903 1.2552e-01     9.8702      8.692     12.607    12.2161 0.0000e+00
      8.876      0.060     0.0586      0.547     90.702  67.463895     0.9701      6.273    97.0735 1.2553e-01     9.8371      8.702     12.619    12.2147 0.0000e+00
      8.894      0.064     0.0581      0.542     91.393  67.965406     0.9846      6.275    96.5319 1.2551e-01     9.4125      8.720     12.647    12.2120 0.0000e+00
      8.915      0.068     0.0579      0.539     92.786  68.990851     1.0167      6.276    96.4054 1.2553e-01     8.6418      8.743     12.681    12.2043 0.0000e+00
      8.935      0.070     0.0578      0.538     93.983  69.872851     1.0368      6.278    96.9204 1.2557e-01     8.2397      8.763     12.709    12.1941 0.0000e+00
      8.953      0.070     0.0583      0.542     94.555  70.294101     1.0531      6.279    96.9952 1.2554e-01     8.2137      8.780     12.734    12.1862 0.0000e+00
      8.970      0.067     0.0599      0.557     94.776  70.457109     1.1130      6.281    96.6213 1.2549e-01     8.1141      8.797     12.759    12.1800 0.0000e+00
      8.986      0.065     0.0619      0.576     94.759  70.443832     1.2004      6.284    96.6148 1.2550e-01     7.9205      8.813     12.782    12.1739 0.0000e+00
      9.001      0.066     0.0634      0.591     94.598  70.324467     1.2373      6.287    96.4871 1.2550e-01     7.7944      8.828     12.803    12.1695 0.0000e+00
      9.016      0.066     0.0633      0.590     94.460  70.222909     1.2366      6.289    96.0239 1.2547e-01     7.7489      8.841     12.824    12.1679 0.0000e+00
      9.033      0.065     0.0621      0.578     94.388  70.170410     1.2841      6.290    95.4882 1.2545e-01     7.5544      8.855     12.843    12.1674 0.0000e+00
      9.053      0.061     0.0617      0.575     94.340  70.135150     1.3791      6.293    94.9146 1.2546e-01     7.1811      8.876     12.873    12.1672 0.0000e+00
      9.073      0.055     0.0616      0.574     94.310  70.114736     1.4392      6.296    94.3360 1.2548e-01     6.9600      8.901     12.910    12.1673 0.0000e+00
      9.088      0.049     0.0611      0.569     94.306  70.114496     1.4501      6.298    93.5694 1.2553e-01     6.9563      8.916     12.931    12.1678 0.0000e+00
      9.096      0.041     0.0607      0.565     94.327  70.132248     1.4558      6.300    92.7871 1.2553e-01     7.0139      8.921     12.938    12.1684 0.0000e+00
      9.102      0.032     0.0598      0.556     94.334  70.138477     1.4710      6.303    92.3623 1.2549e-01     7.1073      8.925     12.944    12.1688 0.0000e+00
      9.108      0.027     0.0584      0.544     94.316  70.126181     1.4873      6.306    92.0471 1.2549e-01     7.1702      8.932     12.954    12.1696 0.0000e+00
      9.114      0.026     0.0583      0.543     94.379  70.174471     1.4960      6.307    91.5562 1.2552e-01     7.1628      8.939     12.965    12.1714 0.0000e+00
      9.119      0.030     0.0583      0.544     94.515  70.276918     1.4942      6.308    90.9878 1.2550e-01     7.1100      8.943     12.970    12.1722 0.0000e+00
      9.125      0.035     0.0586      0.546     94.526  70.283098     1.4835      6.311    90.5090 1.2544e-01     7.0198      8.947     12.976    12.1727 0.0000e+00
      9.134      0.039     0.0604      0.563     94.399  70.185549     1.4767      6.313    90.1542 1.2548e-01     6.9573      8.956     12.990    12.1734 0.0000e+00
      9.147      0.042     0.0615      0.573     94.308  70.115593     1.4766      6.315    89.9673 1.2557e-01     6.9041      8.969     13.008    12.1741 0.0000e+00
      9.162      0.043     0.0600      0.560     94.336  70.137226     1.5008      6.317    89.8853 1.2560e-01     6.6198      8.987     13.034    12.1754 0.0000e+00
      9.175      0.045     0.0585      0.545     94.493  70.256209     1.5488      6.319    89.6792 1.2560e-01     6.1757      9.001     13.054    12.1741 0.0000e+00
      9.184      0.045     0.0588      0.547     94.784  70.472448     1.5703      6.321    89.2821 1.2557e-01     5.9588      9.006     13.063    12.1714 0.0000e+00
      9.192      0.045     0.0592      0.552     95.028  70.651837     1.5665      6.323    88.8696 1.2557e-01     5.8903      9.012     13.072    12.1705 0.0000e+00
      9.202      0.043     0.0592      0.552     95.019  70.643431     1.5680      6.325    88.6489 1.2565e-01     5.8050      9.023     13.087    12.1712 0.0000e+00
      9.217      0.041     0.0591      0.551     94.995  70.625342     1.5880      6.327    88.2487 1.2570e-01     5.6900      9.038     13.109    12.1728 0.0000e+00
      9.232      0.038     0.0580      0.540     95.079  70.687666     1.6160      6.329    87.5591 1.2563e-01     5.5382      9.055     13.134    12.1729 0.0000e+00
      9.242      0.033     0.0575      0.535     95.005  70.633363     1.6214      6.332    87.2795 1.2553e-01     5.4650      9.065     13.149    12.1714 0.0000e+00
      9.248      0.027     0.0589      0.549     94.881  70.541487     1.6169      6.334    87.2766 1.2553e-01     5.4455      9.068     13.152    12.1698 0.0000e+00
      9.253      0.022     0.0604      0.563     94.952  70.594945     1.6069      6.335    86.8358 1.2559e-01     5.4858      9.074     13.160    12.1699 0.0000e+00
      9.256      0.017     0.0622      0.580     95.103  70.707018     1.5837      6.336    86.0806 1.2561e-01     5.5868      9.078     13.167    12.1706 0.0000e+00
      9.258      0.015     0.0642      0.598     95.249  70.814768     1.5745      6.338    85.6303 1.2557e-01     5.6277      9.078     13.167    12.1703 0.0000e+00
      9.261      0.016     0.0647      0.603     95.424  70.943217     1.5789      6.339    85.3495 1.2552e-01     5.6446      9.081     13.172    12.1705 0.0000e+00
      9.265      0.019     0.0639      0.596     95.484  70.987375     1.5904      6.341    84.7495 1.2546e-01     5.7608      9.086     13.180    12.1716 0.0000e+00
      9.270      0.021     0.0627      0.585     95.456  70.966859     1.6221      6.344    84.1409 1.2543e-01     5.9347      9.089     13.183    12.1713 0.0000e+00
      9.276      0.024     0.0612      0.570     95.689  71.140607     1.6408      6.345    83.8414 1.2547e-01     6.0378      9.095     13.191    12.1702 0.0000e+00
      9.284      0.028     0.0587      0.548     96.254  71.560878     1.6323      6.346    83.7957 1.2549e-01     6.0613      9.105     13.206    12.1695 0.0000e+00
      9.291      0.032     0.0567      0.529     96.729  71.911920     1.6203      6.347    83.7604 1.2549e-01     5.9447      9.113     13.217    12.1694 0.0000e+00
      9.297      0.033     0.0551      0.514     96.783  71.948597     1.6148      6.349    83.3294 1.2550e-01     5.7571      9.116     13.222    12.1696 0.0000e+00
      9.306      0.031     0.0537      0.501     96.606  71.813426     1.6215      6.350    83.2303 1.2550e-01     5.6843      9.125     13.234    12.1700 0.0000e+00
      9.319      0.028     0.0548      0.510     96.426  71.677614     1.6282      6.351    83.7663 1.2552e-01     5.6448      9.140     13.257    12.1702 0.0000e+00
      9.329      0.023     0.0579      0.540     96.293  71.579269     1.5946      6.352    83.5288 1.2560e-01     5.5228      9.152     13.274    12.1694 0.0000e+00
      9.333      0.018     0.0604      0.563     96.289  71.578901     1.5280      6.354    82.5962 1.2563e-01     5.3391      9.154     13.276    12.1669 0.0000e+00
      9.333      0.013     0.0612      0.570     96.324  71.609539     1.4935      6.356    82.3847 1.2558e-01     5.2246      9.153     13.275    12.1646 0.0000e+00
      9.334      0.009     0.0614      0.571     96.687  71.886073     1.4903      6.357    82.8643 1.2558e-01     5.2371      9.154     13.276    12.1635 0.0000e+00
      9.335      0.011     0.0611      0.569     98.623  73.331481     1.4888      6.359    82.8884 1.2557e-01     5.1850      9.153     13.276    12.1639 0.0000e+00
      9.336      0.019     0.0602      0.561    102.008  75.847895     1.4941      6.359    82.6766 1.2548e-01     4.9915      9.156     13.279    12.1655 0.0000e+00
      9.339      0.031     0.0600      0.559    105.246  78.253210     1.4992      6.358    82.9701 1.2541e-01     4.8508      9.158     13.282    12.1678 0.0000e+00
      9.344      0.043     0.0602      0.561    107.688  80.071574     1.4951      6.358    83.0818 1.2541e-01     4.7960      9.161     13.286    12.1719 0.0000e+00
      9.359      0.053     0.0601      0.561    109.049  81.090781     1.4910      6.359    82.5652 1.2544e-01     4.7865      9.174     13.307    12.1758 0.0000e+00
      9.380      0.059     0.0601      0.561    109.466  81.408764     1.4948      6.359    82.0574 1.2549e-01     4.9795      9.198     13.341    12.1755 0.0000e+00
      9.403      0.061     0.0603      0.562    109.577  81.496932     1.4958      6.360    82.1044 1.2550e-01     5.2992      9.224     13.377    12.1721 0.0000e+00
      9.421      0.061     0.0600      0.559    110.633  82.284158     1.4839      6.361    81.6718 1.2549e-01     5.4479      9.241     13.403    12.1732 0.0000e+00
      9.433      0.060     0.0588      0.548    115.674  86.024268     1.4800      6.361    80.3533 1.2551e-01     5.4343      9.251     13.416    12.1783 0.0000e+00
      9.443      0.060     0.0574      0.534    124.538  92.582894     1.5032      6.358    79.7569 1.2554e-01     5.2563      9.259     13.430    12.1824 0.0000e+00
      9.453      0.060     0.0561      0.522    129.421  96.168820     1.5342      6.354    79.6243 1.2555e-01     4.9444      9.268     13.442    12.1843 0.0000e+00
      9.469      0.059     0.0571      0.532    128.811  95.683680     1.5523      6.352    78.8356 1.2558e-01     4.7760      9.282     13.462    12.1858 0.0000e+00
      9.492      0.059     0.0601      0.560    131.082  97.357788     1.5572      6.351    78.0510 1.2556e-01     4.7756      9.307     13.499    12.1863 0.0000e+00
      9.514      0.065     0.0612      0.570    139.489 103.603423     1.5648      6.346    77.1924 1.2546e-01     4.7562      9.336     13.539    12.1712 0.0000e+00
      9.526      0.082     0.0608      0.566    154.099 114.477118     1.5901      6.334    76.1111 1.2542e-01     4.6335      9.345     13.554    12.1470 0.0000e+00
      9.531      0.103     0.0591      0.551    171.552 127.509802     1.6147      6.322    75.5592 1.2545e-01     4.5436      9.346     13.555    12.1357 0.0000e+00
      9.544      0.119     0.0575      0.536    183.148 136.277034     1.6322      6.320    74.9947 1.2547e-01     4.5245      9.349     13.560    12.1317 0.0000e+00
      9.585      0.128     0.0575      0.537    186.696 139.117041     1.7472      6.326    73.8459 1.2547e-01     4.1878      9.385     13.613    12.1320 0.0000e+00
      9.650      0.128     0.0575      0.537    188.287 140.463104     1.9568      6.338    72.5103 1.2546e-01     3.5242      9.470     13.735    12.1370 0.0000e+00
      9.705      0.118     0.0578      0.540    200.172 149.423500     2.0710      6.352    71.7512 1.2545e-01     3.1241      9.531     13.823    12.1496 0.0000e+00
      9.729      0.097     0.0567      0.531    233.487 174.425132     2.0802      6.369    71.7231 1.2544e-01     3.0735      9.546     13.845    12.1921 0.0000e+00
      9.735      0.068     0.0531      0.498    275.585 206.273903     2.0678      6.384    70.8810 1.2547e-01     3.0958      9.547     13.848    12.2616 0.0000e+00
      9.738      0.041     0.0499      0.470    304.761 228.831002     2.0405      6.396    68.7961 1.2554e-01     3.0876      9.549     13.850    12.3061 0.0000e+00
      9.742      0.024     0.0489      0.461    315.886 237.905131     2.0268      6.409    67.4227 1.2554e-01     3.0658      9.553     13.856    12.3216 0.0000e+00
      9.747      0.019     0.0489      0.462    310.873 234.602354     2.0217      6.420    66.9228 1.2550e-01     3.1072      9.557     13.862    12.3267 0.0000e+00
      9.753      0.018     0.0495      0.468    290.309 219.308265     1.9417      6.429    65.4192 1.2550e-01     3.2827      9.564     13.871    12.3847 0.0000e+00
      9.759      0.018     0.0500      0.473    276.063 208.605460     1.8682      6.434    64.2132 1.2553e-01     3.4184      9.572     13.881    12.5394 0.0000e+00
      9.763 -9.990e-29 -9.990e-29 -9.990e-29 -9.990e-29 -9.990e-29 -9.990e-29 -9.990e-29 -9.990e-29 1.2553e-01 -9.990e-29      9.575     13.888    12.6705 0.0000e+00
      9.766 -9.990e-29 -9.990e-29 -9.990e-29 -9.990e-29 -9.990e-29 -9.990e-29 -9.990e-29 -9.990e-29 1.2556e-01 -9.990e-29      9.577     13.891    12.7442 0.0000e+00
      9.768 -9.990e-29 -9.990e-29 -9.990e-29 -9.990e-29 -9.990e-29 -9.990e-29 -9.990e-29 -9.990e-29 1.2562e-01 -9.990e-29      9.579     13.893    12.7811 0.0000e+00
      9.768 -9.990e-29 -9.990e-29 -9.990e-29 -9.990e-29 -9.990e-29 -9.990e-29 -9.990e-29 -9.990e-29 1.2565e-01 -9.990e-29      9.580     13.894    12.7820 0.0000e+00
