* Sea-Bird SBE19plus  Data File:
* FileName = C:\DATA\101518_fcr_0008.hex
* Software version 2.6.3.104
* Temperature SN = 7809
* Conductivity SN = 7809
* System UpLoad Time = Oct 29 2018 16:38:59
* <ApplicationData>
* <Seaterm232>
* <SoftwareVersion>2.6.3.104</SoftwareVersion>
* <BuildDate>30-Jun-2017</BuildDate>
* </Seaterm232>
* </ApplicationData>
* <InstrumentState>
* <HardwareData DeviceType='SBE19plus' SerialNumber='01907809'>
*
*    <Manufacturer>Sea-Bird Electronics, Inc.</Manufacturer>
*
*    <FirmwareVersion>3.1.8</FirmwareVersion>
*
*    <FirmwareDate>Mar  9 2016 16:22:29</FirmwareDate>
*
*    <CommandSetVersion>1.4</CommandSetVersion>
*
*    <PCBAssembly PCBSerialNum='120721' AssemblyNum='41054J'/>
*
*    <PCBAssembly PCBSerialNum='120715' AssemblyNum='41967A'/>
*
*    <PCBAssembly PCBSerialNum='116699' AssemblyNum='41606'/>
*
*    <PCBAssembly PCBSerialNum='120719' AssemblyNum='41059D'/>
*
*    <MfgDate>28-Apr-2017</MfgDate>
*
*    <InternalSensors>
*
*       <Sensor id='Main Temperature'>
*
*          <type>temperature0</type>
*
*          <SerialNumber>01907809</SerialNumber>
*
*       </Sensor>
*
*       <Sensor id='Main Conductivity'>
*
*          <type>conductivity-0</type>
*
*          <SerialNumber>01907809</SerialNumber>
*
*       </Sensor>
*
*       <Sensor id='Main Pressure'>
*
*          <type>strain-0</type>
*
*          <SerialNumber>10586018</SerialNumber>
*
*       </Sensor>
*
*    </InternalSensors>
*
*    <ExternalSensors>
*
*       <Sensor id='volt 0'>
*
*          <type>pH</type>
*
*          <SerialNumber>27-0363</SerialNumber>
*
*       </Sensor>
*
*       <Sensor id='volt 1'>
*
*          <type>ORP</type>
*
*          <SerialNumber>27-0363</SerialNumber>
*
*       </Sensor>
*
*       <Sensor id='volt 2'>
*
*          <type>OXY</type>
*
*          <SerialNumber>43-0434</SerialNumber>
*
*       </Sensor>
*
*       <Sensor id='volt 3'>
*
*          <type>PAR</type>
*
*          <SerialNumber>1122</SerialNumber>
*
*       </Sensor>
*
*       <Sensor id='volt 4'>
*
*          <type>ECO AFL/FL</type>
*
*          <SerialNumber>FLNTURT-2496</SerialNumber>
*
*       </Sensor>
*
*       <Sensor id='volt 5'>
*
*          <type>ECO-NTU</type>
*
*          <SerialNumber>FLNTURT-2496</SerialNumber>
*
*       </Sensor>
*
*       <Sensor id='serial'>
*
*          <type>not assigned</type>
*
*          <SerialNumber>not assigned</SerialNumber>
*
*       </Sensor>
*
*    </ExternalSensors>
*
* </HardwareData>
* <StatusData DeviceType='SBE19plus' SerialNumber='01907809'>
*
*    <DateTime>2018-10-29T20:36:07</DateTime>
*
*    <LoggingState>not logging</LoggingState>
*
*    <EventSummary numEvents='0'/>
*
*    <Power>
*
*       <vMain>12.7</vMain>
*
*       <vLith>8.4</vLith>
*
*       <iMain>63.3</iMain>
*
*       <iPump>138.1</iPump>
*
*       <iExt01>14.7</iExt01>
*
*       <iExt2345>45.2</iExt2345>
*
*    </Power>
*
*    <MemorySummary>
*
*       <Bytes>262706</Bytes>
*
*       <Samples>11422</Samples>
*
*       <SamplesFree>2849366</SamplesFree>
*
*       <SampleLength>23</SampleLength>
*
*       <Profiles>17</Profiles>
*
*    </MemorySummary>
*
* </StatusData>
* <ConfigurationData DeviceType='SBE19plus' SerialNumber='01907809'>
*
*    <ProfileMode>
*
*       <ScansToAverage>1</ScansToAverage>
*
*       <MinimumCondFreq>5</MinimumCondFreq>
*
*       <PumpDelay>45</PumpDelay>
*
*       <AutoRun>no</AutoRun>
*
*       <IgnoreSwitch>no</IgnoreSwitch>
*
*    </ProfileMode>
*
*    <Battery>
*
*       <Type>alkaline</Type>
*
*       <CutOff>7.5</CutOff>
*
*    </Battery>
*
*    <DataChannels>
*
*       <ExtVolt0>yes</ExtVolt0>
*
*       <ExtVolt1>yes</ExtVolt1>
*
*       <ExtVolt2>yes</ExtVolt2>
*
*       <ExtVolt3>yes</ExtVolt3>
*
*       <ExtVolt4>yes</ExtVolt4>
*
*       <ExtVolt5>yes</ExtVolt5>
*
*       <SBE38>no</SBE38>
*
*       <WETLABS>no</WETLABS>
*
*       <OPTODE>no</OPTODE>
*
*       <SBE63>no</SBE63>
*
*       <SeaFET>no</SeaFET>
*
*       <GTD>no</GTD>
*
*    </DataChannels>
*
*    <EchoCharacters>yes</EchoCharacters>
*
*    <OutputExecutedTag>yes</OutputExecutedTag>
*
*    <OutputFormat>raw HEX</OutputFormat>
*
* </ConfigurationData>
* <CalibrationCoefficients DeviceType='SBE19plus' SerialNumber='01907809'>
*
*    <Calibration format='TEMP1' id='Main Temperature'>
*
*       <SerialNum>01907809</SerialNum>
*
*       <CalDate>09-Mar-18</CalDate>
*
*       <TA0>1.210932e-03</TA0>
*
*       <TA1>2.843566e-04</TA1>
*
*       <TA2>-1.945074e-06</TA2>
*
*       <TA3>2.128067e-07</TA3>
*
*       <TOFFSET>0.000000e+00</TOFFSET>
*
*    </Calibration>
*
*    <Calibration format='WBCOND0' id='Main Conductivity'>
*
*       <SerialNum>01907809</SerialNum>
*
*       <CalDate>09-Mar-18</CalDate>
*
*       <G>-1.006721e+00</G>
*
*       <H>1.269065e-01</H>
*
*       <I>-1.405844e-04</I>
*
*       <J>2.478371e-05</J>
*
*       <CPCOR>-9.570000e-08</CPCOR>
*
*       <CTCOR>3.250000e-06</CTCOR>
*
*       <CSLOPE>1.000000e+00</CSLOPE>
*
*    </Calibration>
*
*    <Calibration format='STRAIN0' id='Main Pressure'>
*
*       <SerialNum>10586018</SerialNum>
*
*       <CalDate>07-Mar-18</CalDate>
*
*       <PA0>-4.081764e-02</PA0>
*
*       <PA1>4.851884e-04</PA1>
*
*       <PA2>-3.511682e-12</PA2>
*
*       <PTCA0>5.252134e+05</PTCA0>
*
*       <PTCA1>1.795324e+00</PTCA1>
*
*       <PTCA2>-2.843535e-01</PTCA2>
*
*       <PTCB0>2.516687e+01</PTCB0>
*
*       <PTCB1>3.750000e-04</PTCB1>
*
*       <PTCB2>0.000000e+00</PTCB2>
*
*       <PTEMPA0>-5.378069e+01</PTEMPA0>
*
*       <PTEMPA1>5.366207e+01</PTEMPA1>
*
*       <PTEMPA2>4.872143e-02</PTEMPA2>
*
*       <POFFSET>5.000000e-01</POFFSET>
*
*       <PRANGE>1.600000e+02</PRANGE>
*
*    </Calibration>
*
*    <Calibration format='VOLT0' id='Volt 0'>
*
*       <OFFSET>-4.920000e-02</OFFSET>
*
*       <SLOPE>1.248122e+00</SLOPE>
*
*    </Calibration>
*
*    <Calibration format='VOLT0' id='Volt 1'>
*
*       <OFFSET>-4.784000e-02</OFFSET>
*
*       <SLOPE>1.248871e+00</SLOPE>
*
*    </Calibration>
*
*    <Calibration format='VOLT0' id='Volt 2'>
*
*       <OFFSET>-4.864632e-02</OFFSET>
*
*       <SLOPE>1.248714e+00</SLOPE>
*
*    </Calibration>
*
*    <Calibration format='VOLT0' id='Volt 3'>
*
*       <OFFSET>-4.743790e-02</OFFSET>
*
*       <SLOPE>1.248571e+00</SLOPE>
*
*    </Calibration>
*
*    <Calibration format='VOLT0' id='Volt 4'>
*
*       <OFFSET>-4.671263e-02</OFFSET>
*
*       <SLOPE>1.248951e+00</SLOPE>
*
*    </Calibration>
*
*    <Calibration format='VOLT0' id='Volt 5'>
*
*       <OFFSET>-4.871053e-02</OFFSET>
*
*       <SLOPE>1.249136e+00</SLOPE>
*
*    </Calibration>
*
*    <Calibration format='FREQ0' id='external frequency channel'>
*
*       <EXTFREQSF>1.000014e+00</EXTFREQSF>
*
*    </Calibration>
*
* </CalibrationCoefficients>
* <EventCounters DeviceType='SBE19plus' SerialNumber='01907809'>
*
*    <EventSummary numEvents='0'/>
*
* </EventCounters></InstrumentState>
* <Headers>
*
* cast   8 22 Oct 2018 14:24:17 samples 5242 to 5758, avg = 1, stop = mag switch
*
# nquan = 17
# nvalues = 329                         
# units = specified
# name 0 = depFM: Depth [fresh water, m]
# name 1 = tv290C: Temperature [ITS-90, deg C]
# name 2 = sbeox0Mg/L: Oxygen, SBE 43 [mg/l]
# name 3 = sbeox0PS: Oxygen, SBE 43 [% saturation]
# name 4 = c0uS/cm: Conductivity [uS/cm]
# name 5 = specc: Specific Conductance [uS/cm]
# name 6 = ph: pH
# name 7 = orp: Oxidation Reduction Potential [mV]
# name 8 = flECO-AFL: Fluorescence, WET Labs ECO-AFL/FL [mg/m^3]
# name 9 = turbWETntu0: Turbidity, WET Labs ECO [NTU]
# name 10 = sal00: Salinity, Practical [PSU]
# name 11 = dz/dtM: Descent Rate [m/s]
# name 12 = prdM: Pressure, Strain Gauge [db]
# name 13 = prdE: Pressure, Strain Gauge [psi]
# name 14 = scan: Scan Count
# name 15 = par/sat/log: PAR/Logarithmic, Satlantic
# name 16 = flag:  0.000e+00
# span 0 =     -0.547,      2.641       
# span 1 =     8.5078,    13.6794       
# span 2 =     6.0760,    11.4652       
# span 3 =     57.249,    105.465       
# span 4 =   0.787978,  31.167832       
# span 5 =      1.545,     42.010       
# span 6 =     -3.051,      7.361       
# span 7 = -1240.7455,  1240.2295       
# span 8 =    -2.0582,     4.8928       
# span 9 =    -2.7622,     5.9123       
# span 10 =     0.0045,     0.0222      
# span 11 =     -0.158,      0.157      
# span 12 =     -0.536,      2.590      
# span 13 =     -0.778,      3.755      
# span 14 =          1,        329      
# span 15 = 1.4511e+01, 2.0031e+03      
# span 16 = 0.0000e+00, 0.0000e+00      
# interval = seconds: 0.25
# start_time = Oct 22 2018 14:24:17 [Instrument's time stamp, header]
# bad_flag = -9.990e-29
# <Sensors count="9" >
#   <sensor Channel="1" >
#     <!-- Count, Temperature -->
#     <TemperatureSensor SensorID="58" >
#       <SerialNumber>7809</SerialNumber>
#       <CalibrationDate>09-Mar-18</CalibrationDate>
#       <A0>1.21093245e-003</A0>
#       <A1>2.84356597e-004</A1>
#       <A2>-1.94507398e-006</A2>
#       <A3>2.12806664e-007</A3>
#       <Slope>1.00000000</Slope>
#       <Offset>0.0000</Offset>
#     </TemperatureSensor>
#   </sensor>
#   <sensor Channel="2" >
#     <!-- Frequency 0, Conductivity -->
#     <ConductivitySensor SensorID="3" >
#       <SerialNumber>7809</SerialNumber>
#       <CalibrationDate>09-Mar-18</CalibrationDate>
#       <UseG_J>1</UseG_J>
#       <!-- Cell const and series R are applicable only for wide range sensors. -->
#       <SeriesR>0.0000</SeriesR>
#       <CellConst>2000.0000</CellConst>
#       <ConductivityType>0</ConductivityType>
#       <Coefficients equation="0" >
#         <A>0.00000000e+000</A>
#         <B>0.00000000e+000</B>
#         <C>0.00000000e+000</C>
#         <D>0.00000000e+000</D>
#         <M>0.0</M>
#         <CPcor>-9.57000000e-008</CPcor>
#       </Coefficients>
#       <Coefficients equation="1" >
#         <G>-1.00672082e+000</G>
#         <H>1.26906489e-001</H>
#         <I>-1.40584351e-004</I>
#         <J>2.47837121e-005</J>
#         <CPcor>-9.57000000e-008</CPcor>
#         <CTcor>3.2500e-006</CTcor>
#         <!-- WBOTC not applicable unless ConductivityType = 1. -->
#         <WBOTC>0.00000000e+000</WBOTC>
#       </Coefficients>
#       <Slope>1.00000000</Slope>
#       <Offset>0.00000</Offset>
#     </ConductivitySensor>
#   </sensor>
#   <sensor Channel="3" >
#     <!-- Count, Pressure, Strain Gauge -->
#     <PressureSensor SensorID="46" >
#       <SerialNumber>7809</SerialNumber>
#       <CalibrationDate>07-Mar-18</CalibrationDate>
#       <PA0>-4.08176359e-002</PA0>
#       <PA1>4.85188419e-004</PA1>
#       <PA2>-3.51168169e-012</PA2>
#       <PTEMPA0>-5.37806900e+001</PTEMPA0>
#       <PTEMPA1>5.36620721e+001</PTEMPA1>
#       <PTEMPA2>4.87214332e-002</PTEMPA2>
#       <PTCA0>5.25213435e+005</PTCA0>
#       <PTCA1>1.79532409e+000</PTCA1>
#       <PTCA2>-2.84353509e-001</PTCA2>
#       <PTCB0>2.51668750e+001</PTCB0>
#       <PTCB1>3.75000000e-004</PTCB1>
#       <PTCB2>0.00000000e+000</PTCB2>
#       <Offset>0.000000</Offset>
#     </PressureSensor>
#   </sensor>
#   <sensor Channel="4" >
#     <!-- A/D voltage 0, pH -->
#     <pH_Sensor SensorID="43" >
#       <SerialNumber>0363</SerialNumber>
#       <CalibrationDate>16-Mar-18</CalibrationDate>
#       <Slope>4.6194</Slope>
#       <Offset>2.5947</Offset>
#     </pH_Sensor>
#   </sensor>
#   <sensor Channel="5" >
#     <!-- A/D voltage 1, Oxidation Reduction Potential -->
#     <OxidationReductionPotentialSensor SensorID="41" >
#       <SerialNumber>0363</SerialNumber>
#       <CalibrationDate>16-Mar-18</CalibrationDate>
#       <B>2.499480</B>
#       <M>-0.496195</M>
#       <Offset>0.0</Offset>
#     </OxidationReductionPotentialSensor>
#   </sensor>
#   <sensor Channel="6" >
#     <!-- A/D voltage 2, Oxygen, SBE 43 -->
#     <OxygenSensor SensorID="38" >
#       <SerialNumber>0434</SerialNumber>
#       <CalibrationDate>13-Mar-18</CalibrationDate>
#       <Use2007Equation>1</Use2007Equation>
#       <CalibrationCoefficients equation="0" >
#         <!-- Coefficients for Owens-Millard equation. -->
#         <Boc>0.0000</Boc>
#         <Soc>0.0000e+000</Soc>
#         <offset>0.0000</offset>
#         <Pcor>0.00e+000</Pcor>
#         <Tcor>0.0000</Tcor>
#         <Tau>0.0</Tau>
#       </CalibrationCoefficients>
#       <CalibrationCoefficients equation="1" >
#         <!-- Coefficients for Sea-Bird equation - SBE calibration in 2007 and later. -->
#         <Soc>4.5718e-001</Soc>
#         <offset>-0.6113</offset>
#         <A>-4.0649e-003</A>
#         <B> 2.0945e-004</B>
#         <C>-3.3182e-006</C>
#         <D0> 2.5826e+000</D0>
#         <D1> 1.92634e-004</D1>
#         <D2>-4.64803e-002</D2>
#         <E> 3.6000e-002</E>
#         <Tau20> 1.2200</Tau20>
#         <H1>-3.3000e-002</H1>
#         <H2> 5.0000e+003</H2>
#         <H3> 1.4500e+003</H3>
#       </CalibrationCoefficients>
#     </OxygenSensor>
#   </sensor>
#   <sensor Channel="7" >
#     <!-- A/D voltage 3, PAR/Logarithmic, Satlantic -->
#     <PARLog_SatlanticSensor SensorID="76" >
#       <SerialNumber>1122</SerialNumber>
#       <CalibrationDate>22-Jun-2017</CalibrationDate>
#       <a0>9.6090e-001</a0>
#       <a1>8.0780e-001</a1>
#       <Im>1.3589e+000</Im>
#       <Multiplier>1.0000e+000</Multiplier>
#     </PARLog_SatlanticSensor>
#   </sensor>
#   <sensor Channel="8" >
#     <!-- A/D voltage 4, Fluorometer, WET Labs ECO-AFL/FL -->
#     <FluoroWetlabECO_AFL_FL_Sensor SensorID="20" >
#       <SerialNumber>FLNTURT-2496</SerialNumber>
#       <CalibrationDate>25-Jan-2017</CalibrationDate>
#       <ScaleFactor>5.30000000e+001</ScaleFactor>
#       <!-- Dark output -->
#       <Vblank>0.0560</Vblank>
#     </FluoroWetlabECO_AFL_FL_Sensor>
#   </sensor>
#   <sensor Channel="9" >
#     <!-- A/D voltage 5, Turbidity Meter, WET Labs, ECO-NTU -->
#     <TurbidityMeter SensorID="67" >
#       <SerialNumber>FLNTURT-2496</SerialNumber>
#       <CalibrationDate>25-Jan-2017</CalibrationDate>
#       <ScaleFactor>176.000000</ScaleFactor>
#       <!-- Dark output -->
#       <DarkVoltage>0.072000</DarkVoltage>
#     </TurbidityMeter>
#   </sensor>
# </Sensors>
# datcnv_date = Oct 29 2018 16:48:36, 7.26.7.114 [datcnv_vars = 16]
# datcnv_in = C:\DATA\102218_fcr10.hex C:\DATA\SBE19plusV2_7809.xmlcon
# datcnv_skipover = 0
# datcnv_ox_hysteresis_correction = yes
# datcnv_ox_tau_correction = yes
# filter_date = Oct 29 2018 16:49:03, 7.26.7.114
# filter_in = C:\DATA\102218_fcr10.cnv
# filter_low_pass_tc_A = 0.030
# filter_low_pass_tc_B = 0.150
# filter_low_pass_A_vars = tv290C c0uS/cm par/sat/log
# filter_low_pass_B_vars = prdM prdE
# alignctd_date = Oct 29 2018 16:49:26, 7.26.7.114
# alignctd_in = C:\DATA\102218_fcr10.cnv
# alignctd_adv = tv290C 0.500, sbeox0Mg/L 3.000, sbeox0PS 3.000                                                                                                                                                                      
# file_type = ascii
*END*
     -0.547     8.6342    11.4456     97.976   1.040524      1.545     -3.046 -1240.7455    -0.2385    -0.0363     0.0045 -2.105e-16     -0.536     -0.778          1 2.0031e+03 0.0000e+00
     -0.546     8.6317    11.4537     98.011   1.038303      1.545     -3.046 -1240.7455    -0.2102     0.0040     0.0045      0.000     -0.536     -0.778          2 1.7938e+03 0.0000e+00
     -0.547     8.6293    11.4632     98.063   1.041927      1.545     -3.046 -1240.7455    -0.1941    -0.0229     0.0045      0.000     -0.536     -0.778          3 1.4758e+03 0.0000e+00
     -0.547     8.6256    11.4645     98.056   1.095233      1.629     -3.046 -1240.7455    -0.2305     0.1517     0.0045      0.000     -0.536     -0.778          4 1.3684e+03 0.0000e+00
     -0.547     8.6192    11.4652     98.046   1.149618      1.712     -3.046 -1240.7455    -0.2102     0.1785     0.0045      0.000     -0.536     -0.778          5 1.2748e+03 0.0000e+00
     -0.547     8.6110    11.4623     98.010   1.151897      1.712     -3.047 -1240.7455    -0.2183     0.1248     0.0045     -0.000     -0.536     -0.778          6 1.1042e+03 0.0000e+00
     -0.547     8.6030    11.4564     97.956   1.151612      1.712     -3.047 -1240.7455    -0.2385     0.1651     0.0045     -0.000     -0.536     -0.778          7 8.5038e+02 0.0000e+00
     -0.547     8.5957    11.4650     98.065   1.209188      1.796     -3.047 -1240.7455    -0.2385     0.1517     0.0045     -0.000     -0.536     -0.778          8 5.7981e+02 0.0000e+00
     -0.546     8.5876    11.2629     97.919   1.257897      1.879     -3.047 -1240.7455    -0.5863    -0.2914     0.0046      0.000     -0.535     -0.777          9 4.1347e+02 0.0000e+00
     -0.546     8.5772    10.9276     97.841   1.268648      1.879     -3.048 -1240.7455    -0.6348    -0.3049     0.0045      0.000     -0.535     -0.777         10 2.8150e+02 0.0000e+00
     -0.546     8.5619    10.7088     97.862   1.314244      1.963     -3.048 -1240.7455    -0.5984    -0.2780     0.0046      0.001     -0.535     -0.776         11 2.1226e+02 0.0000e+00
     -0.546     8.5482    10.5515     97.758   1.260371      1.880     -3.048 -1240.7455    -0.5944    -0.3720     0.0045      0.001     -0.535     -0.776         12 2.4498e+02 0.0000e+00
     -0.545     8.5347    10.4551     97.759   1.335693      1.964     -3.049 -1240.7455    -0.7885    -2.7219     0.0046      0.001     -0.535     -0.776         13 3.0436e+02 0.0000e+00
     -0.546     8.5295    10.3889     97.785   1.368553      2.090     -3.049 -1240.7455    -0.8289    -2.5876     0.0046      0.001     -0.535     -0.777         14 3.6000e+02 0.0000e+00
     -0.546     8.5185    10.3379     97.768   1.456348      2.091     -3.050 -1240.7455    -0.8208    -2.6548     0.0046      0.000     -0.535     -0.777         15 5.5194e+02 0.0000e+00
     -0.547     8.5210    10.3020     97.712   1.374478      2.175     -3.050 -1240.7455    -0.8047    -2.7622     0.0046      0.000     -0.535     -0.777         16 7.6812e+02 0.0000e+00
     -0.546     8.5078    10.2879     97.760   1.648094      2.258     -3.050 -1240.7455    -1.5042     4.0995     0.0046     -0.000     -0.535     -0.777         17 8.3882e+02 0.0000e+00
     -0.546     8.5426    10.2632     97.747   1.234276      2.175     -3.050 -1240.7455    -1.5204     4.1532     0.0046     -0.000     -0.535     -0.776         18 8.1808e+02 0.0000e+00
     -0.546     9.2258    10.2397     97.721   1.830250      2.175     -3.051 -1240.7455    -1.5002     4.1129     0.0046     -0.000     -0.530     -0.770         19 7.7464e+02 0.0000e+00
     -0.531    10.4284    10.2452     97.926   0.787978      2.091     -3.050 -1240.7455    -1.5123     4.1264     0.0046      0.004     -0.515     -0.748         20 8.4096e+02 0.0000e+00
     -0.499    11.3344    10.2315     97.899   2.709016      2.458     -3.026 -1240.7455    -2.0541    -1.9028     0.0051      0.015     -0.489     -0.710         21 7.7320e+02 0.0000e+00
     -0.468    11.9191    10.2302     97.974  15.374860     22.843     -2.982   824.4054    -2.0541    -2.0774     0.0134      0.032     -0.459     -0.666         22 8.2306e+02 0.0000e+00
     -0.437    12.3354    10.2404     98.145  25.995541     35.090      0.131  1240.2295    -1.9935    -1.9699     0.0190      0.051     -0.429     -0.622         23 8.0011e+02 0.0000e+00
     -0.405    12.6228    10.2524     98.291  30.502797     42.010      2.757  1240.2295    -2.0218    -1.9028     0.0222      0.072     -0.401     -0.582         24 2.1902e+02 0.0000e+00
     -0.385    12.8383    10.2728     98.500  31.167832     41.293      4.429  1240.2295    -2.0582    -2.0236     0.0221      0.088     -0.381     -0.552         25 1.4342e+02 0.0000e+00
     -0.377    12.9648    10.3056     98.777  30.563659     40.896      5.471    82.5169     0.5459     5.7511     0.0220      0.096     -0.362     -0.526         26 1.4431e+02 0.0000e+00
     -0.346    13.0533    10.3419     99.108  30.631864     40.298      6.036    99.5905     0.5378     5.8317     0.0219      0.101     -0.332     -0.482         27 1.9466e+02 0.0000e+00
     -0.294    13.1511    10.3810     99.491  30.282270     39.977      6.576   119.8063     0.5500     5.9123     0.0218      0.107     -0.292     -0.423         28 3.2857e+02 0.0000e+00
     -0.256    13.2440    10.4288     99.989  30.287029     39.742      6.942   140.3249     0.5783     5.8183     0.0217      0.111     -0.253     -0.366         29 2.5321e+02 0.0000e+00
     -0.223    13.3128    10.5277    100.986  30.003227     39.343      7.173   143.5427     1.5043     3.4012     0.0216      0.117     -0.218     -0.316         30 1.1703e+03 0.0000e+00
     -0.187    13.3614    10.7352    103.014  29.894146     39.067      7.325   146.1928     1.4881     3.3744     0.0215      0.123     -0.185     -0.269         31 1.3495e+03 0.0000e+00
     -0.158    13.4020    10.9166    104.780  29.711127     38.777      7.352   154.3699     1.5002     3.3878     0.0214      0.129     -0.155     -0.225         32 1.5038e+03 0.0000e+00
     -0.130    13.4342    10.9860    105.465  29.875157     38.911      7.326   154.9756     1.4962     3.3207     0.0215      0.135     -0.124     -0.180         33 1.1869e+03 0.0000e+00
     -0.090    13.4509    10.9409    105.028  29.986498     39.088      7.343   154.4456     2.2362     3.8846     0.0216      0.139     -0.087     -0.126         34 4.6036e+02 0.0000e+00
     -0.048    13.4543    10.7373    103.059  29.869054     38.799      7.358   154.0671     2.2119     3.9921     0.0215      0.138     -0.045     -0.065         35 1.1031e+03 0.0000e+00
     -0.000    13.4399    10.4041     99.847  29.606196     38.567      7.361   157.0199     2.2079     3.8712     0.0214      0.139      0.004      0.005         36 3.7925e+02 0.0000e+00
      0.065    13.4305     9.9718     95.694  29.631657     38.415      7.331   163.0771     2.2402     4.0592     0.0213      0.150      0.051      0.075         37 1.8314e+01 0.0000e+00
      0.091    13.4354     9.4574     90.770  30.044924     39.196      7.271   177.2736     2.4788     3.8846     0.0216      0.157      0.080      0.116         38 3.5246e+02 0.0000e+00
      0.090    13.4524     8.9255     85.664  29.744205     38.622      7.223   179.8479     2.4667     3.9518     0.0214      0.153      0.088      0.128         39 1.1228e+02 0.0000e+00
      0.093    13.4749     8.4188     80.780  29.383242     38.255      7.181   176.2136     2.4950     3.9249     0.0212      0.140      0.091      0.132         40 2.0994e+02 0.0000e+00
      0.095    13.4907     8.0124     76.881  29.367427     38.164      7.142   179.3557     2.4869     4.0995     0.0212      0.119      0.093      0.135         41 2.9586e+02 0.0000e+00
      0.098    13.5021     7.6841     73.749  29.230184     37.997      7.112   181.7407     2.4869     4.6366     0.0211      0.091      0.095      0.138         42 1.7520e+02 0.0000e+00
      0.098    13.5097     7.4363     71.392  29.257534     37.981      7.085   185.5264     2.4788     4.6098     0.0211      0.062      0.095      0.139         43 2.3825e+02 0.0000e+00
      0.096    13.5086     7.2419     69.536  29.274084     38.043      7.063   187.4950     2.4586     4.5829     0.0212      0.033      0.094      0.138         44 2.5155e+02 0.0000e+00
      0.096    13.5019     7.0956     68.135  29.387481     38.107      7.042   190.2586     2.4828     4.6232     0.0212      0.011      0.093      0.136         45 1.5584e+02 0.0000e+00
      0.094    13.4955     6.9734     66.962  29.650108     38.544      7.025   192.8329     2.5314     3.6832     0.0214      0.003      0.093      0.135         46 1.2325e+02 0.0000e+00
      0.095    13.4940     6.9020     66.273  29.569898     38.369      7.017   195.0286     2.5475     3.7772     0.0213      0.002      0.094      0.136         47 2.2101e+02 0.0000e+00
      0.098    13.4999     6.8638     65.906  29.457653     38.267      7.008   197.1865     2.5233     3.7504     0.0213      0.001      0.096      0.140         48 2.1492e+02 0.0000e+00
      0.102    13.4987     6.8354     65.634  29.463646     38.269      7.005   198.5872     2.5597     3.6564     0.0213      0.001      0.100      0.146         49 5.0290e+02 0.0000e+00
      0.107    13.4881     6.8171     65.457  29.414190     38.190      6.998   201.2372     2.5637     3.7504     0.0212      0.003      0.104      0.151         50 8.6133e+02 0.0000e+00
      0.109    13.4878     6.8136     65.423  29.400600     38.191      6.988   202.4486     2.4909     3.9518     0.0212      0.006      0.106      0.154         51 9.0741e+02 0.0000e+00
      0.109    13.4995     6.8181     65.467  29.391610     38.166      6.977   204.9851     2.4788     3.9652     0.0212      0.008      0.106      0.154         52 1.1668e+03 0.0000e+00
      0.105    13.5121     6.8344     65.628  29.395731     38.202      6.974   206.6886     2.4747     3.9652     0.0212      0.008      0.103      0.151         53 3.1904e+02 0.0000e+00
      0.103    13.5193     6.8739     66.012  29.306522     38.045      6.972   207.8244     2.4747     3.9921     0.0212      0.006      0.102      0.149         54 1.5466e+01 0.0000e+00
      0.105    13.5220     6.9159     66.420  29.235779     37.960      6.967   208.9601     2.5394     3.7638     0.0211      0.004      0.103      0.150         55 1.7834e+02 0.0000e+00
      0.108    13.5219     6.9638     66.880  29.246568     37.953      6.963   209.9822     2.5314     3.7504     0.0211      0.002      0.106      0.155         56 3.0024e+02 0.0000e+00
      0.113    13.5200     7.0113     67.333  29.293091     38.023      6.961   211.7615     2.5597     3.6967     0.0212      0.002      0.110      0.160         57 7.6011e+02 0.0000e+00
      0.114    13.5195     7.0585     67.780  29.326129     38.059      6.957   213.6544     2.5718     3.6564     0.0212      0.003      0.111      0.161         58 4.6797e+02 0.0000e+00
      0.112    13.5200     7.0867     68.041  29.294403     38.025      6.951   214.6387     2.4909     3.7504     0.0212      0.003      0.110      0.159         59 9.6512e+01 0.0000e+00
      0.109    13.5196     7.1174     68.334  29.302925     38.025      6.952   215.0551     2.5111     3.7638     0.0212      0.004      0.109      0.157         60 1.8677e+02 0.0000e+00
      0.113    13.5186     7.1257     68.376  29.285874     38.025      6.946   215.8501     2.4545     3.7504     0.0212      0.005      0.112      0.161         61 1.9138e+02 0.0000e+00
      0.119    13.5195     7.1202     68.293  29.256322     37.953      6.946   216.9101     2.5111     3.6429     0.0211      0.006      0.116      0.168         62 4.2436e+02 0.0000e+00
      0.122    13.5229     7.1125     68.231  29.280402     38.026      6.940   218.1215     2.5637     3.7638     0.0212      0.006      0.120      0.173         63 4.8820e+02 0.0000e+00
      0.125    13.5258     7.0948     68.083  29.315207     38.026      6.938   218.8030     2.5435     3.7235     0.0212      0.007      0.122      0.177         64 3.0648e+02 0.0000e+00
      0.127    13.5284     7.0692     67.856  29.361255     38.131      6.937   220.0144     2.5597     3.6967     0.0212      0.008      0.125      0.181         65 6.2288e+02 0.0000e+00
      0.130    13.5286     7.0350     67.541  29.312042     38.019      6.935   221.2258     2.5394     3.6967     0.0212      0.010      0.127      0.185         66 2.5561e+02 0.0000e+00
      0.132    13.5272     7.0093     67.307  29.346802     38.089      6.930   221.7937     2.5192     3.7504     0.0212      0.012      0.130      0.188         67 1.8143e+02 0.0000e+00
      0.136    13.5216     6.9699     66.933  29.406947     38.161      6.925   222.5130     2.5556     3.6967     0.0212      0.013      0.133      0.193         68 2.3564e+02 0.0000e+00
      0.139    13.5168     6.9459     66.699  29.355791     38.091      6.920   223.4973     2.5111     3.7235     0.0212      0.012      0.134      0.194         69 4.9318e+02 0.0000e+00
      0.131    13.5132     6.9152     66.394  29.410467     38.168      6.920   223.7244     2.5273     3.6832     0.0212      0.008      0.132      0.191         70 1.1322e+03 0.0000e+00
      0.134    13.4902     6.8875     66.112  29.487154     38.283      6.917   223.4973     2.5556     3.7504     0.0213      0.006      0.135      0.195         71 7.2673e+02 0.0000e+00
      0.149    13.4708     6.8519     65.765  29.467903     38.248      6.913   224.8223     2.6122     3.9652     0.0213      0.008      0.142      0.205         72 4.9782e+02 0.0000e+00
      0.148    13.4782     6.8272     65.524  29.404779     38.200      6.910   225.0494     2.6284     3.9384     0.0212      0.009      0.144      0.209         73 6.8227e+02 0.0000e+00
      0.146    13.4926     6.8047     65.310  29.358172     38.147      6.910   225.6930     2.5920     3.9786     0.0212      0.009      0.144      0.209         74 7.1695e+02 0.0000e+00
      0.148    13.5044     6.7871     65.148  29.348010     38.139      6.905   226.6394     2.5637     3.9518     0.0212      0.008      0.145      0.210         75 8.4402e+02 0.0000e+00
      0.148    13.5141     6.7758     65.045  29.358123     38.125      6.901   227.1316     2.6688     3.7907     0.0212      0.008      0.145      0.211         76 6.2551e+02 0.0000e+00
      0.148    13.5217     6.7741     64.989  29.404883     38.185      6.896   227.9644     2.6769     3.6832     0.0212      0.007      0.146      0.212         77 2.0227e+02 0.0000e+00
      0.151    13.5247     6.7839     65.035  29.438063     38.212      6.893   228.4566     2.6769     3.6832     0.0213      0.008      0.148      0.215         78 2.7566e+02 0.0000e+00
      0.156    13.5232     6.7767     64.964  29.405776     38.168      6.885   229.1759     2.6931     3.7101     0.0212      0.006      0.153      0.222         79 5.1132e+02 0.0000e+00
      0.161    13.5150     6.7709     64.904  29.356111     38.093      6.881   229.8194     2.7942     3.7235     0.0212      0.005      0.157      0.227         80 4.3361e+02 0.0000e+00
      0.161    13.5056     6.7649     64.841  29.351619     38.094      6.881   230.7280     2.8306     3.7101     0.0212      0.008      0.157      0.227         81 6.7750e+02 0.0000e+00
      0.157    13.5013     6.7353     64.554  29.352068     38.102      6.877   231.9394     2.8225     3.6564     0.0212      0.008      0.153      0.222         82 8.3241e+02 0.0000e+00
      0.150    13.4988     6.7019     64.239  29.355556     38.112      6.873   232.5830     2.8023     3.7504     0.0212      0.005      0.144      0.208         83 6.5134e+02 0.0000e+00
      0.132    13.4995     6.6695     63.924  29.376930     38.152      6.860   233.2266     2.8548     3.9249     0.0212     -0.003      0.129      0.188         84 4.0048e+02 0.0000e+00
      0.114    13.5054     6.6344     63.566  29.355119     38.119      6.861   233.6052     2.8427     3.9786     0.0212     -0.014      0.117      0.169         85 5.5897e+02 0.0000e+00
      0.113    13.5077     6.6088     63.319  29.353050     38.117      6.857   234.2866     2.8831     3.8846     0.0212     -0.023      0.114      0.165         86 4.9320e+02 0.0000e+00
      0.121    13.4803     6.5827     63.083  29.349856     38.112      6.862   234.4759     2.8751     3.9249     0.0212     -0.027      0.119      0.172         87 6.1913e+02 0.0000e+00
      0.129    13.4489     6.5599     62.854  29.359094     38.109      6.859   234.8544     2.8751     3.9518     0.0212     -0.024      0.126      0.182         88 1.3036e+03 0.0000e+00
      0.134    13.4451     6.5409     62.635  29.341554     38.136      6.862   235.8766     2.8993     3.9921     0.0212     -0.018      0.132      0.192         89 6.4716e+02 0.0000e+00
      0.143    13.4436     6.5125     62.343  29.312394     38.097      6.857   236.8230     2.8831     3.9786     0.0212     -0.007      0.138      0.200         90 3.2747e+02 0.0000e+00
      0.145    13.4387     6.4859     62.061  29.365744     38.207      6.844   236.7094     2.8912     3.9652     0.0212      0.005      0.140      0.202         91 4.2055e+02 0.0000e+00
      0.139    13.4370     6.4623     61.813  29.304813     38.101      6.829   243.3345     2.8670     3.8846     0.0212      0.013      0.136      0.197         92 5.0468e+02 0.0000e+00
      0.132    13.4404     6.4500     61.543  29.239974     38.032      6.825   238.1859     2.7901     3.7369     0.0211      0.014      0.131      0.190         93 7.7212e+02 0.0000e+00
      0.131    13.4368     6.4475     61.343  29.238889     38.035      6.826   238.8295     2.8144     3.8041     0.0211      0.009      0.130      0.189         94 4.3287e+02 0.0000e+00
      0.135    13.4231     6.4368     61.171  29.246865     38.031      6.827   239.1702     2.7982     3.6967     0.0211      0.004      0.133      0.193         95 3.4324e+02 0.0000e+00
      0.140    13.4207     6.4220     61.038  29.289350     38.107      6.830   239.5487     2.7982     3.7369     0.0212      0.001      0.137      0.199         96 4.2729e+02 0.0000e+00
      0.144    13.4312     6.4105     60.968  29.274968     38.085      6.828   240.6087     2.9276     3.9786     0.0212      0.000      0.138      0.201         97 4.3277e+02 0.0000e+00
      0.139    13.4215     6.4084     60.976  29.235116     38.051      6.825   240.4573     2.9276     3.8981     0.0211     -0.001      0.133      0.193         98 4.3163e+02 0.0000e+00
      0.125    13.3991     6.4141     61.012  29.190698     37.968      6.818   240.6845     2.9640     3.9249     0.0211     -0.003      0.119      0.174         99 5.1524e+02 0.0000e+00
      0.100    13.3800     6.4329     61.140  29.181996     37.975      6.817   241.4416     2.9600     3.9518     0.0211     -0.010      0.104      0.150        100 6.0871e+02 0.0000e+00
      0.094    13.3656     6.4503     61.263  29.186650     38.001      6.820   242.0473     2.9438     3.7369     0.0211     -0.018      0.097      0.140        101 6.3338e+02 0.0000e+00
      0.102    13.3419     6.4607     61.343  29.184914     38.016      6.821   242.5016     2.9115     3.7504     0.0211     -0.022      0.100      0.145        102 8.6836e+02 0.0000e+00
      0.110    13.2361     6.4752     61.467  29.243463     38.109      6.821   243.0695     2.9195     3.7504     0.0211     -0.023      0.104      0.150        103 6.7499e+02 0.0000e+00
      0.104    13.1081     6.4815     61.522  29.321341     38.234      6.816   243.3345     2.9398     3.6967     0.0212     -0.023      0.103      0.149        104 3.5259e+02 0.0000e+00
      0.103    13.0563     6.4828     61.527  29.295560     38.308      6.813   243.8266     2.7457     3.6295     0.0212     -0.019      0.103      0.150        105 5.9299e+02 0.0000e+00
      0.110    13.0608     6.4787     61.489  29.245934     38.364      6.815   243.9402     2.7457     3.6161     0.0212     -0.010      0.108      0.157        106 6.3272e+02 0.0000e+00
      0.116    13.0892     6.4496     61.214  29.234893     38.416      6.818   244.4702     2.7254     3.7772     0.0212      0.001      0.116      0.168        107 5.4996e+02 0.0000e+00
      0.127    13.1091     6.4462     61.177  29.190725     38.337      6.815   244.6216     2.7538     3.6698     0.0211      0.012      0.127      0.183        108 4.9462e+02 0.0000e+00
      0.144    13.0964     6.4175     60.894  29.241603     38.382      6.815   245.2273     2.7335     3.7504     0.0212      0.019      0.139      0.201        109 3.9392e+02 0.0000e+00
      0.152    13.0594     6.3842     60.569  29.319817     38.471      6.811   245.4545     2.9236     3.9249     0.0212      0.024      0.144      0.210        110 5.8832e+02 0.0000e+00
      0.145    13.0295     6.3468     60.210  29.241632     38.374      6.811   246.0602     2.9357     3.8578     0.0212      0.025      0.143      0.208        111 4.5696e+02 0.0000e+00
      0.143    13.0148     6.3108     59.863  29.190659     38.338      6.811   246.0980     2.9195     3.9518     0.0211      0.026      0.142      0.206        112 2.4833e+02 0.0000e+00
      0.147    13.0058     6.2739     59.504  29.235014     38.443      6.812   246.7795     2.9155     3.9518     0.0212      0.023      0.144      0.208        113 1.1151e+02 0.0000e+00
      0.149    13.0006     6.2369     59.149  29.186442     38.383      6.814   247.5366     2.8751     3.8981     0.0211      0.018      0.146      0.212        114 3.5471e+02 0.0000e+00
      0.151    12.9967     6.2030     58.816  29.132515     38.320      6.812   247.6123     2.8751     3.9786     0.0211      0.013      0.149      0.215        115 7.7610e+02 0.0000e+00
      0.155    12.9965     6.1564     58.374  29.183532     38.397      6.813   248.1423     2.9034     3.9921     0.0211      0.008      0.151      0.219        116 2.9062e+02 0.0000e+00
      0.156    12.9978     6.1278     58.120  29.211904     38.439      6.810   248.2938     2.8953     3.9518     0.0211      0.005      0.152      0.220        117 3.4592e+02 0.0000e+00
      0.153    12.9938     6.0933     57.821  29.186157     38.402      6.806   248.7481     2.9438     3.9518     0.0211      0.004      0.150      0.218        118 5.5488e+02 0.0000e+00
      0.150    12.9865     6.0811     57.632  29.185925     38.401      6.803   249.0509     2.9195     3.8981     0.0211      0.005      0.147      0.213        119 1.2739e+02 0.0000e+00
      0.145    12.9801     6.0858     57.521  29.182543     38.404      6.804   248.9373     2.9357     3.8578     0.0211      0.002      0.143      0.208        120 1.4125e+02 0.0000e+00
      0.141    12.9771     6.0836     57.379  29.131066     38.339      6.803   249.1645     2.9559     3.9249     0.0211     -0.002      0.140      0.203        121 9.6430e+01 0.0000e+00
      0.142    12.9717     6.0767     57.275  29.131390     38.345      6.804   249.6945     2.9964     3.9786     0.0211     -0.005      0.140      0.202        122 5.9539e+02 0.0000e+00
      0.143    12.9665     6.0760     57.249  29.152493     38.385      6.801   249.6188     2.9883     3.9518     0.0211     -0.007      0.139      0.201        123 9.8348e+02 0.0000e+00
      0.139    12.9616     6.0787     57.292  29.134457     38.353      6.801   249.9595     2.9923     3.8981     0.0211     -0.009      0.133      0.192        124 6.2554e+02 0.0000e+00
      0.122    12.9549     6.0955     57.482  29.183488     38.433      6.796   250.0352     2.9802     3.9652     0.0211     -0.013      0.121      0.176        125 7.3914e+02 0.0000e+00
      0.109    12.9530     6.1405     57.923  29.180424     38.436      6.795   250.3381     2.9883     3.6967     0.0211     -0.018      0.116      0.169        126 6.2912e+02 0.0000e+00
      0.125    12.9693     6.1908     58.370  29.078973     38.298      6.796   250.8681     3.0085     3.6698     0.0211     -0.016      0.127      0.185        127 5.0653e+02 0.0000e+00
      0.154    12.9862     6.2493     58.888  29.131847     38.371      6.798   251.0573     2.9842     3.6429     0.0211     -0.007      0.152      0.220        128 1.4033e+03 0.0000e+00
      0.184    12.9319     6.3154     59.483  29.203570     38.468      6.796   251.0573     3.0004     3.7235     0.0211      0.009      0.180      0.261        129 1.6145e+03 0.0000e+00
      0.215    12.8112     6.3722     60.024  29.197258     38.409      6.787   251.5873     2.7618     3.9652     0.0211      0.029      0.205      0.296        130 6.1550e+02 0.0000e+00
      0.225    12.7200     6.4146     60.453  29.228652     38.541      6.781   251.8523     2.7335     3.9786     0.0212      0.047      0.216      0.311        131 5.0390e+02 0.0000e+00
      0.219    12.6862     6.4471     60.782  29.194171     38.590      6.766   252.2309     2.7133     3.8712     0.0211      0.059      0.212      0.306        132 3.5311e+02 0.0000e+00
      0.202    12.6744     6.4666     60.975  29.180909     38.686      6.758   252.8745     2.7416     3.9652     0.0211      0.060      0.200      0.290        133 2.8875e+02 0.0000e+00
      0.192    12.6848     6.4887     61.184  29.185892     38.717      6.763   253.1395     2.7497     3.9518     0.0211      0.048      0.192      0.279        134 2.6114e+02 0.0000e+00
      0.196    12.7111     6.4965     61.219  29.187987     38.732      6.764   253.2531     2.8629     3.5892     0.0211      0.029      0.193      0.280        135 3.8606e+02 0.0000e+00
      0.204    12.7213     6.5034     61.234  29.207956     38.756      6.766   253.9345     2.8831     3.7504     0.0211      0.011      0.199      0.289        136 9.7867e+02 0.0000e+00
      0.209    12.7030     6.5002     61.193  29.190686     38.694      6.765   254.3888     2.8427     3.6564     0.0211     -0.001      0.203      0.295        137 3.6836e+02 0.0000e+00
      0.208    12.6753     6.4838     61.067  29.179822     38.680      6.765   254.1995     2.8589     3.7504     0.0211     -0.007      0.202      0.294        138 3.3017e+02 0.0000e+00
      0.202    12.6567     6.4650     60.919  29.191825     38.702      6.769   254.4266     3.0772     4.0189     0.0211     -0.006      0.198      0.288        139 1.0138e+03 0.0000e+00
      0.197    12.6598     6.4488     60.811  29.175755     38.729      6.773   255.0702     3.0813     3.8712     0.0211     -0.003      0.194      0.282        140 7.1028e+02 0.0000e+00
      0.195    12.6822     6.4431     60.719  29.199830     38.750      6.775   254.5781     3.0489     3.8309     0.0211      0.000      0.193      0.281        141 2.6346e+02 0.0000e+00
      0.199    12.6986     6.4372     60.606  29.250818     38.856      6.779   255.4109     3.0692     3.8981     0.0212      0.000      0.196      0.285        142 4.9648e+02 0.0000e+00
      0.206    12.7067     6.4392     60.600  29.201249     38.723      6.781   255.2216     3.0489     3.7772     0.0211     -0.001      0.202      0.293        143 6.9142e+02 0.0000e+00
      0.213    12.7052     6.4318     60.541  29.172563     38.705      6.781   256.0924     3.0651     3.7504     0.0211     -0.000      0.206      0.299        144 4.4785e+02 0.0000e+00
      0.212    12.6787     6.4300     60.558  29.197562     38.698      6.774   256.3574     3.0409     3.6967     0.0211      0.002      0.203      0.294        145 1.6404e+02 0.0000e+00
      0.197    12.6419     6.4281     60.578  29.229435     38.771      6.765   256.1302     3.0772     3.7235     0.0212      0.002      0.192      0.278        146 2.1256e+02 0.0000e+00
      0.178    12.6356     6.4278     60.554  29.192199     38.727      6.766   256.7738     3.2066     3.7772     0.0211     -0.004      0.177      0.258        147 3.6895e+02 0.0000e+00
      0.169    12.6526     6.4339     60.549  29.184610     38.763      6.766   257.0388     3.1986     3.7772     0.0211     -0.011      0.170      0.248        148 3.8050e+02 0.0000e+00
      0.176    12.6789     6.4455     60.613  29.209240     38.809      6.769   257.0009     3.1986     3.7235     0.0211     -0.016      0.174      0.254        149 3.8084e+02 0.0000e+00
      0.190    12.7051     6.4428     60.577  29.191201     38.751      6.771   257.3416     3.1945     3.7907     0.0211     -0.016      0.184      0.268        150 2.1421e+02 0.0000e+00
      0.198    12.6821     6.4316     60.492  29.177403     38.729      6.771   257.7959     3.2471     3.8041     0.0211     -0.013      0.192      0.278        151 2.7314e+02 0.0000e+00
      0.198    12.6381     6.4334     60.525  29.196751     38.695      6.768   258.3259     3.0853     3.9652     0.0211     -0.007      0.192      0.279        152 4.5813e+02 0.0000e+00
      0.192    12.6208     6.4349     60.554  29.226417     38.798      6.767   258.0988     3.0732     4.0189     0.0212     -0.001      0.188      0.274        153 5.8408e+02 0.0000e+00
      0.188    12.6270     6.4471     60.626  29.199791     38.767      6.763   258.4774     3.0772     3.9249     0.0211      0.006      0.188      0.274        154 9.5224e+02 0.0000e+00
      0.198    12.6535     6.4618     60.714  29.200250     38.824      6.767   258.8938     3.0732     3.9249     0.0211      0.012      0.197      0.287        155 6.8616e+02 0.0000e+00
      0.219    12.6794     6.4606     60.674  29.196204     38.779      6.763   258.8181     3.0247     3.8041     0.0211      0.017      0.212      0.308        156 3.6677e+02 0.0000e+00
      0.231    12.6642     6.4614     60.696  29.234475     38.827      6.760   259.4617     3.0530     3.9249     0.0212      0.019      0.223      0.324        157 6.8865e+02 0.0000e+00
      0.233    12.6197     6.4590     60.699  29.241563     38.798      6.756   259.8024     3.0772     3.9921     0.0212      0.021      0.226      0.327        158 6.7733e+02 0.0000e+00
      0.226    12.5862     6.4526     60.649  29.187376     38.740      6.754   259.5374     3.0651     3.9786     0.0211      0.021      0.222      0.321        159 7.3898e+02 0.0000e+00
      0.219    12.5800     6.4474     60.622  29.183316     38.787      6.757   259.5752     3.1743     3.9384     0.0211      0.020      0.218      0.316        160 6.1184e+02 0.0000e+00
      0.222    12.5920     6.4522     60.692  29.187331     38.821      6.759   259.6131     3.1945     3.9249     0.0211      0.018      0.222      0.321        161 3.2750e+02 0.0000e+00
      0.237    12.6071     6.4535     60.727  29.212042     38.866      6.764   259.6509     3.1905     4.0324     0.0211      0.017      0.233      0.337        162 3.9320e+02 0.0000e+00
      0.253    12.6134     6.4495     60.806  29.241516     38.888      6.764   260.3324     3.1743     3.9786     0.0212      0.016      0.246      0.357        163 5.3546e+02 0.0000e+00
      0.262    12.5857     6.4427     60.830  29.239596     38.876      6.757   260.4838     3.1905     3.8712     0.0212      0.016      0.254      0.369        164 6.3757e+02 0.0000e+00
      0.263    12.5470     6.4433     60.866  29.244077     38.865      6.751   261.1652     3.1702     3.9115     0.0212      0.019      0.255      0.371        165 4.5761e+02 0.0000e+00
      0.257    12.5285     6.4547     60.872  29.235940     38.898      6.747   261.3167     3.1905     3.9249     0.0212      0.021      0.250      0.363        166 3.0178e+02 0.0000e+00
      0.246    12.5368     6.4714     60.882  29.190431     38.861      6.748   260.8245     3.1783     3.8578     0.0211      0.020      0.243      0.353        167 5.4387e+02 0.0000e+00
      0.241    12.5558     6.4779     60.863  29.211774     38.920      6.748   261.3167     3.3765     3.6967     0.0211      0.014      0.240      0.349        168 5.3977e+02 0.0000e+00
      0.247    12.5628     6.4844     60.898  29.239035     38.946      6.748   261.4681     3.3603     3.7101     0.0212      0.006      0.244      0.354        169 4.0769e+02 0.0000e+00
      0.258    12.5814     6.5030     61.097  29.186154     38.853      6.750   261.8845     3.3886     3.8041     0.0211      0.001      0.253      0.367        170 8.0751e+02 0.0000e+00
      0.268    12.5949     6.5127     61.479  29.188630     38.845      6.752   261.9981     3.4088     3.6295     0.0211      0.000      0.263      0.381        171 7.5739e+02 0.0000e+00
      0.277    12.6189     6.5399     62.261  29.235949     38.902      6.753   261.8088     3.3724     3.6564     0.0212      0.005      0.276      0.400        172 3.3826e+02 0.0000e+00
      0.299    12.6961     6.6366     63.536  29.186560     38.809      6.752   263.1338     3.1096     3.9518     0.0211      0.017      0.302      0.437        173 2.8158e+02 0.0000e+00
      0.346    12.7666     6.7797     65.104  29.190787     38.793      6.743   264.0045     3.1419     3.9786     0.0211      0.040      0.347      0.503        174 2.5796e+02 0.0000e+00
      0.418    12.7824     6.9566     66.910  29.260324     38.815      6.723   264.4210     3.1379     4.0055     0.0212      0.073      0.402      0.583        175 3.1354e+02 0.0000e+00
      0.464    12.7132     7.1597     68.926  29.248246     38.712      6.699   265.5188     3.1217     3.9518     0.0212      0.105      0.442      0.640        176 3.6354e+02 0.0000e+00
      0.469    12.6058     7.3492     70.783  29.235444     38.690      6.689   265.7460     3.1460     3.9518     0.0212      0.123      0.447      0.648        177 3.7305e+02 0.0000e+00
      0.435    12.5476     7.5250     72.493  29.246603     38.765      6.695   265.2538     3.1177     3.9249     0.0212      0.118      0.417      0.606        178 5.7096e+02 0.0000e+00
      0.374    12.5266     7.6549     73.750  29.234382     38.876      6.712   264.7995     3.1298     3.8578     0.0212      0.089      0.367      0.531        179 5.9309e+02 0.0000e+00
      0.314    12.5474     7.7508     74.676  29.191388     38.862      6.719   264.9131     3.1379     3.8712     0.0211      0.039      0.312      0.452        180 5.3821e+02 0.0000e+00
      0.267    12.7619     7.8031     75.181  29.151885     38.845      6.724   265.5945     3.0045     3.8981     0.0211     -0.022      0.265      0.385        181 5.4661e+02 0.0000e+00
      0.231    13.1278     7.8306     75.449  29.135302     38.790      6.723   265.3295     2.9964     3.8578     0.0211     -0.086      0.229      0.333        182 7.6833e+02 0.0000e+00
      0.203    13.3869     7.8291     75.435  29.063753     38.499      6.720   265.5567     3.0004     3.9652     0.0211     -0.136      0.204      0.295        183 8.1426e+02 0.0000e+00
      0.188    13.5209     7.8099     75.251  29.003650     38.006      6.727   265.6324     2.9964     3.9384     0.0210     -0.158      0.189      0.275        184 7.6901e+02 0.0000e+00
      0.188    13.5969     7.7810     74.972  29.061732     37.867      6.730   265.7838     2.8751     3.8981     0.0211     -0.150      0.186      0.271        185 1.0310e+03 0.0000e+00
      0.193    13.6358     7.7423     74.602  29.080317     37.732      6.728   265.9352     2.8831     3.8444     0.0211     -0.120      0.190      0.276        186 6.2670e+02 0.0000e+00
      0.200    13.6584     7.7184     74.374  29.069409     37.660      6.734   265.9352     2.8751     3.9518     0.0210     -0.082      0.199      0.289        187 2.7516e+02 0.0000e+00
      0.217    13.6677     7.6928     74.128  29.104923     37.657      6.739   266.4274     2.8872     3.9518     0.0211     -0.044      0.213      0.308        188 5.2997e+02 0.0000e+00
      0.232    13.6719     7.6707     73.914  29.125050     37.672      6.737   266.4652     2.8184     3.9249     0.0211     -0.012      0.225      0.325        189 4.7751e+02 0.0000e+00
      0.237    13.6727     7.6566     73.776  29.074001     37.590      6.736   266.3517     2.7901     3.9518     0.0210      0.012      0.230      0.333        190 3.7525e+02 0.0000e+00
      0.234    13.6738     7.6442     73.656  29.079500     37.587      6.732   267.0331     2.7982     3.9786     0.0210      0.025      0.229      0.331        191 4.6100e+02 0.0000e+00
      0.229    13.6752     7.6399     73.613  29.118206     37.658      6.733   267.4117     2.8144     3.9249     0.0211      0.028      0.225      0.326        192 3.8536e+02 0.0000e+00
      0.224    13.6761     7.6341     73.559  29.085131     37.585      6.734   267.2224     2.7982     3.9518     0.0210      0.022      0.221      0.320        193 4.9306e+02 0.0000e+00
      0.222    13.6760     7.6335     73.554  29.091011     37.619      6.737   267.4495     2.9438     3.9249     0.0211      0.014      0.220      0.320        194 6.2182e+02 0.0000e+00
      0.228    13.6762     7.6254     73.475  29.081237     37.582      6.742   267.6767     2.9398     3.9249     0.0210      0.007      0.225      0.325        195 4.2806e+02 0.0000e+00
      0.236    13.6778     7.6150     73.374  29.067644     37.583      6.745   267.7903     2.9357     3.9786     0.0210      0.001      0.230      0.334        196 5.7670e+02 0.0000e+00
      0.240    13.6791     7.6164     73.384  29.078279     37.583      6.748   268.0931     2.9478     3.9518     0.0210      0.001      0.234      0.340        197 5.4879e+02 0.0000e+00
      0.243    13.6794     7.6093     73.308  29.068003     37.581      6.749   268.2445     3.1986     4.0055     0.0210      0.004      0.236      0.342        198 4.1352e+02 0.0000e+00
      0.239    13.6788     7.6068     73.287  29.080432     37.580      6.746   268.3203     3.1905     3.9384     0.0210      0.007      0.232      0.337        199 4.8236e+02 0.0000e+00
      0.229    13.6782     7.5922     73.153  29.122110     37.652      6.746   268.8124     3.1702     3.8578     0.0211      0.006      0.225      0.326        200 4.7671e+02 0.0000e+00
      0.222    13.6774     7.5955     73.174  29.105084     37.616      6.743   268.8124     3.1905     3.8712     0.0211      0.003      0.218      0.316        201 7.9016e+02 0.0000e+00
      0.214    13.6765     7.5911     73.098  29.071971     37.581      6.738   268.5853     2.9398     3.7235     0.0210     -0.004      0.212      0.306        202 3.3622e+02 0.0000e+00
      0.210    13.6772     7.5869     73.033  29.074369     37.581      6.740   268.7367     2.9438     3.6967     0.0210     -0.012      0.207      0.300        203 3.9935e+02 0.0000e+00
      0.209    13.6780     7.5870     73.029  29.072450     37.582      6.741   268.8503     2.9195     3.6967     0.0210     -0.018      0.206      0.298        204 1.0614e+03 0.0000e+00
      0.210    13.6775     7.5821     72.990  29.074360     37.581      6.743   269.1153     2.9115     3.7101     0.0210     -0.019      0.207      0.300        205 4.0626e+02 0.0000e+00
      0.212    13.6771     7.5805     72.980  29.071993     37.581      6.744   268.8503     3.0166     4.0324     0.0210     -0.017      0.210      0.305        206 2.3495e+02 0.0000e+00
      0.221    13.6746     7.5868     73.032  29.105046     37.617      6.744   269.3803     3.0166     3.9786     0.0211     -0.010      0.219      0.317        207 2.1804e+02 0.0000e+00
      0.235    13.6704     7.5928     73.077  29.062875     37.582      6.748   269.0017     2.9883     3.8981     0.0210      0.001      0.234      0.339        208 2.6596e+02 0.0000e+00
      0.261    13.6718     7.5932     73.070  29.005877     37.475      6.752   269.3803     2.9721     3.9652     0.0210      0.016      0.258      0.374        209 7.9743e+02 0.0000e+00
      0.293    13.6765     7.6037     73.164  29.057383     37.588      6.747   269.5317     3.3118     3.9115     0.0210      0.035      0.285      0.414        210 3.7210e+02 0.0000e+00
      0.319    13.6691     7.6062     73.186  29.087726     37.587      6.746   269.8345     3.3482     3.9518     0.0210      0.053      0.310      0.449        211 2.2496e+02 0.0000e+00
      0.336    13.6488     7.6103     73.225  29.057065     37.582      6.741   269.9103     3.3279     3.9652     0.0210      0.068      0.327      0.474        212 5.5168e+02 0.0000e+00
      0.345    13.6335     7.6169     73.283  29.006593     37.480      6.737   270.4403     3.2996     3.8981     0.0210      0.077      0.336      0.487        213 4.0130e+02 0.0000e+00
      0.345    13.6307     7.6139     73.250  29.031944     37.573      6.727   269.4181     3.3279     3.9249     0.0210      0.076      0.338      0.490        214 2.3532e+02 0.0000e+00
      0.343    13.6356     7.6125     73.229  29.084821     37.624      6.727   269.5317     3.4573     3.9518     0.0210      0.068      0.342      0.495        215 4.5850e+02 0.0000e+00
      0.356    13.6383     7.6134     73.227  29.059389     37.627      6.730   270.2131     3.4654     4.0055     0.0210      0.056      0.355      0.514        216 6.0146e+02 0.0000e+00
      0.385    13.6333     7.6133     73.215  29.004295     37.513      6.734   271.1595     3.4695     3.8981     0.0210      0.048      0.380      0.552        217 2.1999e+02 0.0000e+00
      0.424    13.6258     7.6077     73.152  28.975488     37.511      6.734   272.1817     3.4371     3.9518     0.0210      0.050      0.414      0.602        218 2.4325e+02 0.0000e+00
      0.459    13.6189     7.6048     73.118  28.946993     37.443      6.730   272.2195     3.6070     3.9115     0.0210      0.060      0.446      0.647        219 3.7923e+02 0.0000e+00
      0.481    13.6147     7.5974     73.043  28.980461     37.523      6.721   272.7496     3.6110     3.9384     0.0210      0.073      0.468      0.678        220 2.8227e+02 0.0000e+00
      0.492    13.6138     7.5960     73.030  28.993139     37.530      6.712   273.2796     3.5867     3.9786     0.0210      0.085      0.481      0.696        221 3.8803e+02 0.0000e+00
      0.495    13.6129     7.5949     73.024  28.990516     37.534      6.692   273.5067     3.5867     3.9518     0.0210      0.090      0.486      0.705        222 2.1792e+02 0.0000e+00
      0.498    13.6098     7.5870     72.952  28.983728     37.535      6.684   273.5067     3.9062     3.9921     0.0210      0.086      0.493      0.715        223 2.1755e+02 0.0000e+00
      0.514    13.6070     7.5867     72.950  28.942290     37.463      6.691   274.2638     3.9466     3.9115     0.0210      0.075      0.509      0.738        224 3.7640e+02 0.0000e+00
      0.545    13.6026     7.5844     72.922  28.923489     37.466      6.702   273.8096     3.9264     3.9384     0.0210      0.066      0.536      0.777        225 2.2743e+02 0.0000e+00
      0.580    13.5956     7.5829     72.910  28.888531     37.396      6.710   274.3396     3.8819     3.9249     0.0209      0.062      0.569      0.826        226 2.5756e+02 0.0000e+00
      0.617    13.5888     7.5773     72.865  28.926499     37.473      6.718   275.1346     3.9466     3.9115     0.0210      0.069      0.604      0.876        227 3.1777e+02 0.0000e+00
      0.651    13.5835     7.5794     72.884  28.994837     37.552      6.718   275.1724     3.9426     3.9249     0.0210      0.083      0.634      0.920        228 2.4762e+02 0.0000e+00
      0.670    13.5795     7.5797     72.876  28.981383     37.559      6.718   275.3617     3.9749     3.9652     0.0210      0.097      0.656      0.951        229 2.2525e+02 0.0000e+00
      0.686    13.5772     7.5819     72.889  28.943244     37.492      6.720   275.6267     3.9547     3.9115     0.0210      0.106      0.672      0.975        230 2.3805e+02 0.0000e+00
      0.700    13.5778     7.5747     72.804  28.923705     37.496      6.720   275.7781     3.9305     3.8981     0.0210      0.107      0.686      0.995        231 2.3388e+02 0.0000e+00
      0.712    13.5804     7.5807     72.831  28.946402     37.498      6.722   275.8538     3.9709     3.9384     0.0210      0.100      0.701      1.017        232 1.6403e+02 0.0000e+00
      0.733    13.5827     7.5823     72.825  28.974297     37.570      6.727   276.2324     3.9466     3.9249     0.0210      0.088      0.719      1.043        233 1.8317e+02 0.0000e+00
      0.753    13.5826     7.5851     72.849  28.948289     37.495      6.730   276.5731     3.9790     3.9249     0.0210      0.078      0.739      1.071        234 1.8941e+02 0.0000e+00
      0.773    13.5803     7.5795     72.815  28.978768     37.565      6.731   276.6488     3.9668     3.8041     0.0210      0.071      0.759      1.100        235 2.3507e+02 0.0000e+00
      0.796    13.5815     7.5649     72.692  28.936365     37.492      6.734   277.1788     4.0113     3.8578     0.0210      0.069      0.779      1.129        236 3.1175e+02 0.0000e+00
      0.812    13.5864     7.5501     72.557  28.941762     37.495      6.736   276.9517     4.0356     3.9249     0.0210      0.071      0.797      1.156        237 1.9561e+02 0.0000e+00
      0.830    13.5856     7.5359     72.421  28.972052     37.566      6.737   277.5574     4.0477     3.9249     0.0210      0.073      0.817      1.185        238 1.9944e+02 0.0000e+00
      0.856    13.5790     7.5281     72.330  28.957968     37.489      6.737   277.4060     4.0639     3.9249     0.0210      0.077      0.843      1.222        239 1.8497e+02 0.0000e+00
      0.891    13.5739     7.5176     72.215  29.018588     37.634      6.734   277.8224     4.1084     3.8981     0.0210      0.084      0.875      1.270        240 1.3037e+02 0.0000e+00
      0.931    13.5637     7.5158     72.190  28.955911     37.496      6.729   277.8981     4.1084     3.8712     0.0210      0.092      0.910      1.320        241 1.6430e+02 0.0000e+00
      0.959    13.5461     7.5149     72.177  28.917374     37.501      6.728   277.3303     4.0720     3.9786     0.0210      0.101      0.938      1.360        242 1.4078e+02 0.0000e+00
      0.978    13.5321     7.5151     72.178  28.947951     37.511      6.732   277.2924     4.0922     3.8981     0.0210      0.105      0.956      1.386        243 1.2404e+02 0.0000e+00
      0.988    13.5308     7.5170     72.196  28.917863     37.528      6.725   277.7467     4.6017     3.9384     0.0210      0.104      0.964      1.398        244 1.6031e+02 0.0000e+00
      0.982    13.5424     7.5274     72.294  28.895528     37.469      6.703   277.4060     4.5774     3.9652     0.0209      0.095      0.962      1.394        245 1.6263e+02 0.0000e+00
      0.972    13.5528     7.5302     72.307  28.975752     37.616      6.698   277.6710     4.6098     3.8309     0.0210      0.077      0.954      1.384        246 1.5071e+02 0.0000e+00
      0.964    13.5579     7.5286     72.280  28.936621     37.531      6.707   277.7089     4.6057     3.9652     0.0210      0.052      0.951      1.379        247 1.8768e+02 0.0000e+00
      0.973    13.5574     7.5276     72.270  28.884923     37.449      6.720   277.7467     4.4278     3.7235     0.0209      0.029      0.960      1.392        248 1.5086e+02 0.0000e+00
      1.000    13.5480     7.5277     72.279  28.921490     37.517      6.729   278.3146     4.4036     3.7101     0.0210      0.018      0.983      1.425        249 1.5749e+02 0.0000e+00
      1.033    13.5388     7.5267     72.274  28.891112     37.444      6.739   278.3903     4.4116     3.7638     0.0209      0.020      1.012      1.467        250 1.5303e+02 0.0000e+00
      1.063    13.5346     7.5308     72.297  28.922727     37.526      6.737   278.4281     4.3995     3.6698     0.0210      0.033      1.038      1.506        251 1.2871e+02 0.0000e+00
      1.080    13.5318     7.5404     72.355  28.941448     37.535      6.732   279.1096     4.2216     3.9115     0.0210      0.050      1.054      1.529        252 1.4214e+02 0.0000e+00
      1.081    13.5307     7.5463     72.382  28.927117     37.539      6.720   279.3746     4.2297     3.9384     0.0210      0.064      1.059      1.537        253 1.2520e+02 0.0000e+00
      1.082    13.5309     7.5548     72.451  28.881265     37.470      6.713   278.9960     4.2014     3.8981     0.0209      0.070      1.063      1.542        254 1.3626e+02 0.0000e+00
      1.090    13.5293     7.5563     72.463  28.879914     37.470      6.714   279.1853     4.2135     3.9384     0.0209      0.068      1.073      1.557        255 1.2185e+02 0.0000e+00
      1.114    13.5213     7.5571     72.477  28.869501     37.471      6.723   279.6396     4.2175     3.9115     0.0209      0.062      1.091      1.582        256 1.1766e+02 0.0000e+00
      1.134    13.5136     7.5486     72.404  28.834927     37.399      6.725   279.9803     4.3389     3.7369     0.0209      0.055      1.107      1.605        257 1.2537e+02 0.0000e+00
      1.138    13.5137     7.5463     72.375  28.922943     37.552      6.723   279.9424     4.3389     3.6564     0.0210      0.047      1.112      1.612        258 1.2012e+02 0.0000e+00
      1.126    13.5188     7.5454     72.357  28.937862     37.560      6.725   279.7153     4.3510     3.6698     0.0210      0.037      1.109      1.609        259 1.2353e+02 0.0000e+00
      1.128    13.5209     7.5452     72.344  28.875661     37.487      6.737   279.9803     4.3267     3.8175     0.0209      0.032      1.117      1.620        260 1.0381e+02 0.0000e+00
      1.163    13.5107     7.5423     72.302  28.881756     37.482      6.746   280.4724     4.4278     3.8981     0.0209      0.037      1.151      1.670        261 9.8139e+01 0.0000e+00
      1.233    13.4899     7.5371     72.243  28.870976     37.480      6.743   281.1539     4.4602     3.9249     0.0209      0.055      1.207      1.751        262 9.4015e+01 0.0000e+00
      1.297    13.4716     7.5417     72.278  28.829778     37.417      6.747   281.2296     4.3995     3.9518     0.0209      0.081      1.259      1.826        263 8.7037e+01 0.0000e+00
      1.320    13.4635     7.5527     72.365  28.814436     37.438      6.746   281.1539     4.4319     4.0995     0.0209      0.101      1.284      1.862        264 1.0211e+02 0.0000e+00
      1.311    13.4621     7.5608     72.425  28.830779     37.456      6.747   281.5324     4.5330     3.9518     0.0209      0.111      1.282      1.859        265 1.0804e+02 0.0000e+00
      1.291    13.4663     7.5688     72.486  28.868744     37.536      6.750   281.1539     4.5168     3.9249     0.0209      0.110      1.270      1.842        266 9.9358e+01 0.0000e+00
      1.284    13.4708     7.5761     72.538  28.885789     37.537      6.755   281.1160     4.5330     3.9115     0.0209      0.098      1.269      1.841        267 9.5226e+01 0.0000e+00
      1.309    13.4671     7.5794     72.564  28.868866     37.533      6.758   281.4946     4.5370     3.8444     0.0209      0.080      1.291      1.872        268 8.9403e+01 0.0000e+00
      1.355    13.4610     7.5824     72.591  28.830505     37.456      6.755   281.5703     4.4440     3.9921     0.0209      0.061      1.331      1.930        269 8.3943e+01 0.0000e+00
      1.408    13.4543     7.5911     72.673  28.814932     37.460      6.754   281.7974     4.4116     3.8309     0.0209      0.054      1.378      1.998        270 8.1154e+01 0.0000e+00
      1.451    13.4454     7.5990     72.748  28.828950     37.466      6.753   282.1003     4.4319     3.8041     0.0209      0.064      1.418      2.056        271 7.4491e+01 0.0000e+00
      1.479    13.4396     7.6091     72.840  28.872359     37.545      6.747   282.3274     4.4399     3.9249     0.0209      0.089      1.447      2.098        272 7.6389e+01 0.0000e+00
      1.497    13.4339     7.6234     72.975  28.820212     37.481      6.739   282.1760     4.5330     3.8981     0.0209      0.114      1.467      2.128        273 7.2443e+01 0.0000e+00
      1.514    13.4228     7.6464     73.195  28.775254     37.414      6.741   282.1003     4.5410     3.9786     0.0209      0.128      1.486      2.157        274 6.7703e+01 0.0000e+00
      1.538    13.4122     7.6550     73.277  28.809715     37.492      6.741   282.5924     4.5532     3.9249     0.0209      0.130      1.511      2.192        275 6.9081e+01 0.0000e+00
      1.571    13.4017     7.6595     73.321  28.777330     37.431      6.745   282.3274     4.5289     3.8981     0.0209      0.121      1.541      2.235        276 6.5854e+01 0.0000e+00
      1.605    13.3915     7.6590     73.308  28.756263     37.441      6.750   282.5924     4.5330     3.9249     0.0209      0.111      1.572      2.281        277 6.4550e+01 0.0000e+00
      1.635    13.3875     7.6603     73.305  28.717341     37.378      6.749   282.7439     4.6219     3.9921     0.0209      0.104      1.600      2.321        278 5.9336e+01 0.0000e+00
      1.656    13.3863     7.6601     73.295  28.766474     37.461      6.753   283.0089     4.6462     3.9518     0.0209      0.102      1.623      2.354        279 5.7475e+01 0.0000e+00
      1.675    13.3857     7.6586     73.275  28.813718     37.537      6.749   282.4410     4.6098     3.9249     0.0209      0.103      1.642      2.382        280 5.5997e+01 0.0000e+00
      1.693    13.3850     7.6509     73.199  28.777145     37.466      6.747   283.1603     4.6098     3.9115     0.0209      0.103      1.659      2.407        281 5.2136e+01 0.0000e+00
      1.709    13.3824     7.6484     73.172  28.811989     37.539      6.745   282.7060     4.8524     3.8712     0.0209      0.098      1.677      2.432        282 5.1576e+01 0.0000e+00
      1.729    13.3809     7.6519     73.202  28.711059     37.394      6.749   283.0089     4.8403     3.9652     0.0209      0.091      1.697      2.462        283 4.8981e+01 0.0000e+00
      1.755    13.3807     7.6552     73.229  28.665562     37.324      6.751   283.1603     4.8928     4.0055     0.0208      0.085      1.720      2.495        284 4.6995e+01 0.0000e+00
      1.777    13.3806     7.6540     73.214  28.720366     37.435      6.749   283.0089     4.8362     3.9384     0.0209      0.080      1.742      2.528        285 4.5546e+01 0.0000e+00
      1.799    13.3807     7.6594     73.264  28.731803     37.399      6.753   282.4410     4.6502     3.9652     0.0209      0.080      1.765      2.560        286 4.4672e+01 0.0000e+00
      1.823    13.3760     7.6610     73.276  28.740275     37.472      6.755   283.0846     4.6987     4.0055     0.0209      0.082      1.787      2.592        287 4.4104e+01 0.0000e+00
      1.844    13.3672     7.6674     73.333  28.680175     37.326      6.756   282.8574     4.7149     3.9518     0.0208      0.085      1.810      2.626        288 4.1789e+01 0.0000e+00
      1.872    13.3615     7.6781     73.428  28.747300     37.476      6.758   283.0467     4.6987     4.0055     0.0209      0.088      1.837      2.665        289 3.9997e+01 0.0000e+00
      1.906    13.3587     7.6785     73.395  28.775335     37.485      6.755   283.5767     4.5613     3.8981     0.0209      0.094      1.871      2.713        290 3.7820e+01 0.0000e+00
      1.946    13.3565     7.6868     73.384  28.704586     37.417      6.752   283.2360     4.5693     3.9384     0.0209      0.101      1.906      2.765        291 3.5602e+01 0.0000e+00
      1.980    13.3547     7.6897     73.330  28.746402     37.457      6.746   283.5767     4.5491     3.9384     0.0209      0.109      1.939      2.813        292 3.4475e+01 0.0000e+00
      2.007    13.3524     7.6917     73.291  28.752946     37.495      6.742   283.9932     4.5330     3.9652     0.0209      0.116      1.965      2.851        293 3.3816e+01 0.0000e+00
      2.026    13.3499     7.6815     73.153  28.666797     37.351      6.739   283.8796     4.7877     3.9518     0.0208      0.118      1.984      2.879        294 3.2960e+01 0.0000e+00
      2.039    13.3477     7.6743     73.060  28.705371     37.426      6.736   284.1824     4.7756     3.9249     0.0209      0.115      1.997      2.897        295 3.2713e+01 0.0000e+00
      2.045    13.3464     7.6624     72.936  28.704940     37.429      6.736   283.6903     4.7998     3.9249     0.0209      0.105      2.007      2.911        296 3.2156e+01 0.0000e+00
      2.057    13.3453     7.6619     72.927  28.667334     37.358      6.735   283.8417     4.7837     3.9518     0.0208      0.091      2.020      2.928        297 3.0815e+01 0.0000e+00
      2.075    13.3423     7.6601     72.904  28.722524     37.469      6.736   284.1446     4.7594     3.8846     0.0209      0.076      2.036      2.952        298 3.0287e+01 0.0000e+00
      2.094    13.3377     7.6495     72.787  28.725204     37.433      6.740   283.9174     4.7756     3.9249     0.0209      0.065      2.056      2.982        299 2.9810e+01 0.0000e+00
      2.120    13.3140     7.6453     72.716  28.693647     37.436      6.744   283.9553     4.7837     3.9518     0.0209      0.061      2.081      3.018        300 2.8872e+01 0.0000e+00
      2.152    13.2608     7.6376     72.589  28.613553     37.295      6.747   284.2582     4.7917     3.9518     0.0208      0.065      2.110      3.060        301 2.7675e+01 0.0000e+00
      2.183    13.2095     7.6361     72.463  28.646992     37.390      6.746   284.0689     4.8120     3.9786     0.0208      0.075      2.140      3.103        302 2.6760e+01 0.0000e+00
      2.211    13.1746     7.6251     72.273  28.652045     37.443      6.748   284.5610     4.7513     3.8981     0.0208      0.087      2.166      3.142        303 2.5672e+01 0.0000e+00
      2.233    13.1491     7.6093     72.047  28.607284     37.420      6.742   284.8639     4.7311     3.9518     0.0208      0.097      2.188      3.174        304 2.4902e+01 0.0000e+00
      2.251    13.1342     7.6017     71.901  28.673067     37.564      6.740   284.7503     4.7230     3.8981     0.0208      0.101      2.206      3.200        305 2.4431e+01 0.0000e+00
      2.265    13.1281     7.5792     71.676  28.659139     37.553      6.743   285.1289     4.7351     3.9249     0.0208      0.099      2.221      3.222        306 2.3564e+01 0.0000e+00
      2.279    13.1247     7.5744     71.634  28.654276     37.567      6.740   285.2424     4.6947     3.9249     0.0208      0.093      2.236      3.243        307 2.2995e+01 0.0000e+00
      2.296    13.1216     7.5703     71.571  28.708774     37.647      6.738   285.1667     4.6462     3.9518     0.0209      0.084      2.253      3.267        308 2.2270e+01 0.0000e+00
      2.316    13.1106     7.5792     71.622  28.650618     37.576      6.740   285.0532     4.6907     3.9518     0.0208      0.076      2.274      3.297        309 2.1622e+01 0.0000e+00
      2.342    13.0934     7.5893     71.695  28.608057     37.507      6.745   284.9396     4.6826     3.9786     0.0208      0.072      2.300      3.335        310 2.0843e+01 0.0000e+00
      2.375    13.0576     7.6034     71.814  28.672796     37.626      6.743   284.8639     4.6300     4.0055     0.0208      0.075      2.332      3.382        311 1.9516e+01 0.0000e+00
      2.417    12.9918     7.6112     71.875  28.659001     37.608      6.744   285.2803     4.5977     3.9652     0.0208      0.085      2.369      3.436        312 1.8517e+01 0.0000e+00
      2.454    12.9369     7.6174     71.911  28.654879     37.641      6.742   285.6210     4.5855     3.9384     0.0208      0.098      2.404      3.486        313 1.7748e+01 0.0000e+00
      2.482    12.8894     7.6263     71.979  28.707591     37.783      6.736   285.8103     4.6098     3.9518     0.0209      0.111      2.434      3.529        314 1.7124e+01 0.0000e+00
      2.510    12.8451     7.6272     71.970  28.712022     37.836      6.732   285.5453     3.8496     3.9384     0.0209      0.120      2.460      3.568        315 1.6501e+01 0.0000e+00
      2.533    12.8362     7.6388     72.032  28.708684     37.884      6.728   284.9774     3.8374     3.9786     0.0209      0.123      2.483      3.601        316 1.5991e+01 0.0000e+00
      2.552    12.8385     7.6419     72.017  28.711764     37.929      6.732   284.5610     3.8496     3.8981     0.0209      0.121      2.503      3.630        317 1.5488e+01 0.0000e+00
      2.572    12.8233 -9.990e-29 -9.990e-29  28.737854     37.974      6.733   284.8639     3.8415     3.9249     0.0209      0.114      2.520      3.656        318 1.4957e+01 0.0000e+00
      2.586    12.8032 -9.990e-29 -9.990e-29  28.765168     38.008      6.734   284.7882     3.8253     3.8981     0.0209      0.102      2.533      3.675        319 1.4853e+01 0.0000e+00
      2.592    12.7889 -9.990e-29 -9.990e-29  28.707421     37.950      6.733   285.1289     3.7606     3.7369     0.0209      0.086      2.541      3.686        320 1.4749e+01 0.0000e+00
      2.596    12.7798 -9.990e-29 -9.990e-29  28.780076     38.044      6.735   285.1289     3.7889     3.6832     0.0209      0.071      2.545      3.692        321 1.4754e+01 0.0000e+00
      2.599    12.7715 -9.990e-29 -9.990e-29  28.674759     37.984      6.734   285.1289     3.7687     3.7369     0.0209      0.057      2.549      3.697        322 1.4802e+01 0.0000e+00
      2.603    12.7587 -9.990e-29 -9.990e-29  28.779194     37.994      6.738   285.1289     3.7849     3.8041     0.0209      0.044      2.553      3.703        323 1.4803e+01 0.0000e+00
      2.608    12.7480 -9.990e-29 -9.990e-29  28.650112     38.075      6.738   285.5074     4.3025     3.7369     0.0209      0.034      2.558      3.710        324 1.5018e+01 0.0000e+00
      2.614    12.7378 -9.990e-29 -9.990e-29  28.953999     38.089      6.744   285.3182     4.2944     3.8578     0.0209      0.026      2.565      3.720        325 1.4998e+01 0.0000e+00
      2.624    12.7071 -9.990e-29 -9.990e-29  28.460315     38.100      6.743   285.2803     4.3025     3.7235     0.0209      0.022      2.573      3.732        326 1.4658e+01 0.0000e+00
      2.634    12.6831 -9.990e-29 -9.990e-29  27.426345     35.815      6.743   285.4696     4.2863     3.7235     0.0199      0.022      2.582      3.745        327 1.4521e+01 0.0000e+00
      2.641 -9.990e-29 -9.990e-29 -9.990e-29  28.402611     38.140      6.745   285.3182     4.1003     3.8175     0.0209      0.024      2.588      3.753        328 1.4542e+01 0.0000e+00
      2.641 -9.990e-29 -9.990e-29 -9.990e-29  29.142830     38.242      6.745   285.1289     4.1084     3.7101     0.0209      0.025      2.590      3.755        329 1.4511e+01 0.0000e+00
