* Sea-Bird SBE19plus  Data File:
* FileName = C:\DATA\101518_fcr_0017.hex
* Software version 2.6.3.104
* Temperature SN = 7809
* Conductivity SN = 7809
* System UpLoad Time = Oct 29 2018 16:41:46
* <ApplicationData>
* <Seaterm232>
* <SoftwareVersion>2.6.3.104</SoftwareVersion>
* <BuildDate>30-Jun-2017</BuildDate>
* </Seaterm232>
* </ApplicationData>
* <InstrumentState>
* <HardwareData DeviceType='SBE19plus' SerialNumber='01907809'>
*
*    <Manufacturer>Sea-Bird Electronics, Inc.</Manufacturer>
*
*    <FirmwareVersion>3.1.8</FirmwareVersion>
*
*    <FirmwareDate>Mar  9 2016 16:22:29</FirmwareDate>
*
*    <CommandSetVersion>1.4</CommandSetVersion>
*
*    <PCBAssembly PCBSerialNum='120721' AssemblyNum='41054J'/>
*
*    <PCBAssembly PCBSerialNum='120715' AssemblyNum='41967A'/>
*
*    <PCBAssembly PCBSerialNum='116699' AssemblyNum='41606'/>
*
*    <PCBAssembly PCBSerialNum='120719' AssemblyNum='41059D'/>
*
*    <MfgDate>28-Apr-2017</MfgDate>
*
*    <InternalSensors>
*
*       <Sensor id='Main Temperature'>
*
*          <type>temperature0</type>
*
*          <SerialNumber>01907809</SerialNumber>
*
*       </Sensor>
*
*       <Sensor id='Main Conductivity'>
*
*          <type>conductivity-0</type>
*
*          <SerialNumber>01907809</SerialNumber>
*
*       </Sensor>
*
*       <Sensor id='Main Pressure'>
*
*          <type>strain-0</type>
*
*          <SerialNumber>10586018</SerialNumber>
*
*       </Sensor>
*
*    </InternalSensors>
*
*    <ExternalSensors>
*
*       <Sensor id='volt 0'>
*
*          <type>pH</type>
*
*          <SerialNumber>27-0363</SerialNumber>
*
*       </Sensor>
*
*       <Sensor id='volt 1'>
*
*          <type>ORP</type>
*
*          <SerialNumber>27-0363</SerialNumber>
*
*       </Sensor>
*
*       <Sensor id='volt 2'>
*
*          <type>OXY</type>
*
*          <SerialNumber>43-0434</SerialNumber>
*
*       </Sensor>
*
*       <Sensor id='volt 3'>
*
*          <type>PAR</type>
*
*          <SerialNumber>1122</SerialNumber>
*
*       </Sensor>
*
*       <Sensor id='volt 4'>
*
*          <type>ECO AFL/FL</type>
*
*          <SerialNumber>FLNTURT-2496</SerialNumber>
*
*       </Sensor>
*
*       <Sensor id='volt 5'>
*
*          <type>ECO-NTU</type>
*
*          <SerialNumber>FLNTURT-2496</SerialNumber>
*
*       </Sensor>
*
*       <Sensor id='serial'>
*
*          <type>not assigned</type>
*
*          <SerialNumber>not assigned</SerialNumber>
*
*       </Sensor>
*
*    </ExternalSensors>
*
* </HardwareData>
* <StatusData DeviceType='SBE19plus' SerialNumber='01907809'>
*
*    <DateTime>2018-10-29T20:36:07</DateTime>
*
*    <LoggingState>not logging</LoggingState>
*
*    <EventSummary numEvents='0'/>
*
*    <Power>
*
*       <vMain>12.7</vMain>
*
*       <vLith>8.4</vLith>
*
*       <iMain>63.3</iMain>
*
*       <iPump>138.1</iPump>
*
*       <iExt01>14.7</iExt01>
*
*       <iExt2345>45.2</iExt2345>
*
*    </Power>
*
*    <MemorySummary>
*
*       <Bytes>262706</Bytes>
*
*       <Samples>11422</Samples>
*
*       <SamplesFree>2849366</SamplesFree>
*
*       <SampleLength>23</SampleLength>
*
*       <Profiles>17</Profiles>
*
*    </MemorySummary>
*
* </StatusData>
* <ConfigurationData DeviceType='SBE19plus' SerialNumber='01907809'>
*
*    <ProfileMode>
*
*       <ScansToAverage>1</ScansToAverage>
*
*       <MinimumCondFreq>5</MinimumCondFreq>
*
*       <PumpDelay>45</PumpDelay>
*
*       <AutoRun>no</AutoRun>
*
*       <IgnoreSwitch>no</IgnoreSwitch>
*
*    </ProfileMode>
*
*    <Battery>
*
*       <Type>alkaline</Type>
*
*       <CutOff>7.5</CutOff>
*
*    </Battery>
*
*    <DataChannels>
*
*       <ExtVolt0>yes</ExtVolt0>
*
*       <ExtVolt1>yes</ExtVolt1>
*
*       <ExtVolt2>yes</ExtVolt2>
*
*       <ExtVolt3>yes</ExtVolt3>
*
*       <ExtVolt4>yes</ExtVolt4>
*
*       <ExtVolt5>yes</ExtVolt5>
*
*       <SBE38>no</SBE38>
*
*       <WETLABS>no</WETLABS>
*
*       <OPTODE>no</OPTODE>
*
*       <SBE63>no</SBE63>
*
*       <SeaFET>no</SeaFET>
*
*       <GTD>no</GTD>
*
*    </DataChannels>
*
*    <EchoCharacters>yes</EchoCharacters>
*
*    <OutputExecutedTag>yes</OutputExecutedTag>
*
*    <OutputFormat>raw HEX</OutputFormat>
*
* </ConfigurationData>
* <CalibrationCoefficients DeviceType='SBE19plus' SerialNumber='01907809'>
*
*    <Calibration format='TEMP1' id='Main Temperature'>
*
*       <SerialNum>01907809</SerialNum>
*
*       <CalDate>09-Mar-18</CalDate>
*
*       <TA0>1.210932e-03</TA0>
*
*       <TA1>2.843566e-04</TA1>
*
*       <TA2>-1.945074e-06</TA2>
*
*       <TA3>2.128067e-07</TA3>
*
*       <TOFFSET>0.000000e+00</TOFFSET>
*
*    </Calibration>
*
*    <Calibration format='WBCOND0' id='Main Conductivity'>
*
*       <SerialNum>01907809</SerialNum>
*
*       <CalDate>09-Mar-18</CalDate>
*
*       <G>-1.006721e+00</G>
*
*       <H>1.269065e-01</H>
*
*       <I>-1.405844e-04</I>
*
*       <J>2.478371e-05</J>
*
*       <CPCOR>-9.570000e-08</CPCOR>
*
*       <CTCOR>3.250000e-06</CTCOR>
*
*       <CSLOPE>1.000000e+00</CSLOPE>
*
*    </Calibration>
*
*    <Calibration format='STRAIN0' id='Main Pressure'>
*
*       <SerialNum>10586018</SerialNum>
*
*       <CalDate>07-Mar-18</CalDate>
*
*       <PA0>-4.081764e-02</PA0>
*
*       <PA1>4.851884e-04</PA1>
*
*       <PA2>-3.511682e-12</PA2>
*
*       <PTCA0>5.252134e+05</PTCA0>
*
*       <PTCA1>1.795324e+00</PTCA1>
*
*       <PTCA2>-2.843535e-01</PTCA2>
*
*       <PTCB0>2.516687e+01</PTCB0>
*
*       <PTCB1>3.750000e-04</PTCB1>
*
*       <PTCB2>0.000000e+00</PTCB2>
*
*       <PTEMPA0>-5.378069e+01</PTEMPA0>
*
*       <PTEMPA1>5.366207e+01</PTEMPA1>
*
*       <PTEMPA2>4.872143e-02</PTEMPA2>
*
*       <POFFSET>5.000000e-01</POFFSET>
*
*       <PRANGE>1.600000e+02</PRANGE>
*
*    </Calibration>
*
*    <Calibration format='VOLT0' id='Volt 0'>
*
*       <OFFSET>-4.920000e-02</OFFSET>
*
*       <SLOPE>1.248122e+00</SLOPE>
*
*    </Calibration>
*
*    <Calibration format='VOLT0' id='Volt 1'>
*
*       <OFFSET>-4.784000e-02</OFFSET>
*
*       <SLOPE>1.248871e+00</SLOPE>
*
*    </Calibration>
*
*    <Calibration format='VOLT0' id='Volt 2'>
*
*       <OFFSET>-4.864632e-02</OFFSET>
*
*       <SLOPE>1.248714e+00</SLOPE>
*
*    </Calibration>
*
*    <Calibration format='VOLT0' id='Volt 3'>
*
*       <OFFSET>-4.743790e-02</OFFSET>
*
*       <SLOPE>1.248571e+00</SLOPE>
*
*    </Calibration>
*
*    <Calibration format='VOLT0' id='Volt 4'>
*
*       <OFFSET>-4.671263e-02</OFFSET>
*
*       <SLOPE>1.248951e+00</SLOPE>
*
*    </Calibration>
*
*    <Calibration format='VOLT0' id='Volt 5'>
*
*       <OFFSET>-4.871053e-02</OFFSET>
*
*       <SLOPE>1.249136e+00</SLOPE>
*
*    </Calibration>
*
*    <Calibration format='FREQ0' id='external frequency channel'>
*
*       <EXTFREQSF>1.000014e+00</EXTFREQSF>
*
*    </Calibration>
*
* </CalibrationCoefficients>
* <EventCounters DeviceType='SBE19plus' SerialNumber='01907809'>
*
*    <EventSummary numEvents='0'/>
*
* </EventCounters></InstrumentState>
* <Headers>
*
* cast  17 29 Oct 2018 15:36:16 samples 10629 to 11422, avg = 1, stop = mag switch
*
# nquan = 17
# nvalues = 695                         
# units = specified
# name 0 = depFM: Depth [fresh water, m]
# name 1 = tv290C: Temperature [ITS-90, deg C]
# name 2 = sbeox0Mg/L: Oxygen, SBE 43 [mg/l]
# name 3 = sbeox0PS: Oxygen, SBE 43 [% saturation]
# name 4 = c0uS/cm: Conductivity [uS/cm]
# name 5 = specc: Specific Conductance [uS/cm]
# name 6 = ph: pH
# name 7 = orp: Oxidation Reduction Potential [mV]
# name 8 = flECO-AFL: Fluorescence, WET Labs ECO-AFL/FL [mg/m^3]
# name 9 = turbWETntu0: Turbidity, WET Labs ECO [NTU]
# name 10 = sal00: Salinity, Practical [PSU]
# name 11 = dz/dtM: Descent Rate [m/s]
# name 12 = prdM: Pressure, Strain Gauge [db]
# name 13 = prdE: Pressure, Strain Gauge [psi]
# name 14 = scan: Scan Count
# name 15 = par/sat/log: PAR/Logarithmic, Satlantic
# name 16 = flag:  0.000e+00
# span 0 =     -0.615,      9.687       
# span 1 =    11.0905,    12.4389       
# span 2 =     5.4846,    10.7004       
# span 3 =     51.075,     99.976       
# span 4 =   0.741854,  35.864599       
# span 5 =      1.005,     48.975       
# span 6 =      5.786,      8.112       
# span 7 =    -9.6655,  1240.2295       
# span 8 =    -0.2143,     2.5394       
# span 9 =    -0.3183,    13.7676       
# span 10 =     0.0059,     0.0253      
# span 11 =     -0.216,      0.281      
# span 12 =     -0.602,      9.498      
# span 13 =     -0.874,     13.776      
# span 14 =          1,        695      
# span 15 = 1.2202e-01, 1.8927e+02      
# span 16 = 0.0000e+00, 0.0000e+00      
# interval = seconds: 0.25
# start_time = Oct 29 2018 15:36:16 [Instrument's time stamp, header]
# bad_flag = -9.990e-29
# <Sensors count="9" >
#   <sensor Channel="1" >
#     <!-- Count, Temperature -->
#     <TemperatureSensor SensorID="58" >
#       <SerialNumber>7809</SerialNumber>
#       <CalibrationDate>09-Mar-18</CalibrationDate>
#       <A0>1.21093245e-003</A0>
#       <A1>2.84356597e-004</A1>
#       <A2>-1.94507398e-006</A2>
#       <A3>2.12806664e-007</A3>
#       <Slope>1.00000000</Slope>
#       <Offset>0.0000</Offset>
#     </TemperatureSensor>
#   </sensor>
#   <sensor Channel="2" >
#     <!-- Frequency 0, Conductivity -->
#     <ConductivitySensor SensorID="3" >
#       <SerialNumber>7809</SerialNumber>
#       <CalibrationDate>09-Mar-18</CalibrationDate>
#       <UseG_J>1</UseG_J>
#       <!-- Cell const and series R are applicable only for wide range sensors. -->
#       <SeriesR>0.0000</SeriesR>
#       <CellConst>2000.0000</CellConst>
#       <ConductivityType>0</ConductivityType>
#       <Coefficients equation="0" >
#         <A>0.00000000e+000</A>
#         <B>0.00000000e+000</B>
#         <C>0.00000000e+000</C>
#         <D>0.00000000e+000</D>
#         <M>0.0</M>
#         <CPcor>-9.57000000e-008</CPcor>
#       </Coefficients>
#       <Coefficients equation="1" >
#         <G>-1.00672082e+000</G>
#         <H>1.26906489e-001</H>
#         <I>-1.40584351e-004</I>
#         <J>2.47837121e-005</J>
#         <CPcor>-9.57000000e-008</CPcor>
#         <CTcor>3.2500e-006</CTcor>
#         <!-- WBOTC not applicable unless ConductivityType = 1. -->
#         <WBOTC>0.00000000e+000</WBOTC>
#       </Coefficients>
#       <Slope>1.00000000</Slope>
#       <Offset>0.00000</Offset>
#     </ConductivitySensor>
#   </sensor>
#   <sensor Channel="3" >
#     <!-- Count, Pressure, Strain Gauge -->
#     <PressureSensor SensorID="46" >
#       <SerialNumber>7809</SerialNumber>
#       <CalibrationDate>07-Mar-18</CalibrationDate>
#       <PA0>-4.08176359e-002</PA0>
#       <PA1>4.85188419e-004</PA1>
#       <PA2>-3.51168169e-012</PA2>
#       <PTEMPA0>-5.37806900e+001</PTEMPA0>
#       <PTEMPA1>5.36620721e+001</PTEMPA1>
#       <PTEMPA2>4.87214332e-002</PTEMPA2>
#       <PTCA0>5.25213435e+005</PTCA0>
#       <PTCA1>1.79532409e+000</PTCA1>
#       <PTCA2>-2.84353509e-001</PTCA2>
#       <PTCB0>2.51668750e+001</PTCB0>
#       <PTCB1>3.75000000e-004</PTCB1>
#       <PTCB2>0.00000000e+000</PTCB2>
#       <Offset>0.000000</Offset>
#     </PressureSensor>
#   </sensor>
#   <sensor Channel="4" >
#     <!-- A/D voltage 0, pH -->
#     <pH_Sensor SensorID="43" >
#       <SerialNumber>0363</SerialNumber>
#       <CalibrationDate>16-Mar-18</CalibrationDate>
#       <Slope>4.6194</Slope>
#       <Offset>2.5947</Offset>
#     </pH_Sensor>
#   </sensor>
#   <sensor Channel="5" >
#     <!-- A/D voltage 1, Oxidation Reduction Potential -->
#     <OxidationReductionPotentialSensor SensorID="41" >
#       <SerialNumber>0363</SerialNumber>
#       <CalibrationDate>16-Mar-18</CalibrationDate>
#       <B>2.499480</B>
#       <M>-0.496195</M>
#       <Offset>0.0</Offset>
#     </OxidationReductionPotentialSensor>
#   </sensor>
#   <sensor Channel="6" >
#     <!-- A/D voltage 2, Oxygen, SBE 43 -->
#     <OxygenSensor SensorID="38" >
#       <SerialNumber>0434</SerialNumber>
#       <CalibrationDate>13-Mar-18</CalibrationDate>
#       <Use2007Equation>1</Use2007Equation>
#       <CalibrationCoefficients equation="0" >
#         <!-- Coefficients for Owens-Millard equation. -->
#         <Boc>0.0000</Boc>
#         <Soc>0.0000e+000</Soc>
#         <offset>0.0000</offset>
#         <Pcor>0.00e+000</Pcor>
#         <Tcor>0.0000</Tcor>
#         <Tau>0.0</Tau>
#       </CalibrationCoefficients>
#       <CalibrationCoefficients equation="1" >
#         <!-- Coefficients for Sea-Bird equation - SBE calibration in 2007 and later. -->
#         <Soc>4.5718e-001</Soc>
#         <offset>-0.6113</offset>
#         <A>-4.0649e-003</A>
#         <B> 2.0945e-004</B>
#         <C>-3.3182e-006</C>
#         <D0> 2.5826e+000</D0>
#         <D1> 1.92634e-004</D1>
#         <D2>-4.64803e-002</D2>
#         <E> 3.6000e-002</E>
#         <Tau20> 1.2200</Tau20>
#         <H1>-3.3000e-002</H1>
#         <H2> 5.0000e+003</H2>
#         <H3> 1.4500e+003</H3>
#       </CalibrationCoefficients>
#     </OxygenSensor>
#   </sensor>
#   <sensor Channel="7" >
#     <!-- A/D voltage 3, PAR/Logarithmic, Satlantic -->
#     <PARLog_SatlanticSensor SensorID="76" >
#       <SerialNumber>1122</SerialNumber>
#       <CalibrationDate>22-Jun-2017</CalibrationDate>
#       <a0>9.6090e-001</a0>
#       <a1>8.0780e-001</a1>
#       <Im>1.3589e+000</Im>
#       <Multiplier>1.0000e+000</Multiplier>
#     </PARLog_SatlanticSensor>
#   </sensor>
#   <sensor Channel="8" >
#     <!-- A/D voltage 4, Fluorometer, WET Labs ECO-AFL/FL -->
#     <FluoroWetlabECO_AFL_FL_Sensor SensorID="20" >
#       <SerialNumber>FLNTURT-2496</SerialNumber>
#       <CalibrationDate>25-Jan-2017</CalibrationDate>
#       <ScaleFactor>5.30000000e+001</ScaleFactor>
#       <!-- Dark output -->
#       <Vblank>0.0560</Vblank>
#     </FluoroWetlabECO_AFL_FL_Sensor>
#   </sensor>
#   <sensor Channel="9" >
#     <!-- A/D voltage 5, Turbidity Meter, WET Labs, ECO-NTU -->
#     <TurbidityMeter SensorID="67" >
#       <SerialNumber>FLNTURT-2496</SerialNumber>
#       <CalibrationDate>25-Jan-2017</CalibrationDate>
#       <ScaleFactor>176.000000</ScaleFactor>
#       <!-- Dark output -->
#       <DarkVoltage>0.072000</DarkVoltage>
#     </TurbidityMeter>
#   </sensor>
# </Sensors>
# datcnv_date = Oct 29 2018 16:48:41, 7.26.7.114 [datcnv_vars = 16]
# datcnv_in = C:\DATA\102918_fcr50.hex C:\DATA\SBE19plusV2_7809.xmlcon
# datcnv_skipover = 0
# datcnv_ox_hysteresis_correction = yes
# datcnv_ox_tau_correction = yes
# filter_date = Oct 29 2018 16:49:04, 7.26.7.114
# filter_in = C:\DATA\102918_fcr50.cnv
# filter_low_pass_tc_A = 0.030
# filter_low_pass_tc_B = 0.150
# filter_low_pass_A_vars = tv290C c0uS/cm par/sat/log
# filter_low_pass_B_vars = prdM prdE
# alignctd_date = Oct 29 2018 16:49:26, 7.26.7.114
# alignctd_in = C:\DATA\102918_fcr50.cnv
# alignctd_adv = tv290C 0.500, sbeox0Mg/L 3.000, sbeox0PS 3.000                                                                                                                                                                      
# file_type = ascii
*END*
     -0.615    11.4613    10.6584     96.904   0.741854      1.005      5.830   308.6382    -0.1698    -0.1840     0.0060 -2.105e-16     -0.602     -0.874          1 8.4694e+01 0.0000e+00
     -0.613    11.4508    10.6656     96.933   0.747485      1.043      5.802   505.9502    -0.1941    -0.2646     0.0060      0.001     -0.602     -0.873          2 7.2530e+01 0.0000e+00
     -0.614    11.4180    10.6664     96.937   0.808975      1.081      5.786   584.9204    -0.1981    -0.3183     0.0060      0.001     -0.602     -0.873          3 7.7412e+01 0.0000e+00
     -0.613    11.3721    10.6372     96.956   0.902194      1.273      5.990    -9.6655    -0.2143    -0.3183     0.0060      0.001     -0.601     -0.872          4 8.3568e+01 0.0000e+00
     -0.613    11.3226    10.5599     96.997   0.897945      1.197      6.087    95.8805    -0.1860    -0.1974     0.0060      0.001     -0.601     -0.872          5 8.5902e+01 0.0000e+00
     -0.614    11.2740    10.4963     96.962   0.903085      1.276      6.140   138.4699    -0.1779    -0.2377     0.0060      0.001     -0.602     -0.873          6 9.0999e+01 0.0000e+00
     -0.614    11.2260    10.4464     96.914   0.955015      1.277      6.184   196.0129    -0.1941    -0.2243     0.0059      0.001     -0.602     -0.873          7 9.2094e+01 0.0000e+00
     -0.613    11.1861    10.4150     96.940   0.951754      1.356      6.186   275.7024    -0.1334     0.0174     0.0059      0.001     -0.601     -0.872          8 9.5304e+01 0.0000e+00
     -0.613    11.1557    10.4007     97.011   1.144008      1.512      6.188   160.1242    -0.1011     0.0308     0.0059      0.001     -0.601     -0.872          9 9.9951e+01 0.0000e+00
     -0.614    11.1321    10.4110     97.219   1.130273      1.668      6.199   304.5118    -0.1496    -0.0632     0.0059      0.000     -0.601     -0.872         10 9.9138e+01 0.0000e+00
     -0.613    11.1096    10.4276     97.438   1.324148      1.669      6.200   330.4440    -0.1213     0.0174     0.0059      0.000     -0.601     -0.872         11 9.8810e+01 0.0000e+00
     -0.614    11.0959    10.4662     97.831   1.080387      1.748      6.206   363.6448    -0.1496     0.0040     0.0059     -0.000     -0.601     -0.872         12 1.1417e+02 0.0000e+00
     -0.614    11.0905    10.5200     98.338   1.759326      2.019      6.208   333.3590    -0.0849     0.1114     0.0060     -0.000     -0.601     -0.871         13 1.3724e+02 0.0000e+00
     -0.615    11.2269    10.5762     98.864   0.893741      1.943      6.219   370.3834    -0.1011     0.1785     0.0060     -0.000     -0.589     -0.854         14 1.5889e+02 0.0000e+00
     -0.575    11.5424    10.6230     99.307   4.940985      5.460      6.951  1240.2295    -0.0485     0.1651     0.0070      0.010     -0.545     -0.791         15 1.7003e+02 0.0000e+00
     -0.477    11.8029    10.6666     99.705  21.012927     30.108      7.364   242.5395    -0.0566     0.2322     0.0168      0.043     -0.465     -0.674         16 1.7174e+02 0.0000e+00
     -0.374    11.9840    10.7004     99.976  29.630414     40.303      7.645   233.1509    -0.0728    13.7273     0.0213      0.094     -0.372     -0.539         17 1.6826e+02 0.0000e+00
     -0.289    12.1320    10.6191     99.164  28.740191     39.158      7.811   230.8794    -0.0566    13.6602     0.0209      0.152     -0.290     -0.420         18 1.4874e+02 0.0000e+00
     -0.224    12.2229    10.4697     97.726  28.701489     38.733      7.918   228.5701    -0.0566    13.5930     0.0208      0.206     -0.223     -0.322         19 1.2046e+02 0.0000e+00
     -0.167    12.2754    10.3645     96.730  28.492534     38.394      7.987   222.3237    -0.0728    13.7676     0.0208      0.249     -0.166     -0.240         20 9.5611e+01 0.0000e+00
     -0.115    12.3034    10.2088     95.293  28.466500     38.223      8.051   233.7944     1.2940     3.3341     0.0207      0.277     -0.118     -0.169         21 8.6492e+01 0.0000e+00
     -0.076    12.3187     9.9535     92.929  28.467015     38.171      8.099   223.3458     1.2697     3.3207     0.0207      0.281     -0.078     -0.112         22 8.1486e+01 0.0000e+00
     -0.045    12.3205     9.6050     89.685  28.551170     38.291      8.112   233.0373     1.2738     3.3341     0.0208      0.259     -0.048     -0.070         23 6.2195e+01 0.0000e+00
     -0.026    12.3209     9.1960     85.866  28.480352     38.126      8.090   225.4280     1.2414     3.4012     0.0207      0.217     -0.030     -0.043         24 5.1738e+01 0.0000e+00
     -0.020    12.3236     8.8002     82.167  28.495843     38.199      8.040   232.0909     1.4194     3.3207     0.0208      0.173     -0.021     -0.031         25 5.5968e+01 0.0000e+00
     -0.018    12.3185     8.4481     78.867  28.472594     38.124      7.976   236.5202     1.4274     3.3475     0.0207      0.134     -0.018     -0.026         26 5.3263e+01 0.0000e+00
     -0.016    12.2993     8.1325     75.917  28.449988     38.121      7.926   236.5202     1.4234     3.3207     0.0207      0.099     -0.017     -0.025         27 5.1380e+01 0.0000e+00
     -0.019    12.2759     7.8516     73.290  28.464678     38.126      7.876   234.5137     1.3991     3.3207     0.0207      0.067     -0.018     -0.026         28 5.3479e+01 0.0000e+00
     -0.021    12.2567     7.6526     71.422  28.395018     38.071      7.823   233.8323     1.4032     3.4415     0.0207      0.040     -0.018     -0.025         29 5.4172e+01 0.0000e+00
     -0.012    12.2504     7.5269     70.233  28.358793     38.020      7.783   233.8323     1.3910     3.4012     0.0207      0.023     -0.011     -0.015         30 5.5938e+01 0.0000e+00
      0.000    12.2574     7.4700     69.683  28.391174     38.115      7.754   235.2709     1.4153     3.3878     0.0207      0.014     -0.002     -0.002         31 4.7367e+01 0.0000e+00
      0.006    12.2666     7.4345     69.336  28.414025     38.122      7.724   234.9680     1.3830     3.3475     0.0207      0.013      0.005      0.008         32 4.2557e+01 0.0000e+00
      0.011    12.2712     7.3938     68.942  28.508248     38.264      7.688   235.6873     1.4194     3.3610     0.0208      0.015      0.011      0.017         33 4.9263e+01 0.0000e+00
      0.019    12.2718     7.3339     68.374  28.511101     38.255      7.660   233.6430     1.3789     3.4012     0.0208      0.019      0.022      0.032         34 5.2557e+01 0.0000e+00
      0.038    12.2690     7.2714     67.784  28.469768     38.175      7.629   233.7944     1.3385     3.3475     0.0207      0.027      0.041      0.060         35 4.7726e+01 0.0000e+00
      0.071    12.2632     7.2177     67.278  28.500387     38.250      7.587   228.7216     1.3304     3.2938     0.0208      0.040      0.066      0.096         36 4.0504e+01 0.0000e+00
      0.092    12.2600     7.1651     66.783  28.472997     38.177      7.526   234.1352     1.3021     3.3475     0.0207      0.052      0.084      0.122         37 3.4387e+01 0.0000e+00
      0.094    12.2573     7.1463     66.604  28.503857     38.258      7.485   229.5923     1.4921     3.3475     0.0208      0.056      0.090      0.130         38 3.7605e+01 0.0000e+00
      0.089    12.2512     7.1502     66.638  28.521282     38.261      7.466   233.8702     1.4477     3.3878     0.0208      0.054      0.088      0.127         39 4.1285e+01 0.0000e+00
      0.086    12.2414     7.1728     66.845  28.451312     38.189      7.459   235.3466     1.4477     3.2938     0.0207      0.050      0.086      0.124         40 4.0926e+01 0.0000e+00
      0.087    12.2293     7.2064     67.153  28.413044     38.120      7.454   233.6052     1.4517     3.2938     0.0207      0.041      0.086      0.125         41 3.9559e+01 0.0000e+00
      0.090    12.2187     7.2491     67.551  28.391017     38.131      7.447   232.3559     1.6296     3.3744     0.0207      0.030      0.087      0.127         42 3.8299e+01 0.0000e+00
      0.090    12.2102     7.2786     67.826  28.360134     38.068      7.443   237.6937     1.6013     3.4550     0.0207      0.016      0.087      0.126         43 4.2674e+01 0.0000e+00
      0.086    12.2037     7.3135     68.153  28.392186     38.154      7.443   236.7852     1.6013     3.4147     0.0207      0.003      0.085      0.123         44 4.1486e+01 0.0000e+00
      0.085    12.1989     7.3194     68.207  28.410429     38.162      7.438   235.4980     1.5973     3.3207     0.0207     -0.003      0.084      0.122         45 3.6521e+01 0.0000e+00
      0.087    12.1952     7.3096     68.117  28.396730     38.169      7.433   235.8387     1.5245     3.3207     0.0207     -0.002      0.085      0.123         46 3.7167e+01 0.0000e+00
      0.087    12.1924     7.2960     67.991  28.349941     38.099      7.427   236.2930     1.5528     3.3610     0.0207     -0.001      0.085      0.123         47 4.0623e+01 0.0000e+00
      0.086    12.1900     7.2735     67.780  28.350068     38.103      7.419   236.4444     1.5326     3.1998     0.0207     -0.001      0.084      0.122         48 4.2281e+01 0.0000e+00
      0.084    12.1880     7.2511     67.573  28.396572     38.181      7.413   236.3309     1.5528     3.3744     0.0207     -0.002      0.083      0.120         49 4.3402e+01 0.0000e+00
      0.084    12.1855     7.2140     67.228  28.351362     38.108      7.408   236.4823     1.5204     3.3341     0.0207     -0.003      0.083      0.120         50 4.1105e+01 0.0000e+00
      0.085    12.1828     7.1818     66.929  28.287739     38.035      7.403   236.7852     1.4881     3.3744     0.0206     -0.002      0.084      0.121         51 3.9530e+01 0.0000e+00
      0.087    12.1821     7.1594     66.722  28.297862     38.037      7.395   236.9744     1.4517     3.4012     0.0206     -0.000      0.085      0.123         52 4.1824e+01 0.0000e+00
      0.088    12.1828     7.1301     66.448  28.338766     38.116      7.393   237.1637     1.4962     3.3744     0.0207      0.000      0.086      0.125         53 4.0357e+01 0.0000e+00
      0.090    12.1834     7.1155     66.310  28.296133     38.041      7.386   237.4666     1.4962     3.2670     0.0206      0.001      0.087      0.127         54 3.8810e+01 0.0000e+00
      0.089    12.1836     7.0923     66.091  28.291622     38.040      7.380   237.3152     1.4517     3.3744     0.0206      0.002      0.087      0.127         55 4.0718e+01 0.0000e+00
      0.090    12.1839     7.0672     65.855  28.344380     38.115      7.375   237.6937     1.4719     3.3610     0.0207      0.003      0.088      0.128         56 3.8471e+01 0.0000e+00
      0.092    12.1839     7.0389     65.590  28.349069     38.115      7.370   237.6559     1.4719     3.3475     0.0207      0.004      0.090      0.131         57 3.5909e+01 0.0000e+00
      0.094    12.1840     7.0241     65.453  28.345083     38.114      7.363   237.7694     1.4638     3.4012     0.0207      0.004      0.091      0.132         58 3.8253e+01 0.0000e+00
      0.094    12.1846     6.9927     65.159  28.349341     38.114      7.357   238.6402     1.4113     3.3744     0.0207      0.004      0.091      0.131         59 3.9119e+01 0.0000e+00
      0.089    12.1853     6.9707     64.952  28.343770     38.114      7.352   238.9809     1.4032     3.3744     0.0207      0.002      0.088      0.127         60 3.6556e+01 0.0000e+00
      0.085    12.1862     6.9557     64.808  28.352016     38.114      7.347   240.1545     1.4194     3.3610     0.0207     -0.000      0.084      0.122         61 3.9548e+01 0.0000e+00
      0.083    12.1869     6.9462     64.714  28.339079     38.113      7.341   239.1702     1.4113     3.3207     0.0207     -0.002      0.084      0.122         62 4.1316e+01 0.0000e+00
      0.089    12.1865     6.9233     64.497  28.300574     38.037      7.339   234.5137     1.3708     3.3072     0.0206     -0.003      0.088      0.128         63 3.8623e+01 0.0000e+00
      0.099    12.1851     6.9005     64.288  28.340638     38.111      7.335   234.3244     1.3991     3.4281     0.0207     -0.000      0.097      0.141         64 3.9370e+01 0.0000e+00
      0.110    12.1833     6.8702     64.014  28.348515     38.112      7.331   233.9459     1.4032     3.2938     0.0207      0.005      0.106      0.154         65 3.8497e+01 0.0000e+00
      0.116    12.1819     6.8253     63.602  28.350067     38.113      7.328   234.0594     1.3951     3.3475     0.0207      0.010      0.113      0.163         66 3.7087e+01 0.0000e+00
      0.118    12.1810     6.7949     63.316  28.338707     38.115      7.320   234.2109     1.4072     3.3610     0.0207      0.016      0.114      0.165         67 4.0063e+01 0.0000e+00
      0.114    12.1814     6.7585     62.972  28.303355     38.041      7.311   234.3623     1.3991     3.3878     0.0206      0.019      0.111      0.161         68 3.9135e+01 0.0000e+00
      0.107    12.1811     6.7280     62.689  28.334765     38.117      7.295   237.7694     1.3991     3.4415     0.0207      0.017      0.107      0.155         69 3.9648e+01 0.0000e+00
      0.106    12.1792     6.6935     62.374  28.299618     38.042      7.287   234.4759     1.4194     3.4281     0.0206      0.012      0.106      0.155         70 3.6132e+01 0.0000e+00
      0.113    12.1767     6.6723     62.184  28.287799     38.042      7.279   234.7030     1.3910     3.3207     0.0206      0.007      0.110      0.160         71 3.5045e+01 0.0000e+00
      0.119    12.1725     6.6419     61.902  28.290179     38.044      7.272   234.8544     1.5245     3.3744     0.0206      0.004      0.113      0.165         72 4.0663e+01 0.0000e+00
      0.116    12.1702     6.6115     61.620  28.296658     38.046      7.264   235.0437     1.5326     3.3207     0.0206      0.001      0.111      0.162         73 3.8583e+01 0.0000e+00
      0.107    12.1728     6.5952     61.470  28.339033     38.126      7.259   234.7030     1.5568     3.4550     0.0207     -0.002      0.105      0.153         74 4.1572e+01 0.0000e+00
      0.100    12.1781     6.5610     61.152  28.356037     38.128      7.255   235.0437     1.5447     3.3744     0.0207     -0.004      0.100      0.145         75 3.8969e+01 0.0000e+00
      0.100    12.1820     6.5282     60.846  28.334794     38.126      7.254   235.0816     1.5407     3.3475     0.0207     -0.005      0.100      0.145         76 3.8983e+01 0.0000e+00
      0.106    12.1808     6.4967     60.552  28.306174     38.045      7.250   235.7630     1.5326     3.3207     0.0206     -0.004      0.103      0.148         77 3.8467e+01 0.0000e+00
      0.106    12.1776     6.4688     60.290  28.332356     38.116      7.243   238.7537     1.5366     3.4281     0.0207     -0.005      0.103      0.148         78 3.7449e+01 0.0000e+00
      0.101    12.1780     6.4431     60.050  28.361504     38.117      7.240   239.8895     1.5730     3.3475     0.0207     -0.008      0.099      0.143         79 4.0531e+01 0.0000e+00
      0.095    12.1831     6.4395     60.015  28.329196     38.121      7.235   240.0787     1.4921     3.3878     0.0207     -0.009      0.096      0.138         80 3.5341e+01 0.0000e+00
      0.097    12.1880     6.4122     59.759  28.313269     38.045      7.227   236.6716     1.4557     3.3878     0.0206     -0.007      0.097      0.141         81 3.5851e+01 0.0000e+00
      0.107    12.1891     6.3828     59.483  28.381326     38.190      7.226   237.2016     1.4436     3.4012     0.0207     -0.002      0.104      0.151         82 3.5659e+01 0.0000e+00
      0.115    12.1902     6.3516     59.190  28.363092     38.110      7.226   236.9744     1.5043     3.4012     0.0207      0.003      0.110      0.159         83 3.7414e+01 0.0000e+00
      0.113    12.1918     6.3191     58.886  28.335959     38.109      7.224   237.1637     1.5528     3.4012     0.0207      0.005      0.110      0.159         84 3.6245e+01 0.0000e+00
      0.109    12.1920     6.2897     58.611  28.355795     38.108      7.220   239.6245     1.5245     3.3207     0.0207      0.005      0.107      0.156         85 3.8062e+01 0.0000e+00
      0.108    12.1916     6.2627     58.358  28.338407     38.106      7.213   238.0345     1.5487     3.3744     0.0207      0.005      0.106      0.155         86 3.9672e+01 0.0000e+00
      0.111    12.1911     6.2278     58.031  28.357597     38.106      7.203   237.9587     1.5568     3.3744     0.0207      0.007      0.108      0.157         87 3.7041e+01 0.0000e+00
      0.114    12.1904     6.1964     57.737  28.391209     38.182      7.198   239.2459     1.5568     3.4012     0.0207      0.007      0.111      0.161         88 3.8694e+01 0.0000e+00
      0.115    12.1894     6.1663     57.456  28.355874     38.107      7.194   239.0945     1.5326     3.3207     0.0207      0.005      0.112      0.163         89 3.5120e+01 0.0000e+00
      0.114    12.1883     6.1331     57.145  28.342273     38.108      7.194   239.0187     1.5164     3.3475     0.0207      0.002      0.111      0.162         90 3.7131e+01 0.0000e+00
      0.112    12.1872     6.1095     56.924  28.348841     38.109      7.191   239.3216     1.5771     3.3341     0.0207      0.001      0.109      0.159         91 4.1784e+01 0.0000e+00
      0.109    12.1858     6.0735     56.586  28.347702     38.110      7.193   240.4573     1.5326     3.3072     0.0207      0.001      0.108      0.156         92 3.7588e+01 0.0000e+00
      0.109    12.1846     6.0433     56.304  28.402987     38.186      7.193   239.7380     1.6013     3.2938     0.0207      0.000      0.108      0.156         93 3.6176e+01 0.0000e+00
      0.112    12.1835     6.0158     56.046  28.398634     38.188      7.190   239.7002     1.6377     3.3207     0.0207     -0.000      0.110      0.160         94 3.9374e+01 0.0000e+00
      0.116    12.1828     5.9867     55.774  28.353119     38.114      7.190   240.5330     1.6054     3.2670     0.0207      0.000      0.113      0.164         95 3.6204e+01 0.0000e+00
      0.116    12.1817     5.9584     55.509  28.400332     38.190      7.185   240.6087     1.6175     3.3744     0.0207      0.001      0.114      0.166         96 3.5430e+01 0.0000e+00
      0.116    12.1804     5.9350     55.290  28.399173     38.191      7.176   240.6845     1.6094     3.2938     0.0207      0.002      0.114      0.166         97 3.8024e+01 0.0000e+00
      0.116    12.1794     5.9057     55.017  28.354561     38.117      7.165   241.0252     1.5932     3.2670     0.0207      0.003      0.115      0.167         98 3.6749e+01 0.0000e+00
      0.118    12.1783     5.8755     54.734  28.337259     38.118      7.158   240.9495     1.6134     3.3207     0.0207      0.004      0.115      0.167         99 3.7571e+01 0.0000e+00
      0.117    12.1774     5.8569     54.560  28.361409     38.119      7.155   241.5173     1.6337     3.3072     0.0207      0.004      0.114      0.165        100 4.0019e+01 0.0000e+00
      0.113    12.1761     5.8242     54.255  28.383805     38.195      7.151   241.3280     1.6701     3.2938     0.0207      0.002      0.111      0.162        101 4.0464e+01 0.0000e+00
      0.111    12.1748     5.8016     54.044  28.368685     38.121      7.149   240.9116     1.6984     3.2938     0.0207     -0.001      0.110      0.160        102 3.9687e+01 0.0000e+00
      0.113    12.1737     5.7755     53.798  28.380226     38.198      7.151   241.3280     1.6620     3.3207     0.0207     -0.002      0.111      0.161        103 3.5794e+01 0.0000e+00
      0.115    12.1727     5.7527     53.585  28.369444     38.124      7.156   241.7066     1.6781     3.4147     0.0207     -0.002      0.112      0.163        104 3.8568e+01 0.0000e+00
      0.116    12.1719     5.7340     53.407  28.382104     38.200      7.159   241.7445     1.6256     3.3207     0.0207     -0.001      0.112      0.163        105 3.9439e+01 0.0000e+00
      0.113    12.1708     5.7141     53.220  28.305174     38.051      7.158   242.2745     1.5973     3.3207     0.0206     -0.002      0.111      0.161        106 3.4510e+01 0.0000e+00
      0.112    12.1700     5.6918     53.010  28.346588     38.127      7.154   242.4637     1.6013     3.2535     0.0207     -0.002      0.109      0.159        107 3.8808e+01 0.0000e+00
      0.110    12.1694     5.6791     52.891  28.449159     38.278      7.151   241.4416     1.5851     3.2938     0.0207     -0.002      0.107      0.156        108 4.0364e+01 0.0000e+00
      0.106    12.1687     5.6602     52.715  28.355418     38.129      7.142   242.0852     1.4477     3.4415     0.0207     -0.002      0.105      0.152        109 3.6508e+01 0.0000e+00
      0.105    12.1682     5.6428     52.550  28.344653     38.129      7.135   242.4637     1.4274     3.3207     0.0207     -0.004      0.104      0.151        110 3.6816e+01 0.0000e+00
      0.107    12.1680     5.6355     52.479  28.343961     38.130      7.129   242.8423     1.4153     3.3475     0.0207     -0.005      0.103      0.150        111 3.6388e+01 0.0000e+00
      0.103    12.1673     5.6225     52.355  28.356281     38.131      7.130   242.8802     1.3991     3.3072     0.0207     -0.006      0.102      0.148        112 4.1819e+01 0.0000e+00
      0.103    12.1657     5.6253     52.380  28.388620     38.206      7.130   243.3723     1.4274     3.3610     0.0207     -0.006      0.102      0.148        113 4.4523e+01 0.0000e+00
      0.105    12.1639     5.6274     52.399  28.363013     38.131      7.120   243.2966     1.3910     3.3207     0.0207     -0.005      0.102      0.148        114 3.8144e+01 0.0000e+00
      0.104    12.1622     5.6123     52.257  28.388148     38.208      7.113   242.5395     1.4072     3.2938     0.0207     -0.003      0.103      0.150        115 3.5860e+01 0.0000e+00
      0.107    12.1602     5.6013     52.153  28.357339     38.135      7.112   242.5395     1.3708     3.2938     0.0207     -0.001      0.107      0.156        116 3.8779e+01 0.0000e+00
      0.117    12.1584     5.5978     52.118  28.342057     38.137      7.111   242.6152     1.4032     3.3878     0.0207      0.003      0.114      0.166        117 3.8159e+01 0.0000e+00
      0.126    12.1578     5.5877     52.021  28.347870     38.139      7.110   243.2588     1.3385     3.3341     0.0207      0.008      0.120      0.174        118 3.6609e+01 0.0000e+00
      0.125    12.1576     5.5741     51.892  28.350105     38.140      7.103   243.5616     1.3304     3.2670     0.0207      0.011      0.120      0.174        119 3.5371e+01 0.0000e+00
      0.117    12.1557     5.5645     51.802  28.398574     38.216      7.098   243.4859     1.3547     3.3744     0.0207      0.011      0.116      0.167        120 3.7664e+01 0.0000e+00
      0.112    12.1526     5.5527     51.691  28.406147     38.216      7.097   243.9402     1.3385     3.2133     0.0207      0.009      0.111      0.161        121 4.1963e+01 0.0000e+00
      0.111    12.1504     5.5431     51.602  28.399977     38.218      7.100   243.4102     1.3263     3.4684     0.0207      0.005      0.110      0.160        122 3.7068e+01 0.0000e+00
      0.116    12.1493     5.5400     51.574  28.346955     38.147      7.105   243.5616     1.3466     3.3878     0.0207      0.003      0.113      0.164        123 3.6838e+01 0.0000e+00
      0.118    12.1487     5.5301     51.483  28.353539     38.149      7.107   243.7509     1.3587     3.3207     0.0207     -0.000      0.115      0.166        124 3.8884e+01 0.0000e+00
      0.116    12.1478     5.5307     51.486  28.391785     38.225      7.101   243.7888     1.3385     3.3475     0.0207     -0.003      0.113      0.163        125 3.8409e+01 0.0000e+00
      0.110    12.1460     5.5310     51.487  28.358657     38.150      7.099   243.7509     1.2859     3.3341     0.0207     -0.005      0.109      0.158        126 3.7821e+01 0.0000e+00
      0.109    12.1439     5.5320     51.494  28.394767     38.227      7.100   244.0159     1.2616     3.2670     0.0207     -0.004      0.108      0.157        127 3.6952e+01 0.0000e+00
      0.112    12.1417     5.5369     51.538  28.406144     38.228      7.098   245.0002     1.2900     3.3610     0.0207     -0.002      0.110      0.160        128 3.9206e+01 0.0000e+00
      0.115    12.1400     5.5407     51.572  28.344498     38.155      7.097   244.2430     1.2859     3.3610     0.0207     -0.000      0.114      0.165        129 4.0763e+01 0.0000e+00
      0.121    12.1390     5.5407     51.570  28.352890     38.158      7.100   244.2809     1.3587     3.3744     0.0207      0.001      0.120      0.174        130 3.6643e+01 0.0000e+00
      0.131    12.1385     5.5431     51.591  28.395700     38.235      7.097   244.4323     1.3668     3.3475     0.0207      0.004      0.127      0.184        131 3.6704e+01 0.0000e+00
      0.136    12.1383     5.5384     51.546  28.409817     38.236      7.095   244.5080     1.3304     3.2938     0.0207      0.009      0.129      0.187        132 3.8544e+01 0.0000e+00
      0.126    12.1390     5.5284     51.451  28.394621     38.236      7.095   248.0288     1.3304     3.2670     0.0207      0.011      0.122      0.177        133 3.5480e+01 0.0000e+00
      0.111    12.1399     5.5244     51.412  28.414612     38.236      7.090   245.6438     1.3142     3.1730     0.0207      0.008      0.109      0.158        134 3.7618e+01 0.0000e+00
      0.097    12.1383     5.5124     51.300  28.444234     38.311      7.086   244.7352     1.4234     3.4012     0.0207     -0.001      0.097      0.141        135 4.5040e+01 0.0000e+00
      0.089    12.1362     5.4932     51.124  28.417053     38.235      7.085   245.1138     1.4153     3.3475     0.0207     -0.011      0.090      0.130        136 4.8377e+01 0.0000e+00
      0.088    12.1347     5.4846     51.075  28.389140     38.236      7.082   245.4923     1.4153     3.2535     0.0207     -0.019      0.087      0.126        137 4.4996e+01 0.0000e+00
      0.086    12.1332     5.4849     51.134  28.360377     38.163      7.079   248.6723     1.4113     3.3475     0.0207     -0.025      0.085      0.123        138 4.0942e+01 0.0000e+00
      0.084    12.1318     5.5052     51.369  28.393553     38.240      7.075   248.9373     1.4153     3.3744     0.0207     -0.028      0.082      0.119        139 4.0302e+01 0.0000e+00
      0.081    12.1302     5.5576     51.880  28.407152     38.242      7.065   248.9752     1.3991     3.3072     0.0207     -0.026      0.080      0.115        140 4.6072e+01 0.0000e+00
      0.080    12.1287     5.6395     52.637  28.402750     38.243      7.059   248.9373     1.4113     3.4012     0.0207     -0.020      0.079      0.114        141 5.0184e+01 0.0000e+00
      0.082    12.1274     5.7735     53.871  28.399031     38.245      7.053   249.3159     1.3910     3.2670     0.0207     -0.012      0.079      0.115        142 4.5781e+01 0.0000e+00
      0.080    12.1260     5.9164     55.191  28.411780     38.246      7.049   249.4673     1.2980     3.3744     0.0207     -0.007      0.079      0.115        143 4.6862e+01 0.0000e+00
      0.081    12.1251     6.0731     56.641  28.386885     38.248      7.049   249.1645     1.3425     3.3744     0.0207     -0.005      0.082      0.119        144 4.5162e+01 0.0000e+00
      0.091    12.1238     6.2057     57.869  28.311421     38.098      7.049   247.5366     1.3466     3.3341     0.0206     -0.001      0.087      0.126        145 4.4300e+01 0.0000e+00
      0.097    12.1271     6.3192     58.933  28.387102     38.250      7.048   247.5366     1.3466     3.2535     0.0207      0.004      0.086      0.125        146 4.5724e+01 0.0000e+00
      0.076    12.1545     6.3927     59.677  28.470592     38.326      7.050   247.0066     1.4153     3.3341     0.0207      0.002      0.063      0.092        147 5.9497e+01 0.0000e+00
      0.021    12.2018     6.4324     60.130  28.504001     38.399      7.045   247.1580     1.4194     3.3207     0.0208     -0.014      0.015      0.022        148 9.2459e+01 0.0000e+00
     -0.049    12.2415     6.4466     60.324  28.523412     38.371      7.040   247.0066     1.4194     3.3878     0.0208     -0.045     -0.050     -0.072        149 8.4323e+01 0.0000e+00
     -0.125    12.2592     6.4302     60.215  28.505723     38.321      7.037   248.6723     1.3951     3.2938     0.0208     -0.088     -0.119     -0.173        150 1.0103e+02 0.0000e+00
     -0.192    12.2541     6.4052     60.013  28.466702     38.205      7.036   247.0823     1.2819     3.3475     0.0207     -0.135     -0.181     -0.262        151 1.6482e+02 0.0000e+00
     -0.236    12.2410     6.3714     59.715  28.453364     38.187      7.040   247.1202     1.2859     3.3475     0.0207     -0.175     -0.228     -0.331        152 1.8371e+02 0.0000e+00
     -0.271    12.2297     6.3410     59.433  28.463016     38.192      7.039   247.1959     1.2859     3.3475     0.0207     -0.204     -0.264     -0.384        153 1.7844e+02 0.0000e+00
     -0.305    12.2208     6.2866     58.920  28.395394     38.131      7.035   250.6409     1.2940     3.2804     0.0207     -0.216     -0.293     -0.425        154 1.7681e+02 0.0000e+00
     -0.319    12.2134     6.2679     58.741  28.359633     38.067      7.032   250.5273     1.2697     3.3475     0.0207     -0.204     -0.312     -0.452        155 1.8162e+02 0.0000e+00
     -0.330    12.2188     6.2289     58.366  28.448227     38.227      7.031   250.4516     1.1929     3.3072     0.0207     -0.174     -0.322     -0.467        156 1.8529e+02 0.0000e+00
     -0.336    12.2612     6.2146     58.219  28.522330     38.309      7.032   250.1109     1.2091     3.2670     0.0208     -0.137     -0.327     -0.474        157 1.8293e+02 0.0000e+00
     -0.334    12.3209     6.2060     58.129  28.593546     38.417      7.030   250.0731     1.2172     3.4147     0.0208     -0.098     -0.325     -0.472        158 1.8695e+02 0.0000e+00
     -0.328    12.3665     6.2163     58.219  28.596783     38.373      7.026   250.2245     1.1848     3.2804     0.0208     -0.065     -0.317     -0.460        159 1.8407e+02 0.0000e+00
     -0.308    12.3993     6.2171     58.224  28.607234     38.311      7.009   250.4895     1.2212     3.3744     0.0208     -0.035     -0.297     -0.431        160 1.8927e+02 0.0000e+00
     -0.273    12.4236     6.2226     58.271  28.610172     38.302      6.995   251.4359     1.1889     3.3475     0.0208     -0.002     -0.267     -0.387        161 1.7891e+02 0.0000e+00
     -0.237    12.4371     6.2242     58.284  28.533812     38.119      6.981   250.6409     1.2455     3.3207     0.0208      0.030     -0.234     -0.339        162 1.2557e+02 0.0000e+00
     -0.206    12.4389     6.2182     58.224  28.583653     38.206      6.971   250.3759     1.2293     3.2535     0.0208      0.058     -0.200     -0.290        163 9.6902e+01 0.0000e+00
     -0.167    12.4367     6.2029     58.079  28.607434     38.192      6.965   247.7638     1.2293     3.3072     0.0208      0.084     -0.164     -0.238        164 8.9343e+01 0.0000e+00
     -0.126    12.4340     6.1881     57.940  28.593156     38.191      6.955   249.9595     1.2616     3.4012     0.0208      0.108     -0.129     -0.188        165 8.1585e+01 0.0000e+00
     -0.102    12.4266     6.1692     57.761  28.601420     38.193      6.960   248.1423     1.3021     3.3610     0.0208      0.123     -0.103     -0.149        166 8.3562e+01 0.0000e+00
     -0.085    12.4172     6.1426     57.509  28.626801     38.233      6.960   247.1959     1.2980     3.4281     0.0208      0.128     -0.085     -0.123        167 8.1952e+01 0.0000e+00
     -0.073    12.4096     6.1224     57.316  28.650519     38.278      6.963   249.8459     1.3304     3.2938     0.0208      0.121     -0.074     -0.107        168 8.0660e+01 0.0000e+00
     -0.069    12.4052     6.1154     57.248  28.601556     38.213      6.967   250.2245     1.3061     3.3475     0.0208      0.105     -0.068     -0.099        169 7.5177e+01 0.0000e+00
     -0.065    12.4027     6.0683     56.802  28.509845     38.108      6.969   248.4073     1.3547     3.3744     0.0208      0.087     -0.066     -0.096        170 7.9043e+01 0.0000e+00
     -0.068    12.3998     6.0531     56.647  28.468169     38.038      6.974   249.8838     1.3506     3.3878     0.0207      0.065     -0.067     -0.097        171 7.1820e+01 0.0000e+00
     -0.070    12.3974     6.0226     56.355  28.505181     38.115      6.981   247.7638     1.3749     3.3072     0.0208      0.043     -0.067     -0.098        172 6.4953e+01 0.0000e+00
     -0.067    12.3950     6.0467     56.581  28.523081     38.119      6.986   249.6188     1.3385     3.4147     0.0208      0.025     -0.065     -0.094        173 7.7647e+01 0.0000e+00
     -0.062    12.3936     6.1549     57.592  28.505190     38.121      6.988   250.3002     1.3425     3.3341     0.0208      0.015     -0.061     -0.089        174 7.1486e+01 0.0000e+00
     -0.061    12.3937     6.3739     59.637  28.527448     38.123      6.989   248.7859     1.3425     3.3207     0.0208      0.009     -0.059     -0.085        175 7.4241e+01 0.0000e+00
     -0.057    12.3922     6.6394     62.112  28.584329     38.237      6.990   250.2245     1.3425     3.3207     0.0208      0.006     -0.056     -0.082        176 8.0789e+01 0.0000e+00
     -0.055    12.3893     6.9306     64.828  28.523348     38.125      6.992   250.7545     1.2697     3.3610     0.0208      0.007     -0.054     -0.078        177 7.0552e+01 0.0000e+00
     -0.052    12.3863     7.2291     67.610  28.514390     38.126      6.990   250.8681     1.2900     3.3072     0.0208      0.008     -0.053     -0.076        178 6.9649e+01 0.0000e+00
     -0.055    12.3846     7.4885     70.026  28.595476     38.241      6.990   250.6031     1.2738     3.3610     0.0208      0.009     -0.055     -0.080        179 7.4959e+01 0.0000e+00
     -0.062    12.3802     7.7011     72.003  28.570682     38.207      6.992   250.1866     1.2819     3.4012     0.0208      0.006     -0.060     -0.087        180 7.2915e+01 0.0000e+00
     -0.066    12.3709     7.8476     73.364  28.515600     38.134      6.992   250.1109     1.2900     3.3207     0.0208      0.001     -0.063     -0.092        181 7.0338e+01 0.0000e+00
     -0.065    12.3661     7.9102     73.937  28.456487     38.063      6.991   250.1866     1.2657     3.3072     0.0207     -0.003     -0.064     -0.092        182 7.1273e+01 0.0000e+00
     -0.064    12.3660     7.9235     74.057  28.407061     37.999      6.993   249.8838     1.2819     3.4415     0.0207     -0.005     -0.063     -0.090        183 7.6262e+01 0.0000e+00
     -0.062    12.3653     7.9088     73.916  28.399222     38.003      6.991   250.6409     1.2940     3.3072     0.0207     -0.005     -0.060     -0.087        184 7.7812e+01 0.0000e+00
     -0.059    12.3619     7.8819     73.661  28.406947     38.003      6.991   250.3002     1.2536     3.3475     0.0207     -0.004     -0.058     -0.084        185 7.2152e+01 0.0000e+00
     -0.056    12.3554     7.8486     73.348  28.397448     38.004      6.988   250.5652     1.2657     3.3475     0.0207     -0.002     -0.055     -0.081        186 7.0038e+01 0.0000e+00
     -0.054    12.3491     7.8170     73.051  28.411045     38.007      6.981   249.7702     1.2940     3.3207     0.0207      0.003     -0.053     -0.078        187 8.0172e+01 0.0000e+00
     -0.054    12.3434     7.7916     72.808  28.449323     38.089      6.972   250.6409     1.2819     3.3744     0.0207      0.006     -0.053     -0.077        188 7.3450e+01 0.0000e+00
     -0.055    12.3366     7.7563     72.476  28.409110     38.020      6.965   250.3759     1.2819     3.3475     0.0207      0.007     -0.053     -0.077        189 6.7678e+01 0.0000e+00
     -0.054    12.3301     7.7276     72.210  28.401796     38.026      6.962   250.0731     1.2616     3.3744     0.0207      0.006     -0.052     -0.076        190 7.9841e+01 0.0000e+00
     -0.052    12.3242     7.6973     71.925  28.399132     38.033      6.955   249.3916     1.2576     3.2938     0.0207      0.005     -0.051     -0.074        191 6.9549e+01 0.0000e+00
     -0.051    12.3179     7.6719     71.682  28.353131     37.965      6.953   249.5052     1.2980     3.2938     0.0207      0.004     -0.051     -0.073        192 6.6761e+01 0.0000e+00
     -0.053    12.3146     7.6489     71.464  28.340452     37.971      6.953   249.9973     1.2131     3.3744     0.0207      0.003     -0.052     -0.075        193 7.5043e+01 0.0000e+00
     -0.054    12.3127     7.6365     71.346  28.355617     37.978      6.953   250.6031     1.2010     3.2670     0.0207      0.001     -0.053     -0.077        194 7.0083e+01 0.0000e+00
     -0.056    12.3105     7.6151     71.143  28.393557     38.056      6.955   250.4895     1.2131     3.3475     0.0207     -0.000     -0.054     -0.078        195 7.3189e+01 0.0000e+00
     -0.054    12.3094     7.6034     71.033  28.352535     37.983      6.953   251.1709     1.2091     3.3475     0.0207     -0.000     -0.052     -0.076        196 5.5892e+01 0.0000e+00
     -0.050    12.3079     7.5953     70.960  28.347372     37.985      6.941   250.8681     1.2172     3.2267     0.0207      0.000     -0.049     -0.071        197 5.5742e+01 0.0000e+00
     -0.046    12.3053     7.5862     70.879  28.399981     38.061      6.937   251.2088     1.1929     3.2938     0.0207      0.002     -0.045     -0.066        198 7.6740e+01 0.0000e+00
     -0.044    12.3039     7.5841     70.864  28.405657     38.062      6.936   251.1331     1.2374     3.3207     0.0207      0.004     -0.043     -0.062        199 7.3220e+01 0.0000e+00
     -0.042    12.3048     7.5814     70.849  28.399605     38.065      6.936   251.4359     1.1929     3.3744     0.0207      0.005     -0.042     -0.060        200 7.0817e+01 0.0000e+00
     -0.041    12.3038     7.5781     70.817  28.407514     38.067      6.937   251.3223     1.1929     3.3207     0.0207      0.008     -0.040     -0.058        201 6.6365e+01 0.0000e+00
     -0.038    12.3005     7.5719     70.729  28.395817     38.065      6.936   251.5495     1.2819     3.3744     0.0207      0.009     -0.038     -0.056        202 6.1687e+01 0.0000e+00
     -0.038    12.2985     7.5679     70.678  28.354867     37.992      6.934   251.7388     1.2900     3.2670     0.0207      0.009     -0.038     -0.055        203 6.3820e+01 0.0000e+00
     -0.040    12.2974     7.5666     70.662  28.339882     37.995      6.932   251.6631     1.2697     3.3744     0.0207      0.007     -0.040     -0.057        204 7.4304e+01 0.0000e+00
     -0.044    12.2953     7.5643     70.637  28.414465     38.072      6.928   251.9281     1.3102     3.2804     0.0207      0.004     -0.043     -0.062        205 6.6464e+01 0.0000e+00
     -0.047    12.2945     7.5543     70.537  28.439941     38.148      6.932   252.1552     1.2900     3.3207     0.0207      0.000     -0.045     -0.066        206 6.9386e+01 0.0000e+00
     -0.048    12.2961     7.5541     70.527  28.367476     38.001      6.934   251.7766     1.2657     3.3207     0.0207     -0.003     -0.047     -0.069        207 7.0638e+01 0.0000e+00
     -0.048    12.2985     7.5590     70.562  28.386054     38.076      6.935   252.0038     1.2657     3.4281     0.0207     -0.004     -0.047     -0.069        208 6.9900e+01 0.0000e+00
     -0.048    12.3019     7.5595     70.560  28.416822     38.074      6.937   252.0038     1.2616     3.2670     0.0207     -0.005     -0.047     -0.069        209 7.4891e+01 0.0000e+00
     -0.048    12.3086     7.5593     70.558  28.388482     38.072      6.937   251.8523     1.2980     3.3878     0.0207     -0.006     -0.047     -0.069        210 7.5634e+01 0.0000e+00
     -0.049    12.3066     7.5651     70.612  28.421320     38.069      6.941   251.9281     1.2616     3.3341     0.0207     -0.005     -0.048     -0.070        211 7.3878e+01 0.0000e+00
     -0.051    12.2898     7.5621     70.591  28.435250     38.137      6.942   251.6252     1.2940     3.3207     0.0207     -0.004     -0.049     -0.071        212 7.3181e+01 0.0000e+00
     -0.049    12.2796     7.5562     70.548  28.371145     37.988      6.947   251.3981     1.2697     3.3610     0.0207     -0.002     -0.048     -0.069        213 8.3180e+01 0.0000e+00
     -0.046    12.2778     7.5620     70.616  28.382504     38.082      6.948   251.9281     1.2738     3.4550     0.0207     -0.000     -0.045     -0.066        214 7.1670e+01 0.0000e+00
     -0.043    12.2750     7.5518     70.531  28.361821     38.016      6.951   251.9659     1.2697     3.4550     0.0207      0.001     -0.043     -0.063        215 6.4479e+01 0.0000e+00
     -0.044    12.2714     7.5436     70.457  28.337593     38.018      6.955   251.8902     1.2536     3.3475     0.0207      0.002     -0.043     -0.062        216 7.5202e+01 0.0000e+00
     -0.043    12.2660     7.5444     70.466  28.353361     38.021      6.952   252.0416     1.2778     3.3475     0.0207      0.003     -0.044     -0.063        217 7.1133e+01 0.0000e+00
     -0.046    12.2595     7.5434     70.488  28.342199     38.025      6.953   252.1173     1.2697     3.3072     0.0207      0.003     -0.044     -0.064        218 7.2907e+01 0.0000e+00
     -0.046    12.2560     7.5430     70.549  28.351486     38.030      6.954   251.5116     1.2697     3.3207     0.0207      0.003     -0.044     -0.064        219 7.8907e+01 0.0000e+00
     -0.042    12.2553     7.5485     70.658  28.341805     38.037      6.955   250.7923     1.2980     3.3744     0.0207      0.003     -0.041     -0.059        220 6.3214e+01 0.0000e+00
     -0.037    12.2553     7.5539     70.747  28.354248     38.041      6.952   251.2845     1.2293     3.3610     0.0207      0.004     -0.035     -0.051        221 6.1019e+01 0.0000e+00
     -0.028    12.2598     7.5574     70.796  28.336003     38.041      6.956   251.2088     1.2455     3.3878     0.0207      0.006     -0.028     -0.041        222 6.4112e+01 0.0000e+00
     -0.021    12.2674     7.5683     70.909  28.364512     38.041      6.953   252.6095     1.2859     3.3475     0.0207      0.010     -0.022     -0.033        223 6.0144e+01 0.0000e+00
     -0.020    12.2755     7.5783     71.014  28.378065     38.112      6.953   252.7231     1.2900     3.2670     0.0207      0.014     -0.019     -0.028        224 5.8951e+01 0.0000e+00
     -0.018    12.2821     7.5790     71.027  28.319134     37.954      6.951   252.9124     1.2616     3.2267     0.0206      0.016     -0.017     -0.025        225 5.7779e+01 0.0000e+00
     -0.013    12.2835     7.5738     70.981  28.378552     38.096      6.948   252.1552     1.2859     3.3072     0.0207      0.018     -0.016     -0.023        226 6.4519e+01 0.0000e+00
     -0.015    12.2853     7.5701     70.948  28.363416     38.014      6.942   251.0573     1.2819     3.4818     0.0207      0.017     -0.026     -0.038        227 8.5306e+01 0.0000e+00
     -0.052    12.3053     7.5724     70.973  28.337968     38.012      6.935   252.6473     1.3021     3.4281     0.0207      0.004     -0.058     -0.084        228 9.3971e+01 0.0000e+00
     -0.111    12.3445     7.5762     71.010  28.410218     38.086      6.930   253.0638     1.2819     3.2535     0.0207     -0.023     -0.106     -0.153        229 9.1831e+01 0.0000e+00
     -0.157    12.3814     7.5713     70.954  28.451389     38.141      6.919   251.3981     1.2819     3.3878     0.0207     -0.055     -0.156     -0.227        230 1.1328e+02 0.0000e+00
     -0.214    12.4047     7.5790     71.011  28.464614     38.100      6.908   251.3223     1.2212     3.4684     0.0207     -0.092     -0.210     -0.305        231 1.6321e+02 0.0000e+00
     -0.274    12.4157     7.5762     70.969  28.453042     38.062      6.907   250.7545     1.2050     3.3475     0.0207     -0.130     -0.262     -0.381        232 1.7971e+02 0.0000e+00
     -0.315    12.4224     7.5692     70.892  28.465776     38.038      6.907   253.4424     1.2374     3.4818     0.0207     -0.161     -0.298     -0.432        233 1.6201e+02 0.0000e+00
     -0.322    12.4293     7.5618     70.806  28.508056     38.102      6.912   253.1395     1.2212     3.3744     0.0208     -0.175     -0.309     -0.448        234 1.5840e+02 0.0000e+00
     -0.309    12.4331     7.5503     70.686  28.459718     38.021      6.918   254.0102     1.2010     3.3207     0.0207     -0.164     -0.303     -0.439        235 1.7060e+02 0.0000e+00
     -0.296    12.4348     7.5361     70.554  28.407335     37.939      6.922   254.0859     1.2212     3.4281     0.0207     -0.131     -0.293     -0.425        236 1.6888e+02 0.0000e+00
     -0.292    12.4362     7.5227     70.444  28.454651     38.010      6.922   253.9724     1.2333     3.2670     0.0207     -0.090     -0.283     -0.410        237 1.6722e+02 0.0000e+00
     -0.276    12.4383     7.5153     70.363  28.460128     38.008      6.922   254.3888     1.2091     3.3207     0.0207     -0.049     -0.265     -0.384        238 1.6786e+02 0.0000e+00
     -0.242    12.4385     7.5024     70.196  28.459812     38.006      6.915   253.7452     1.2212     3.3475     0.0207     -0.003     -0.234     -0.339        239 1.2260e+02 0.0000e+00
     -0.199    12.4326     7.4956     70.105  28.455043     38.005      6.910   252.2309     1.2172     3.3072     0.0207      0.041     -0.193     -0.279        240 9.2759e+01 0.0000e+00
     -0.149    12.4230     7.4848     69.992  28.466064     38.004      6.901   252.2309     1.2374     3.2535     0.0207      0.078     -0.146     -0.211        241 9.6807e+01 0.0000e+00
     -0.099    12.4139     7.4803     69.933  28.446099     38.010      6.901   252.6473     1.2212     3.3475     0.0207      0.106     -0.098     -0.142        242 8.8882e+01 0.0000e+00
     -0.053    12.4056     7.4788     69.885  28.420596     37.945      6.900   252.4581     1.2293     3.3878     0.0207      0.129     -0.052     -0.075        243 8.3663e+01 0.0000e+00
     -0.006    12.3960     7.4789     69.852  28.438508     38.030      6.902   252.3066     1.2900     3.5490     0.0207      0.152     -0.003     -0.004        244 7.8362e+01 0.0000e+00
      0.050    12.3880     7.4829     69.866  28.423810     37.963      6.901   251.6631     1.2980     3.5355     0.0207      0.173      0.053      0.078        245 5.8077e+01 0.0000e+00
      0.121    12.3892     7.4821     69.856  28.438892     38.048      6.900   253.1774     1.3061     3.5758     0.0207      0.192      0.118      0.170        246 4.5366e+01 0.0000e+00
      0.188    12.3981     7.4855     69.916  28.419744     37.981      6.900   253.0638     1.2697     3.5221     0.0207      0.207      0.180      0.260        247 4.2586e+01 0.0000e+00
      0.240    12.3902     7.4764     69.868  28.447643     38.055      6.897   253.0638     1.3425     3.5221     0.0207      0.216      0.230      0.334        248 3.8812e+01 0.0000e+00
      0.278    12.3629     7.4790     69.922  28.463470     38.045      6.895   253.0638     1.3668     3.5624     0.0207      0.218      0.270      0.391        249 3.6691e+01 0.0000e+00
      0.309    12.3446     7.4787     69.941  28.400046     37.978      6.891   253.7452     1.3425     3.5758     0.0207      0.213      0.300      0.436        250 3.4512e+01 0.0000e+00
      0.333    12.3373     7.4880     70.043  28.407982     38.007      6.889   253.7831     1.3627     3.5355     0.0207      0.200      0.323      0.468        251 3.2675e+01 0.0000e+00
      0.345    12.3259     7.4866     70.043  28.394305     38.025      6.889   254.0859     1.3425     3.2401     0.0207      0.178      0.338      0.490        252 3.1524e+01 0.0000e+00
      0.356    12.3049     7.4940     70.127  28.357778     37.958      6.894   254.5781     1.3668     3.3610     0.0207      0.148      0.349      0.506        253 2.8972e+01 0.0000e+00
      0.368    12.2835     7.4863     70.069  28.394147     38.044      6.895   254.5402     1.3385     3.2938     0.0207      0.115      0.359      0.521        254 2.9226e+01 0.0000e+00
      0.373    12.2689     7.4878     70.079  28.349049     37.991      6.897   254.5781     1.3506     3.4281     0.0207      0.086      0.368      0.534        255 2.8209e+01 0.0000e+00
      0.385    12.2677     7.5012     70.187  28.354613     38.012      6.899   254.8431     1.4194     3.3610     0.0207      0.066      0.378      0.549        256 2.7581e+01 0.0000e+00
      0.399    12.2849     7.5068     70.197  28.387232     38.103      6.902   255.4109     1.4274     3.4012     0.0207      0.053      0.391      0.567        257 2.8337e+01 0.0000e+00
      0.412    12.3081     7.5268     70.306  28.367757     38.029      6.902   255.3352     1.3951     3.2938     0.0207      0.046      0.403      0.584        258 2.7600e+01 0.0000e+00
      0.421    12.3269     7.5375     70.339  28.438145     38.161      6.903   255.4109     1.4355     3.5355     0.0207      0.043      0.413      0.599        259 2.8903e+01 0.0000e+00
      0.431    12.3408     7.5411     70.323  28.418224     38.062      6.903   256.0545     1.3991     3.2535     0.0207      0.043      0.423      0.613        260 2.8506e+01 0.0000e+00
      0.442    12.3509     7.5467     70.330  28.392540     38.043      6.902   255.8274     1.3385     3.2938     0.0207      0.043      0.431      0.625        261 2.7958e+01 0.0000e+00
      0.445    12.3584     7.5477     70.302  28.410804     38.029      6.901   256.1302     1.3668     3.4281     0.0207      0.041      0.436      0.633        262 2.9504e+01 0.0000e+00
      0.446    12.3681     7.5393     70.197  28.395490     38.019      6.904   256.1302     1.3668     3.2804     0.0207      0.038      0.440      0.638        263 2.8230e+01 0.0000e+00
      0.455    12.3769     7.5329     70.115  28.411593     38.011      6.900   256.8874     1.3587     3.2670     0.0207      0.033      0.448      0.650        264 2.8084e+01 0.0000e+00
      0.471    12.3744     7.5236     70.011  28.450058     38.076      6.905   256.8116     1.3263     3.2938     0.0207      0.031      0.462      0.670        265 2.8766e+01 0.0000e+00
      0.487    12.3633     7.5136     69.907  28.466212     38.067      6.907   255.7516     1.3466     3.2938     0.0207      0.033      0.480      0.697        266 2.7151e+01 0.0000e+00
      0.512    12.3358     7.5050     69.819  28.450783     38.070      6.906   256.2059     1.3749     3.3207     0.0207      0.039      0.505      0.732        267 2.7574e+01 0.0000e+00
      0.545    12.2881     7.4970     69.739  28.350666     37.931      6.904   256.4709     1.3627     3.3475     0.0207      0.051      0.534      0.775        268 2.6422e+01 0.0000e+00
      0.576    12.2455     7.4886     69.657  28.294329     37.884      6.902   257.0766     1.3223     3.2938     0.0206      0.065      0.563      0.816        269 2.5487e+01 0.0000e+00
      0.600    12.2145     7.4875     69.643  28.283719     37.933      6.902   257.6445     1.3304     3.3207     0.0206      0.080      0.589      0.854        270 2.5492e+01 0.0000e+00
      0.627    12.1860     7.4760     69.536  28.245294     37.901      6.898   258.0609     1.3304     3.3878     0.0206      0.094      0.614      0.892        271 2.4857e+01 0.0000e+00
      0.654    12.1628     7.4693     69.474  28.223572     37.933      6.895   256.6224     1.3587     3.3610     0.0206      0.102      0.639      0.927        272 2.4559e+01 0.0000e+00
      0.673    12.1458     7.4501     69.295  28.192172     37.887      6.894   256.8495     1.4800     3.4281     0.0206      0.104      0.660      0.957        273 2.4225e+01 0.0000e+00
      0.693    12.1316     7.4451     69.247  28.225086     37.986      6.891   257.1145     1.4517     3.3610     0.0206      0.103      0.680      0.986        274 2.5014e+01 0.0000e+00
      0.715    12.1211     7.4470     69.261  28.182620     37.928      6.889   257.6445     1.4719     3.3207     0.0206      0.098      0.703      1.019        275 2.5574e+01 0.0000e+00
      0.743    12.1143     7.4390     69.184  28.126434     37.867      6.882   258.1745     1.4800     3.4147     0.0205      0.094      0.729      1.056        276 2.5323e+01 0.0000e+00
      0.771    12.1090     7.4412     69.200  28.176421     37.953      6.879   258.8938     1.4840     3.2804     0.0206      0.093      0.754      1.093        277 2.5724e+01 0.0000e+00
      0.793    12.1054     7.4444     69.226  28.179713     37.960      6.875   258.9695     1.4436     3.2938     0.0206      0.093      0.776      1.126        278 2.5350e+01 0.0000e+00
      0.813    12.1028     7.4501     69.277  28.181636     37.965      6.874   258.0988     1.4517     3.3207     0.0206      0.092      0.795      1.153        279 2.5242e+01 0.0000e+00
      0.826    12.1010     7.4554     69.324  28.174029     37.969      6.876   258.5152     1.4800     3.3610     0.0206      0.089      0.809      1.173        280 2.5422e+01 0.0000e+00
      0.837    12.1005     7.4652     69.414  28.189182     37.972      6.874   258.4395     1.4557     3.3878     0.0206      0.085      0.821      1.191        281 2.5633e+01 0.0000e+00
      0.850    12.1008     7.4674     69.433  28.222077     38.049      6.875   259.0452     1.4517     3.2938     0.0206      0.078      0.835      1.212        282 2.6252e+01 0.0000e+00
      0.868    12.1006     7.4727     69.479  28.192389     37.974      6.876   258.9695     1.4921     3.3207     0.0206      0.072      0.855      1.241        283 2.6424e+01 0.0000e+00
      0.898    12.0995     7.4762     69.510  28.226129     38.049      6.878   259.5374     1.4638     3.4415     0.0206      0.069      0.883      1.281        284 2.7225e+01 0.0000e+00
      0.935    12.0977     7.4684     69.434  28.180088     37.974      6.875   259.9917     1.4679     3.2804     0.0206      0.073      0.915      1.327        285 2.8601e+01 0.0000e+00
      0.966    12.0954     7.4694     69.440  28.131095     37.900      6.874   259.8781     1.6175     3.6161     0.0205      0.081      0.945      1.371        286 2.9214e+01 0.0000e+00
      0.989    12.0927     7.4658     69.403  28.168510     37.977      6.873   260.0674     1.5932     3.4952     0.0206      0.090      0.971      1.409        287 2.9660e+01 0.0000e+00
      1.018    12.0905     7.4655     69.401  28.133526     37.904      6.873   260.1809     1.5892     3.6027     0.0205      0.100      0.997      1.448        288 3.2859e+01 0.0000e+00
      1.046    12.0890     7.4626     69.373  28.174630     37.982      6.866   260.3324     1.6134     3.5758     0.0206      0.108      1.022      1.483        289 3.6063e+01 0.0000e+00
      1.063    12.0880     7.4568     69.320  28.176653     37.984      6.866   260.5217     1.7833     3.5490     0.0206      0.110      1.041      1.509        290 3.6347e+01 0.0000e+00
      1.074    12.0873     7.4531     69.284  28.190307     37.986      6.866   260.4838     1.8197     3.5892     0.0206      0.104      1.054      1.529        291 3.4995e+01 0.0000e+00
      1.089    12.0857     7.4575     69.322  28.216937     38.062      6.864   262.3388     1.7954     3.4684     0.0206      0.093      1.067      1.548        292 4.1065e+01 0.0000e+00
      1.101    12.0843     7.4574     69.319  28.143513     37.912      6.865   261.5059     1.8197     3.4415     0.0205      0.081      1.078      1.564        293 4.4340e+01 0.0000e+00
      1.109    12.0830     7.4466     69.217  28.163088     37.989      6.864   261.5438     1.8601     3.6698     0.0206      0.070      1.087      1.577        294 4.2183e+01 0.0000e+00
      1.117    12.0809     7.4467     69.218  28.192577     37.991      6.866   261.6195     1.8642     3.5221     0.0206      0.060      1.095      1.588        295 4.6781e+01 0.0000e+00
      1.126    12.0786     7.4420     69.174  28.166112     37.992      6.864   261.2409     1.8399     3.4281     0.0206      0.050      1.105      1.603        296 5.1104e+01 0.0000e+00
      1.140    12.0769     7.4459     69.211  28.136728     37.919      6.870   261.2409     1.8682     3.5892     0.0205      0.044      1.119      1.623        297 5.6896e+01 0.0000e+00
      1.159    12.0764     7.4446     69.200  28.169850     37.997      6.874   261.2788     2.0259     3.5624     0.0206      0.044      1.137      1.649        298 5.6359e+01 0.0000e+00
      1.181    12.0763     7.4448     69.203  28.184190     37.998      6.870   263.4367     1.9976     3.6161     0.0206      0.048      1.158      1.679        299 5.6338e+01 0.0000e+00
      1.202    12.0764     7.4389     69.147  28.178178     37.999      6.872   262.8688     2.0097     3.4952     0.0206      0.053      1.182      1.714        300 5.4134e+01 0.0000e+00
      1.234    12.0756     7.4330     69.088  28.177331     37.999      6.875   263.4367     1.9895     3.5221     0.0206      0.064      1.210      1.755        301 4.8941e+01 0.0000e+00
      1.267    12.0738     7.4361     69.114  28.185245     37.999      6.872   263.5124     1.9976     3.5758     0.0206      0.077      1.238      1.797        302 5.2420e+01 0.0000e+00
      1.287    12.0725     7.4210     68.966  28.168329     38.000      6.868   263.0202     1.9733     3.5490     0.0206      0.087      1.259      1.827        303 4.7081e+01 0.0000e+00
      1.300    12.0719     7.4141     68.896  28.139087     37.926      6.865   262.7174     2.0016     3.6564     0.0205      0.092      1.273      1.847        304 5.3660e+01 0.0000e+00
      1.309    12.0714     7.4042     68.799  28.162342     38.003      6.865   264.9131     1.9855     3.6027     0.0206      0.090      1.283      1.861        305 6.0192e+01 0.0000e+00
      1.316    12.0715     7.4013     68.768  28.139389     37.928      6.866   264.4967     1.9895     3.5221     0.0205      0.083      1.291      1.872        306 5.1366e+01 0.0000e+00
      1.323    12.0717     7.3964     68.720  28.167652     38.004      6.863   264.9131     2.1593     3.6698     0.0206      0.072      1.297      1.882        307 5.4528e+01 0.0000e+00
      1.329    12.0722     7.3980     68.735  28.186466     38.004      6.861   264.5724     2.1229     3.4684     0.0206      0.059      1.307      1.897        308 5.2259e+01 0.0000e+00
      1.350    12.0733     7.3985     68.737  28.175271     38.004      6.863   264.0045     2.1310     3.5490     0.0206      0.048      1.325      1.923        309 5.1774e+01 0.0000e+00
      1.376    12.0726     7.4043     68.784  28.181585     38.003      6.862   264.3452     2.1149     3.5758     0.0206      0.046      1.350      1.958        310 5.4005e+01 0.0000e+00
      1.403    12.0705     7.4163     68.888  28.119313     37.927      6.864   264.1938     2.1270     3.5758     0.0205      0.051      1.378      1.999        311 4.8186e+01 0.0000e+00
      1.437    12.0678     7.4190     68.907  28.134173     37.927      6.860   265.1402     2.1472     3.5624     0.0205      0.064      1.411      2.046        312 4.9968e+01 0.0000e+00
      1.475    12.0634     7.4228     68.936  28.163091     38.005      6.856   266.1624     2.1068     3.6564     0.0206      0.081      1.445      2.096        313 4.9659e+01 0.0000e+00
      1.508    12.0594     7.4194     68.897  28.142624     37.932      6.848   266.5031     2.1229     3.5087     0.0205      0.098      1.477      2.143        314 4.8582e+01 0.0000e+00
      1.537    12.0566     7.4156     68.857  28.159647     38.012      6.843   266.5788     2.1189     3.7772     0.0206      0.111      1.506      2.184        315 4.6856e+01 0.0000e+00
      1.561    12.0541     7.4159     68.855  28.141908     37.941      6.840   266.6545     2.1229     3.6698     0.0205      0.119      1.531      2.221        316 4.5829e+01 0.0000e+00
      1.585    12.0525     7.4144     68.839  28.164702     38.019      6.835   266.6924     2.1068     3.7772     0.0206      0.120      1.555      2.255        317 4.4625e+01 0.0000e+00
      1.609    12.0519     7.4063     68.761  28.131282     37.946      6.834   265.7081     2.1229     3.7638     0.0205      0.117      1.578      2.289        318 4.5724e+01 0.0000e+00
      1.633    12.0506     7.4210     68.898  28.124204     37.948      6.837   266.6167     2.0421     3.5758     0.0205      0.112      1.603      2.326        319 4.3292e+01 0.0000e+00
      1.664    12.0464     7.4118     68.813  28.173511     38.024      6.832   267.0331     2.0825     3.5758     0.0206      0.107      1.633      2.368        320 3.8473e+01 0.0000e+00
      1.698    12.0414     7.4100     68.798  28.129217     37.950      6.831   266.8438     2.0704     3.5624     0.0205      0.105      1.666      2.416        321 4.1754e+01 0.0000e+00
      1.733    12.0374     7.4102     68.801  28.120031     37.954      6.827   267.8660     2.0542     3.5758     0.0205      0.107      1.701      2.468        322 3.5409e+01 0.0000e+00
      1.775    12.0331     7.3974     68.681  28.125648     37.959      6.827   268.2067     2.0380     3.5355     0.0205      0.114      1.741      2.525        323 3.3278e+01 0.0000e+00
      1.819    12.0288     7.3870     68.580  28.122230     37.963      6.828   268.8124     2.0704     3.8309     0.0205      0.125      1.781      2.583        324 3.3819e+01 0.0000e+00
      1.854    12.0253     7.3844     68.550  28.124286     37.968      6.830   265.6324     2.0744     3.8175     0.0205      0.134      1.814      2.632        325 2.9143e+01 0.0000e+00
      1.878    12.0228     7.3745     68.453  28.123091     37.972      6.835   267.4495     2.0542     3.8578     0.0205      0.139      1.839      2.667        326 2.9228e+01 0.0000e+00
      1.894    12.0210     7.3607     68.322  28.123720     37.976      6.833   266.9952     2.0623     3.6832     0.0205      0.136      1.859      2.697        327 2.9394e+01 0.0000e+00
      1.917    12.0199     7.3586     68.301  28.123504     37.978      6.835   267.5252     2.1432     3.5355     0.0205      0.129      1.881      2.728        328 2.7780e+01 0.0000e+00
      1.943    12.0197     7.3519     68.238  28.123361     37.980      6.830   267.4495     2.1270     3.6161     0.0205      0.120      1.904      2.763        329 2.6691e+01 0.0000e+00
      1.965    12.0202     7.3462     68.185  28.123900     37.981      6.832   268.8881     2.1108     3.4684     0.0205      0.109      1.927      2.796        330 2.5930e+01 0.0000e+00
      1.988    12.0211     7.3476     68.197  28.122834     37.982      6.834   269.3045     2.1108     3.5087     0.0205      0.099      1.949      2.826        331 2.5547e+01 0.0000e+00
      2.007    12.0219     7.3478     68.199  28.124688     37.981      6.830   266.2760     2.1634     3.6295     0.0205      0.090      1.969      2.855        332 2.4888e+01 0.0000e+00
      2.027    12.0210     7.3448     68.170  28.180889     38.056      6.831   266.6924     2.2159     3.5758     0.0206      0.086      1.989      2.884        333 2.3684e+01 0.0000e+00
      2.049    12.0183     7.3534     68.250  28.171484     38.055      6.830   266.8438     2.1876     3.5490     0.0206      0.085      2.009      2.913        334 2.3312e+01 0.0000e+00
      2.068    12.0149     7.3583     68.295  28.136391     37.980      6.829   267.0331     2.1553     3.5221     0.0205      0.085      2.028      2.941        335 2.2368e+01 0.0000e+00
      2.085    12.0118     7.3628     68.336  28.165267     38.058      6.831   268.1310     2.0461     3.6161     0.0206      0.082      2.046      2.967        336 2.1410e+01 0.0000e+00
      2.106    12.0098     7.3696     68.399  28.135552     37.987      6.830   268.1310     2.0785     3.5490     0.0205      0.079      2.065      2.995        337 2.0534e+01 0.0000e+00
      2.125    12.0089     7.3731     68.431  28.114078     37.990      6.830   266.6167     2.0785     3.5221     0.0205      0.078      2.083      3.020        338 2.0149e+01 0.0000e+00
      2.139    12.0083     7.3790     68.486  28.043751     37.879      6.834   266.2002     2.0866     3.5355     0.0205      0.075      2.099      3.045        339 1.9951e+01 0.0000e+00
      2.158    12.0078     7.3822     68.515  28.045184     37.879      6.835   266.3517     1.7914     3.4818     0.0205      0.074      2.118      3.072        340 1.9176e+01 0.0000e+00
      2.182    12.0073     7.3792     68.487  28.112294     37.993      6.836   266.6924     1.8116     3.5490     0.0205      0.074      2.140      3.104        341 1.8336e+01 0.0000e+00
      2.207    12.0068     7.3768     68.465  28.138120     37.994      6.832   267.3360     1.8035     3.5758     0.0205      0.076      2.164      3.138        342 1.7884e+01 0.0000e+00
      2.228    12.0067     7.3744     68.443  28.161285     38.070      6.835   267.2602     1.8035     3.4818     0.0206      0.078      2.185      3.169        343 1.7457e+01 0.0000e+00
      2.249    12.0068     7.3803     68.498  28.142764     37.995      6.831   267.5631     1.7833     3.5490     0.0205      0.080      2.208      3.202        344 1.7071e+01 0.0000e+00
      2.276    12.0067     7.3855     68.546  28.161169     38.070      6.832   268.1310     1.9814     3.5221     0.0206      0.084      2.233      3.238        345 1.6487e+01 0.0000e+00
      2.304    12.0062     7.3933     68.618  28.138379     37.995      6.833   267.7145     1.9855     3.4952     0.0205      0.089      2.258      3.274        346 1.6188e+01 0.0000e+00
      2.325    12.0059     7.3967     68.650  28.111832     37.995      6.831   267.4495     1.9895     3.6027     0.0205      0.092      2.279      3.306        347 1.5819e+01 0.0000e+00
      2.343    12.0056     7.4082     68.756  28.134912     37.995      6.834   267.4874     1.9935     3.4952     0.0205      0.092      2.297      3.332        348 1.5546e+01 0.0000e+00
      2.359    12.0054     7.4106     68.779  28.168952     38.071      6.832   267.4874     1.9733     3.6027     0.0206      0.089      2.314      3.356        349 1.5674e+01 0.0000e+00
      2.375    12.0054     7.4151     68.820  28.128766     37.996      6.831   267.6010     2.0097     3.5490     0.0205      0.085      2.330      3.379        350 1.5410e+01 0.0000e+00
      2.392    12.0053     7.4097     68.770  28.125626     37.996      6.830   270.1753     2.0016     3.6027     0.0205      0.081      2.348      3.405        351 1.5064e+01 0.0000e+00
      2.414    12.0052     7.4084     68.758  28.172860     38.072      6.826   269.6453     2.0178     3.6295     0.0206      0.078      2.368      3.435        352 1.4876e+01 0.0000e+00
      2.437    12.0052     7.4057     68.732  28.129282     37.996      6.821   269.6074     1.8439     3.5087     0.0205      0.075      2.391      3.467        353 1.4679e+01 0.0000e+00
      2.461    12.0054     7.4060     68.735  28.120561     37.997      6.819   270.0238     1.8682     3.5221     0.0205      0.075      2.416      3.503        354 1.4125e+01 0.0000e+00
      2.491    12.0056     7.4015     68.692  28.124415     37.996      6.809   269.4560     1.8682     3.6027     0.0205      0.079      2.443      3.543        355 1.3822e+01 0.0000e+00
      2.521    12.0057     7.3991     68.670  28.124487     37.996      6.801   269.9481     1.8601     3.5490     0.0205      0.087      2.470      3.582        356 1.3455e+01 0.0000e+00
      2.543    12.0056     7.3972     68.653  28.120474     37.996      6.798   269.7588     1.9046     3.5490     0.0205      0.093      2.492      3.614        357 1.3273e+01 0.0000e+00
      2.559    12.0055     7.3941     68.624  28.129410     37.996      6.798   272.6360     1.9167     3.5624     0.0205      0.095      2.511      3.641        358 1.3142e+01 0.0000e+00
      2.579    12.0054     7.3932     68.614  28.172663     38.072      6.795   271.5381     1.9046     3.4550     0.0206      0.095      2.529      3.668        359 1.2746e+01 0.0000e+00
      2.598    12.0051     7.3874     68.560  28.125943     37.996      6.797   272.2195     1.9531     3.7235     0.0205      0.092      2.548      3.696        360 1.2710e+01 0.0000e+00
      2.618    12.0049     7.3848     68.535  28.128257     37.996      6.798   272.2195     1.9127     3.6295     0.0205      0.088      2.567      3.723        361 1.2241e+01 0.0000e+00
      2.636    12.0048     7.3836     68.525  28.169782     38.072      6.799   272.2195     1.9167     3.4818     0.0206      0.083      2.583      3.747        362 1.2128e+01 0.0000e+00
      2.647    12.0048     7.3808     68.498  28.133559     37.997      6.798   270.7053     1.9288     3.6295     0.0205      0.076      2.598      3.768        363 1.2122e+01 0.0000e+00
      2.666    12.0045     7.3831     68.519  28.114041     37.997      6.800   271.0838     1.9369     3.5758     0.0205      0.071      2.618      3.796        364 1.1562e+01 0.0000e+00
      2.696    12.0042     7.3807     68.496  28.134778     37.997      6.798   274.2260     1.9288     3.5221     0.0205      0.072      2.644      3.835        365 1.1249e+01 0.0000e+00
      2.727    12.0042     7.3839     68.527  28.167048     38.073      6.794   274.3396     1.8884     3.4952     0.0206      0.077      2.674      3.879        366 1.0809e+01 0.0000e+00
      2.758    12.0042     7.3822     68.511  28.133177     37.997      6.789   274.4153     1.9369     3.6564     0.0205      0.084      2.703      3.921        367 1.0413e+01 0.0000e+00
      2.783    12.0039     7.3799     68.492  28.117634     37.997      6.786   274.5667     1.9369     3.6295     0.0205      0.091      2.728      3.957        368 1.0202e+01 0.0000e+00
      2.804    12.0037     7.3714     68.413  28.127096     37.997      6.783   273.1660     1.9288     3.6027     0.0205      0.096      2.751      3.989        369 9.9418e+00 0.0000e+00
      2.828    12.0033     7.3710     68.411  28.121402     37.998      6.784   273.7338     2.1229     3.5624     0.0205      0.100      2.774      4.022        370 9.6653e+00 0.0000e+00
      2.851    12.0030     7.3645     68.349  28.124721     37.998      6.783   274.6803     2.1270     3.4550     0.0205      0.103      2.795      4.053        371 9.4269e+00 0.0000e+00
      2.868    12.0030     7.3675     68.375  28.122968     37.998      6.783   274.6424     2.1270     3.5892     0.0205      0.100      2.812      4.078        372 9.3648e+00 0.0000e+00
      2.880    12.0027     7.3729     68.425  28.123585     37.999      6.788   274.5667     2.1432     3.5758     0.0205      0.091      2.829      4.103        373 9.1415e+00 0.0000e+00
      2.905    12.0025     7.3768     68.461  28.123953     37.999      6.792   274.9453     2.0542     3.6027     0.0205      0.085      2.853      4.138        374 8.7657e+00 0.0000e+00
      2.942    12.0025     7.3807     68.497  28.122508     37.999      6.786   274.5667     2.0623     3.5490     0.0205      0.085      2.885      4.184        375 8.3397e+00 0.0000e+00
      2.978    12.0025     7.3828     68.516  28.125382     37.999      6.788   274.9074     2.0582     3.5624     0.0205      0.090      2.918      4.232        376 8.0020e+00 0.0000e+00
      3.005    12.0028     7.3903     68.585  28.179674     38.075      6.786   274.7181     2.0582     3.5490     0.0206      0.096      2.946      4.272        377 7.7865e+00 0.0000e+00
      3.028    12.0036     7.3928     68.608  28.114240     37.999      6.789   273.9231     2.0421     3.6027     0.0205      0.101      2.970      4.307        378 7.5739e+00 0.0000e+00
      3.052    12.0046     7.3941     68.619  28.058572     37.886      6.787   274.4910     2.0744     3.4818     0.0205      0.105      2.994      4.343        379 7.3439e+00 0.0000e+00
      3.081    12.0049     7.3931     68.611  28.100711     37.998      6.788   274.7560     2.0461     3.6295     0.0205      0.109      3.021      4.382        380 7.0766e+00 0.0000e+00
      3.110    12.0041     7.3905     68.586  28.061799     37.884      6.785   275.2481     2.0461     3.6295     0.0205      0.112      3.048      4.421        381 6.8849e+00 0.0000e+00
      3.134    12.0029     7.3919     68.600  28.106998     37.997      6.783   275.2860     2.2604     3.5221     0.0205      0.109      3.073      4.457        382 6.7709e+00 0.0000e+00
      3.157    12.0026     7.3823     68.510  28.133405     37.998      6.782   275.3238     2.2928     3.6027     0.0205      0.104      3.097      4.492        383 6.5528e+00 0.0000e+00
      3.184    12.0027     7.3890     68.572  28.117879     37.999      6.784   273.7338     2.2523     3.5355     0.0205      0.101      3.120      4.526        384 6.3849e+00 0.0000e+00
      3.204    12.0026     7.3874     68.557  28.126322     37.999      6.784   274.1503     2.2523     3.5758     0.0205      0.100      3.140      4.554        385 6.2823e+00 0.0000e+00
      3.217    12.0024     7.3913     68.593  28.122901     37.999      6.786   274.2638     2.2443     3.5758     0.0205      0.096      3.157      4.579        386 6.0308e+00 0.0000e+00
      3.238    12.0020     7.3879     68.562  28.181432     38.075      6.785   274.3396     2.3170     3.5221     0.0206      0.091      3.178      4.609        387 5.8436e+00 0.0000e+00
      3.266    12.0017     7.3911     68.591  28.172073     38.075      6.785   275.2103     2.3090     3.5221     0.0206      0.088      3.203      4.646        388 5.6960e+00 0.0000e+00
      3.295    12.0013     7.3895     68.576  28.134550     38.000      6.786   275.4753     2.3332     3.5758     0.0205      0.087      3.231      4.687        389 5.5374e+00 0.0000e+00
      3.324    12.0014     7.3881     68.563  28.109537     38.000      6.786   275.6267     2.3211     3.4952     0.0205      0.090      3.261      4.730        390 5.2874e+00 0.0000e+00
      3.357    12.0018     7.3834     68.519  28.084609     37.925      6.786   274.2260     2.3696     3.6295     0.0205      0.095      3.293      4.776        391 5.0435e+00 0.0000e+00
      3.394    12.0019     7.3841     68.525  28.165574     38.076      6.779   275.1724     2.3656     3.5490     0.0206      0.103      3.326      4.823        392 4.8632e+00 0.0000e+00
      3.422    12.0017     7.3810     68.497  28.186665     38.075      6.779   275.0967     2.3736     3.5490     0.0206      0.111      3.353      4.863        393 4.6914e+00 0.0000e+00
      3.441    12.0016     7.3723     68.416  28.176953     38.075      6.778   275.2860     2.3494     3.6027     0.0206      0.116      3.374      4.894        394 4.5972e+00 0.0000e+00
      3.459    12.0015     7.3684     68.379  28.177661     38.076      6.777   275.5510     2.4424     3.6698     0.0206      0.113      3.395      4.924        395 4.4298e+00 0.0000e+00
      3.487    12.0013     7.3705     68.400  28.126488     38.000      6.776   276.0053     2.4383     3.5221     0.0205      0.109      3.420      4.960        396 4.2914e+00 0.0000e+00
      3.514    12.0012     7.3719     68.412  28.122044     38.000      6.772   276.1188     2.4343     3.4952     0.0205      0.106      3.445      4.997        397 4.1825e+00 0.0000e+00
      3.538    12.0009     7.3695     68.390  28.123895     38.000      6.772   275.7024     2.4343     3.6295     0.0205      0.101      3.467      5.029        398 4.0657e+00 0.0000e+00
      3.552    12.0007     7.3715     68.408  28.124187     38.001      6.768   275.6267     2.1998     3.6698     0.0205      0.094      3.485      5.054        399 4.0023e+00 0.0000e+00
      3.570    12.0008     7.3707     68.401  28.180979     38.076      6.770   275.9296     2.1876     3.5221     0.0206      0.088      3.505      5.084        400 3.8045e+00 0.0000e+00
      3.602    12.0008     7.3741     68.432  28.171809     38.077      6.765   276.3460     2.1634     3.4818     0.0206      0.088      3.533      5.124        401 3.6205e+00 0.0000e+00
      3.636    12.0006     7.3768     68.457  28.135598     38.001      6.762   277.0653     2.1998     3.4952     0.0205      0.092      3.564      5.169        402 3.5166e+00 0.0000e+00
      3.664    12.0007     7.3826     68.511  28.166748     38.077      6.758   276.9896     2.1108     3.5355     0.0206      0.097      3.591      5.208        403 3.4149e+00 0.0000e+00
      3.682    12.0005     7.3874     68.556  28.133043     38.001      6.755   276.7246     2.1068     3.6027     0.0205      0.097      3.611      5.237        404 3.3263e+00 0.0000e+00
      3.700    12.0006     7.3945     68.621  28.118247     38.001      6.752   277.1031     2.1553     3.6027     0.0205      0.096      3.628      5.262        405 3.2745e+00 0.0000e+00
      3.717    12.0007     7.4004     68.677  28.185162     38.077      6.752   277.0653     2.1310     3.5490     0.0206      0.095      3.647      5.289        406 3.2059e+00 0.0000e+00
      3.739    12.0006     7.3987     68.661  28.109064     38.001      6.754   277.0653     2.1229     3.5758     0.0205      0.094      3.667      5.319        407 3.0648e+00 0.0000e+00
      3.763    12.0007     7.3985     68.659  28.064710     37.888      6.757   277.0653     1.9572     3.6295     0.0205      0.090      3.691      5.353        408 2.9403e+00 0.0000e+00
      3.790    12.0006     7.3957     68.633  28.092121     38.001      6.760   276.9896     1.9572     3.4684     0.0205      0.086      3.717      5.391        409 2.8353e+00 0.0000e+00
      3.819    12.0004     7.3847     68.532  28.074951     37.888      6.763   276.8760     1.9814     3.5087     0.0205      0.085      3.747      5.434        410 2.7645e+00 0.0000e+00
      3.853    12.0003     7.3789     68.478  28.145375     38.077      6.765   277.4060     1.9895     3.5758     0.0206      0.091      3.779      5.481        411 2.6769e+00 0.0000e+00
      3.887    12.0003     7.3819     68.507  28.152722     38.001      6.762   277.7467     2.2523     3.7504     0.0205      0.100      3.811      5.527        412 2.5912e+00 0.0000e+00
      3.915    12.0003     7.3863     68.547  28.154752     38.077      6.758   278.0874     2.2726     3.7772     0.0206      0.108      3.842      5.572        413 2.5115e+00 0.0000e+00
      3.952    12.0002     7.3891     68.574  28.142849     38.002      6.758   278.0874     2.2685     3.7772     0.0205      0.116      3.877      5.623        414 2.4402e+00 0.0000e+00
      3.994    12.0003     7.3919     68.600  28.167535     38.077      6.752   278.5039     2.2443     3.8041     0.0206      0.125      3.914      5.677        415 2.3593e+00 0.0000e+00
      4.027    12.0004     7.3955     68.633  28.183326     38.077      6.753   278.5417     2.3251     3.6295     0.0206      0.131      3.947      5.725        416 2.2652e+00 0.0000e+00
      4.054    12.0005     7.3997     68.672  28.123198     38.002      6.752   278.6174     2.3292     3.5355     0.0205      0.133      3.974      5.764        417 2.2292e+00 0.0000e+00
      4.076    12.0005     7.3962     68.639  28.123772     38.001      6.750   278.4660     2.3251     3.6295     0.0205      0.130      3.996      5.796        418 2.1826e+00 0.0000e+00
      4.095    12.0006     7.3896     68.579  28.123315     38.001      6.752   278.4660     2.3211     3.6295     0.0205      0.123      4.016      5.825        419 2.1329e+00 0.0000e+00
      4.115    12.0009     7.3814     68.503  28.123767     38.001      6.754   278.5796     2.3898     3.6161     0.0205      0.115      4.035      5.853        420 2.0744e+00 0.0000e+00
      4.135    12.0011     7.3786     68.476  28.123211     38.001      6.754   279.1096     2.3817     3.5758     0.0205      0.106      4.055      5.882        421 2.0233e+00 0.0000e+00
      4.156    12.0014     7.3769     68.461  28.124007     38.001      6.755   278.5417     2.3979     3.5892     0.0205      0.095      4.076      5.912        422 1.9924e+00 0.0000e+00
      4.178    12.0016     7.3787     68.477  28.122775     38.001      6.754   279.4881     2.3979     3.5355     0.0205      0.087      4.097      5.943        423 1.9542e+00 0.0000e+00
      4.201    12.0018     7.3749     68.442  28.124743     38.000      6.755   278.7689     2.5192     3.5355     0.0205      0.083      4.120      5.976        424 1.9262e+00 0.0000e+00
      4.224    12.0020     7.3767     68.458  28.121558     38.000      6.754   279.2989     2.5030     3.5221     0.0205      0.083      4.140      6.006        425 1.8708e+00 0.0000e+00
      4.240    12.0019     7.3821     68.509  28.126739     38.000      6.755   278.8824     2.5192     3.5758     0.0205      0.082      4.158      6.032        426 1.8297e+00 0.0000e+00
      4.259    12.0019     7.3817     68.505  28.118296     38.000      6.754   279.0717     2.5111     3.4952     0.0205      0.082      4.177      6.058        427 1.8023e+00 0.0000e+00
      4.279    12.0020     7.3831     68.516  28.132065     38.000      6.760   279.3367     2.5394     3.5490     0.0205      0.081      4.197      6.088        428 1.7573e+00 0.0000e+00
      4.303    12.0019     7.3841     68.525  28.168900     38.075      6.757   279.8289     2.5233     3.5490     0.0206      0.081      4.220      6.121        429 1.6963e+00 0.0000e+00
      4.328    12.0021     7.3857     68.539  28.131752     38.000      6.755   279.9046     2.5394     3.6027     0.0205      0.082      4.246      6.158        430 1.6670e+00 0.0000e+00
      4.358    12.0019     7.3878     68.558  28.119001     38.000      6.753   279.1853     2.5192     3.5624     0.0205      0.085      4.273      6.197        431 1.6372e+00 0.0000e+00
      4.383    12.0017     7.3915     68.593  28.125474     38.000      6.752   279.2610     2.5030     3.6027     0.0205      0.088      4.296      6.231        432 1.5960e+00 0.0000e+00
      4.401    12.0017     7.3983     68.656  28.123695     38.000      6.751   279.2610     2.4667     3.6027     0.0205      0.091      4.316      6.260        433 1.5648e+00 0.0000e+00
      4.420    12.0017     7.3935     68.611  28.180509     38.076      6.749   279.5260     2.4505     3.6564     0.0206      0.092      4.335      6.287        434 1.5200e+00 0.0000e+00
      4.441    12.0017     7.3931     68.607  28.114065     38.000      6.750   280.0181     2.4545     3.6295     0.0205      0.092      4.354      6.315        435 1.4970e+00 0.0000e+00
      4.458    12.0017     7.4026     68.695  28.058146     37.887      6.748   280.3210     2.4464     3.5758     0.0205      0.089      4.372      6.340        436 1.4573e+00 0.0000e+00
      4.475    12.0014     7.4075     68.739  28.161159     38.076      6.749   279.2610     2.3090     3.5221     0.0206      0.084      4.388      6.364        437 1.4518e+00 0.0000e+00
      4.491    12.0009     7.4057     68.723  28.193404     38.076      6.748   279.1853     2.3009     3.5758     0.0206      0.078      4.404      6.388        438 1.4345e+00 0.0000e+00
      4.506    12.0003     7.3995     68.667  28.166256     38.076      6.750   279.6774     2.3292     3.6161     0.0206      0.072      4.419      6.410        439 1.3858e+00 0.0000e+00
      4.522    12.0000     7.3877     68.558  28.135647     38.001      6.748   279.4503     2.3332     3.5221     0.0205      0.068      4.434      6.431        440 1.3757e+00 0.0000e+00
      4.537    12.0000     7.3902     68.580  28.112903     38.001      6.749   279.4124     2.3211     3.6027     0.0205      0.066      4.449      6.452        441 1.3718e+00 0.0000e+00
      4.550    11.9998     7.3827     68.510  28.135264     38.002      6.750   279.7531     2.3332     3.6564     0.0205      0.063      4.463      6.472        442 1.3614e+00 0.0000e+00
      4.565    11.9998     7.3741     68.431  28.107820     38.002      6.750   279.7153     2.3251     3.5758     0.0205      0.061      4.478      6.495        443 1.3563e+00 0.0000e+00
      4.583    11.9996     7.3666     68.363  28.087761     37.927      6.751   280.5860     2.3130     3.6027     0.0205      0.060      4.496      6.520        444 1.3461e+00 0.0000e+00
      4.603    11.9994     7.3555     68.260  28.100931     38.002      6.753   280.0560     2.1917     3.3475     0.0205      0.061      4.516      6.550        445 1.2678e+00 0.0000e+00
      4.628    11.9991     7.3537     68.244  28.061783     37.889      6.750   280.5103     2.1917     3.2938     0.0205      0.065      4.537      6.581        446 1.2445e+00 0.0000e+00
      4.649    11.9987     7.3539     68.246  28.106834     38.002      6.748   279.8289     2.2200     3.3744     0.0205      0.069      4.558      6.610        447 1.2385e+00 0.0000e+00
      4.666    11.9989     7.3538     68.245  28.133810     38.003      6.748   280.1696     2.1917     3.4147     0.0205      0.072      4.576      6.637        448 1.1940e+00 0.0000e+00
      4.685    11.9994     7.3573     68.278  28.117156     38.003      6.745   280.3210     2.2079     3.2938     0.0205      0.075      4.595      6.665        449 1.1979e+00 0.0000e+00
      4.707    11.9997     7.3711     68.406  28.127561     38.003      6.746   280.0181     2.2928     3.5758     0.0205      0.078      4.618      6.698        450 1.1691e+00 0.0000e+00
      4.736    11.9995     7.3828     68.514  28.120862     38.002      6.744   282.7060     2.3170     3.5758     0.0205      0.082      4.644      6.736        451 1.1171e+00 0.0000e+00
      4.764    11.9994     7.3943     68.620  28.125493     38.002      6.739   281.7217     2.3292     3.6295     0.0205      0.086      4.672      6.777        452 1.0973e+00 0.0000e+00
      4.794    11.9998     7.4021     68.693  28.121797     38.002      6.736   282.6682     2.3292     3.6967     0.0205      0.091      4.701      6.817        453 1.0751e+00 0.0000e+00
      4.821    12.0003     7.4109     68.774  28.184757     38.078      6.735   282.4410     2.3292     3.6967     0.0206      0.095      4.726      6.854        454 1.0155e+00 0.0000e+00
      4.841    12.0009     7.4125     68.788  28.165733     38.078      6.730   281.7217     2.2968     3.6295     0.0206      0.099      4.746      6.884        455 9.7206e-01 0.0000e+00
      4.859    12.0013     7.4142     68.803  28.056529     37.888      6.729   281.3431     2.3130     3.5221     0.0205      0.100      4.763      6.909        456 9.5124e-01 0.0000e+00
      4.873    12.0010     7.4125     68.787  28.172420     38.076      6.728   284.8639     2.3211     3.5221     0.0206      0.097      4.778      6.930        457 9.5992e-01 0.0000e+00
      4.884    12.0010     7.4073     68.739  28.169748     38.076      6.730   283.3117     2.2119     3.5221     0.0206      0.089      4.791      6.948        458 9.6337e-01 0.0000e+00
      4.898    12.0013     7.4056     68.723  28.059853     37.887      6.732   283.5767     2.1553     3.4684     0.0205      0.079      4.806      6.971        459 8.7881e-01 0.0000e+00
      4.921    12.0014     7.4031     68.700  28.101646     38.001      6.734   283.6903     2.1957     3.6429     0.0205      0.072      4.828      7.001        460 8.6185e-01 0.0000e+00
      4.949    12.0013     7.3990     68.662  28.147386     38.001      6.733   284.0689     2.1876     3.5355     0.0205      0.069      4.854      7.039        461 8.6971e-01 0.0000e+00
      4.978    12.0010     7.3939     68.614  28.151171     38.076      6.728   282.2896     2.2968     3.5221     0.0206      0.072      4.881      7.079        462 8.1708e-01 0.0000e+00
      5.004    12.0006     7.3869     68.548  28.067289     37.887      6.727   282.5546     2.3090     3.4952     0.0205      0.078      4.908      7.118        463 8.0339e-01 0.0000e+00
      5.033    12.0003     7.3850     68.530  28.103538     38.001      6.727   285.7724     2.3049     3.5758     0.0205      0.087      4.934      7.156        464 7.8817e-01 0.0000e+00
      5.057    11.9999     7.3876     68.554  28.135708     38.001      6.722   285.2046     2.3211     3.5490     0.0205      0.095      4.957      7.190        465 7.6680e-01 0.0000e+00
      5.074    11.9995     7.3868     68.546  28.116197     38.002      6.723   285.3182     2.5071     3.5892     0.0205      0.099      4.975      7.216        466 7.3858e-01 0.0000e+00
      5.090    11.9993     7.3871     68.549  28.127819     38.002      6.725   285.3939     2.5192     3.5355     0.0205      0.098      4.991      7.239        467 7.1731e-01 0.0000e+00
      5.106    11.9993     7.3928     68.602  28.121244     38.002      6.725   284.2960     2.4950     3.6295     0.0205      0.092      5.006      7.261        468 7.1542e-01 0.0000e+00
      5.120    11.9993     7.4016     68.684  28.124380     38.002      6.726   284.1824     2.5192     3.5758     0.0205      0.083      5.019      7.280        469 6.9725e-01 0.0000e+00
      5.127    11.9995     7.4042     68.708  28.123917     38.003      6.729   284.7882     2.4950     3.6295     0.0205      0.073      5.030      7.296        470 6.8285e-01 0.0000e+00
      5.141    11.9995     7.4069     68.732  28.121820     38.003      6.729   285.6210     2.2604     3.4415     0.0205      0.065      5.045      7.316        471 7.0448e-01 0.0000e+00
      5.164    11.9991     7.4102     68.762  28.126989     38.002      6.732   285.5453     2.2443     3.5221     0.0205      0.059      5.065      7.346        472 6.8993e-01 0.0000e+00
      5.189    11.9987     7.4056     68.720  28.117485     38.002      6.732   286.0753     2.2523     3.6564     0.0205      0.060      5.090      7.383        473 6.5628e-01 0.0000e+00
      5.219    11.9984     7.4046     68.710  28.133649     38.003      6.727   286.4539     2.2604     3.6161     0.0205      0.067      5.119      7.426        474 6.4563e-01 0.0000e+00
      5.252    11.9982     7.4034     68.699  28.106873     38.003      6.725   286.5674     2.1755     3.5758     0.0205      0.076      5.152      7.472        475 6.4490e-01 0.0000e+00
      5.288    11.9981     7.4045     68.709  28.061862     37.890      6.718   287.0974     2.1512     3.5624     0.0205      0.089      5.187      7.523        476 6.3836e-01 0.0000e+00
      5.329    11.9981     7.3976     68.645  28.160017     38.079      6.712   285.2803     2.2079     3.5624     0.0206      0.104      5.223      7.576        477 5.9276e-01 0.0000e+00
      5.362    11.9982     7.3957     68.628  28.132963     38.004      6.703   286.3782     2.2079     3.6698     0.0205      0.119      5.255      7.622        478 5.7469e-01 0.0000e+00
      5.385    11.9983     7.3880     68.556  28.125179     38.004      6.706   286.1132     2.3251     3.5758     0.0205      0.126      5.280      7.658        479 5.6109e-01 0.0000e+00
      5.405    11.9980     7.3812     68.493  28.169703     38.079      6.703   287.2867     2.2847     3.6161     0.0206      0.125      5.299      7.685        480 5.3659e-01 0.0000e+00
      5.418    11.9976     7.3778     68.461  28.136848     38.004      6.704   286.9082     2.3090     3.5355     0.0205      0.119      5.313      7.705        481 5.6497e-01 0.0000e+00
      5.428    11.9974     7.3768     68.452  28.106771     38.004      6.705   286.8703     2.3251     3.6161     0.0205      0.106      5.323      7.719        482 5.5993e-01 0.0000e+00
      5.435    11.9975     7.3794     68.476  28.058894     37.891      6.708   286.9839     1.9814     3.5624     0.0205      0.090      5.333      7.734        483 5.2128e-01 0.0000e+00
      5.450    11.9974     7.3838     68.517  28.107485     38.004      6.711   283.5010     2.0016     3.5758     0.0205      0.074      5.348      7.756        484 5.3090e-01 0.0000e+00
      5.474    11.9971     7.3864     68.542  28.135245     38.004      6.712   284.7124     1.9935     3.6295     0.0205      0.063      5.370      7.787        485 5.0518e-01 0.0000e+00
      5.501    11.9971     7.4024     68.690  28.113294     38.005      6.712   285.1289     2.0097     3.5490     0.0205      0.061      5.396      7.825        486 4.8618e-01 0.0000e+00
      5.530    11.9972     7.4131     68.789  28.134803     38.005      6.708   285.9996     2.1755     3.5490     0.0205      0.065      5.421      7.861        487 4.9974e-01 0.0000e+00
      5.550    11.9971     7.4105     68.765  28.167772     38.080      6.707   286.7946     2.1472     3.5624     0.0206      0.072      5.441      7.891        488 4.8047e-01 0.0000e+00
      5.565    11.9970     7.4103     68.763  28.131561     38.005      6.707   286.1510     2.1755     3.5355     0.0205      0.078      5.458      7.916        489 4.8654e-01 0.0000e+00
      5.583    11.9970     7.4103     68.763  28.120572     38.005      6.710   283.5389     2.1755     3.6027     0.0205      0.083      5.474      7.940        490 4.9675e-01 0.0000e+00
      5.598    11.9970     7.4085     68.746  28.122151     38.005      6.710   283.9553     2.1755     3.5490     0.0205      0.084      5.489      7.961        491 4.6692e-01 0.0000e+00
      5.610    11.9969     7.4100     68.760  28.129596     38.005      6.709   283.9553     2.3939     3.3207     0.0205      0.079      5.504      7.982        492 4.6276e-01 0.0000e+00
      5.628    11.9971     7.4048     68.712  28.170605     38.080      6.711   283.8796     2.3898     3.3744     0.0206      0.073      5.521      8.008        493 4.7069e-01 0.0000e+00
      5.652    11.9973     7.4027     68.692  28.130414     38.005      6.714   283.7660     2.3736     3.3744     0.0205      0.069      5.543      8.039        494 4.4459e-01 0.0000e+00
      5.675    11.9973     7.3977     68.645  28.120317     38.005      6.714   285.1289     2.3898     3.4012     0.0205      0.068      5.564      8.070        495 4.2732e-01 0.0000e+00
      5.694    11.9971     7.3989     68.656  28.123873     38.005      6.714   285.0532     2.4060     3.4550     0.0205      0.070      5.583      8.098        496 4.3045e-01 0.0000e+00
      5.712    11.9970     7.3985     68.652  28.125989     38.005      6.716   284.0689     2.3858     3.5892     0.0205      0.073      5.602      8.125        497 4.3719e-01 0.0000e+00
      5.732    11.9971     7.3995     68.661  28.176980     38.080      6.716   284.4096     2.3817     3.6832     0.0206      0.075      5.622      8.153        498 4.2371e-01 0.0000e+00
      5.754    11.9968     7.3925     68.597  28.179006     38.080      6.716   284.0689     2.3656     3.5490     0.0206      0.078      5.643      8.185        499 4.0599e-01 0.0000e+00
      5.778    11.9969     7.3900     68.574  28.123467     38.005      6.711   284.3717     2.3777     3.6027     0.0205      0.081      5.666      8.218        500 4.0904e-01 0.0000e+00
      5.800    11.9968     7.3882     68.557  28.127506     38.005      6.708   284.6746     2.3898     3.5087     0.0205      0.082      5.689      8.251        501 3.8845e-01 0.0000e+00
      5.825    11.9969     7.3857     68.534  28.114685     38.005      6.707   285.4317     2.3777     3.5624     0.0205      0.084      5.711      8.284        502 3.6259e-01 0.0000e+00
      5.845    11.9970     7.3878     68.553  28.139423     38.005      6.700   285.9617     2.3615     3.5758     0.0205      0.085      5.732      8.314        503 3.5487e-01 0.0000e+00
      5.866    11.9968     7.3870     68.546  28.156016     38.080      6.702   285.6967     2.0946     3.5490     0.0206      0.086      5.754      8.346        504 3.5101e-01 0.0000e+00
      5.894    11.9965     7.3873     68.549  28.064389     37.892      6.698   285.9617     2.1351     3.5758     0.0205      0.089      5.777      8.380        505 3.5682e-01 0.0000e+00
      5.913    11.9964     7.3887     68.562  28.105211     38.005      6.695   286.1889     2.1068     3.5892     0.0205      0.089      5.796      8.407        506 3.4905e-01 0.0000e+00
      5.925    11.9966     7.3960     68.630  28.134860     38.005      6.694   285.5453     2.1189     3.6027     0.0205      0.086      5.811      8.429        507 3.3931e-01 0.0000e+00
      5.942    11.9965     7.3954     68.624  28.116435     38.005      6.692   285.6210     2.1270     3.6027     0.0205      0.082      5.829      8.455        508 3.3857e-01 0.0000e+00
      5.966    11.9964     7.3958     68.628  28.128141     38.005      6.694   285.9996     2.1432     3.5758     0.0205      0.080      5.852      8.488        509 3.2300e-01 0.0000e+00
      5.994    11.9965     7.3975     68.643  28.120292     38.006      6.692   287.1732     2.1391     3.5758     0.0205      0.080      5.879      8.526        510 3.0918e-01 0.0000e+00
      6.024    11.9964     7.4021     68.685  28.126204     38.005      6.690   287.0217     2.1149     3.4281     0.0205      0.083      5.905      8.564        511 3.0911e-01 0.0000e+00
      6.046    11.9964     7.3985     68.651  28.120786     38.006      6.689   286.9839     2.1149     3.4952     0.0205      0.086      5.926      8.594        512 3.1595e-01 0.0000e+00
      6.057    11.9965     7.3923     68.595  28.127035     38.006      6.692   286.3403     2.1957     3.5758     0.0205      0.085      5.939      8.614        513 3.2294e-01 0.0000e+00
      6.066    11.9964     7.3918     68.589  28.177723     38.081      6.691   286.5296     2.1836     3.5624     0.0206      0.083      5.948      8.628        514 3.1558e-01 0.0000e+00
      6.075    11.9965     7.3912     68.584  28.117002     38.005      6.694   286.4917     2.1634     3.6295     0.0205      0.079      5.958      8.641        515 3.0171e-01 0.0000e+00
      6.084    11.9967     7.3922     68.593  28.054361     37.892      6.692   286.3024     2.1512     3.6161     0.0205      0.070      5.967      8.653        516 3.0730e-01 0.0000e+00
      6.092    11.9965     7.3915     68.586  28.166735     38.081      6.696   286.5674     1.9248     3.5355     0.0206      0.059      5.977      8.668        517 3.0703e-01 0.0000e+00
      6.107    11.9964     7.3927     68.598  28.184690     38.081      6.700   286.1510     1.9369     3.6295     0.0206      0.049      5.992      8.690        518 2.8325e-01 0.0000e+00
      6.130    11.9964     7.3945     68.614  28.120960     38.005      6.699   286.4917     1.9369     3.4550     0.0205      0.045      6.013      8.722        519 2.7963e-01 0.0000e+00
      6.158    11.9962     7.3959     68.627  28.127455     38.006      6.698   286.5674     1.9167     3.5892     0.0205      0.050      6.038      8.759        520 2.6659e-01 0.0000e+00
      6.185    11.9961     7.3986     68.652  28.117311     38.005      6.689   287.3246     2.0057     3.5892     0.0205      0.060      6.063      8.794        521 2.5420e-01 0.0000e+00
      6.205    11.9959     7.3981     68.646  28.133583     38.006      6.690   287.1353     1.9895     3.6967     0.0205      0.070      6.083      8.823        522 2.8166e-01 0.0000e+00
      6.218    11.9959     7.4015     68.678  28.166501     38.081      6.685   287.0974     2.0016     3.5758     0.0206      0.077      6.098      8.844        523 2.8046e-01 0.0000e+00
      6.231    11.9956     7.4049     68.709  28.135642     38.006      6.684   286.8324     1.9895     3.5355     0.0205      0.080      6.110      8.862        524 2.5601e-01 0.0000e+00
      6.240    11.9957     7.4032     68.694  28.112691     38.006      6.687   286.2646     2.0016     3.4952     0.0205      0.078      6.121      8.879        525 2.6133e-01 0.0000e+00
      6.256    11.9958     7.4005     68.668  28.135767     38.006      6.689   286.3024     2.0097     3.5758     0.0205      0.072      6.136      8.900        526 2.7249e-01 0.0000e+00
      6.277    11.9957     7.3974     68.640  28.166220     38.082      6.686   286.3024     2.0097     3.5355     0.0206      0.066      6.154      8.926        527 2.7339e-01 0.0000e+00
      6.293    11.9958     7.3966     68.633  28.134089     38.006      6.686   286.7946     1.9652     3.6027     0.0205      0.061      6.172      8.951        528 2.6115e-01 0.0000e+00
      6.310    11.9956     7.3949     68.617  28.116457     38.006      6.688   286.3782     2.0178     3.5758     0.0205      0.059      6.188      8.976        529 2.5431e-01 0.0000e+00
      6.327    11.9956     7.3959     68.626  28.128866     38.006      6.689   286.8324     2.0421     3.5490     0.0205      0.061      6.205      9.001        530 2.4951e-01 0.0000e+00
      6.346    11.9954     7.3948     68.615  28.118647     38.006      6.693   286.6810     2.0502     3.6564     0.0205      0.064      6.223      9.026        531 2.3588e-01 0.0000e+00
      6.364    11.9951     7.3893     68.565  28.129177     38.006      6.694   286.4160     2.0380     3.6295     0.0205      0.067      6.241      9.051        532 2.2683e-01 0.0000e+00
      6.382    11.9950     7.3881     68.553  28.115765     38.007      6.695   286.3403     2.0461     3.5624     0.0205      0.069      6.257      9.076        533 2.4113e-01 0.0000e+00
      6.396    11.9950     7.3847     68.521  28.135339     38.007      6.697   285.8482     2.0461     3.5490     0.0205      0.069      6.272      9.097        534 2.4921e-01 0.0000e+00
      6.408    11.9951     7.3863     68.536  28.164112     38.082      6.700   285.7724     2.0299     3.5490     0.0206      0.066      6.285      9.116        535 2.2359e-01 0.0000e+00
      6.422    11.9951     7.3831     68.506  28.139252     38.007      6.702   287.5517     2.0785     3.5892     0.0205      0.064      6.299      9.136        536 2.1464e-01 0.0000e+00
      6.438    11.9951     7.3806     68.483  28.166276     38.082      6.702   287.2489     2.0704     3.5221     0.0206      0.062      6.316      9.161        537 2.0521e-01 0.0000e+00
      6.463    11.9952     7.3815     68.491  28.130481     38.007      6.701   287.4003     2.2523     3.5221     0.0205      0.063      6.338      9.192        538 2.1416e-01 0.0000e+00
      6.486    11.9951     7.3834     68.508  28.124504     38.007      6.703   287.4003     2.2806     3.6295     0.0205      0.065      6.360      9.224        539 2.1015e-01 0.0000e+00
      6.505    11.9950     7.3839     68.512  28.173716     38.082      6.702   286.1132     2.2685     3.6027     0.0206      0.068      6.380      9.254        540 2.0036e-01 0.0000e+00
      6.528    11.9948     7.3846     68.518  28.128534     38.007      6.701   286.6810     2.2362     3.5355     0.0205      0.072      6.403      9.287        541 2.0641e-01 0.0000e+00
      6.555    11.9947     7.3852     68.524  28.121435     38.007      6.701   286.8324     2.2079     3.4952     0.0205      0.079      6.428      9.322        542 2.0342e-01 0.0000e+00
      6.580    11.9946     7.3852     68.523  28.182550     38.083      6.699   288.7632     2.2240     3.4550     0.0206      0.085      6.450      9.356        543 2.3169e-01 0.0000e+00
      6.599    11.9942     7.3870     68.540  28.171071     38.083      6.701   289.0660     2.2443     3.4818     0.0206      0.089      6.468      9.383        544 2.2168e-01 0.0000e+00
      6.610    11.9941     7.3942     68.607  28.135721     38.007      6.699   288.7253     2.2604     3.5758     0.0205      0.087      6.482      9.403        545 2.0908e-01 0.0000e+00
      6.623    11.9942     7.3943     68.607  28.167247     38.083      6.698   288.2710     2.2443     3.5490     0.0206      0.082      6.497      9.424        546 1.9724e-01 0.0000e+00
      6.642    11.9941     7.4059     68.714  28.131837     38.008      6.699   288.1953     2.2362     3.5758     0.0205      0.078      6.515      9.450        547 1.8896e-01 0.0000e+00
      6.665    11.9941     7.4019     68.676  28.120490     38.008      6.700   288.2332     2.2523     3.6161     0.0205      0.075      6.538      9.483        548 2.0473e-01 0.0000e+00
      6.695    11.9937     7.3991     68.648  28.181368     38.083      6.701   288.8010     2.2523     3.5087     0.0206      0.075      6.563      9.520        549 1.6981e-01 0.0000e+00
      6.719    11.9933     7.3938     68.598  28.174668     38.083      6.699   288.6496     2.1755     3.5758     0.0206      0.076      6.586      9.553        550 1.6144e-01 0.0000e+00
      6.734    11.9933     7.3873     68.535  28.188125     38.084      6.699   289.7475     2.1876     3.5490     0.0206      0.078      6.603      9.577        551 1.7474e-01 0.0000e+00
      6.747    11.9933     7.3906     68.563  28.223919     38.160      6.695   289.5203     2.1836     3.5624     0.0206      0.079      6.618      9.598        552 1.7043e-01 0.0000e+00
      6.764    11.9929     7.3804     68.470  28.130124     38.009      6.695   289.5582     2.1715     3.5490     0.0205      0.080      6.634      9.622        553 1.6282e-01 0.0000e+00
      6.786    11.9927     7.3860     68.525  28.126963     38.009      6.697   290.0125     2.1796     3.5087     0.0205      0.080      6.654      9.650        554 1.6574e-01 0.0000e+00
      6.805    11.9928     7.3842     68.509  28.168557     38.085      6.697   289.8610     2.5030     3.4818     0.0206      0.077      6.673      9.678        555 1.7340e-01 0.0000e+00
      6.821    11.9923     7.3853     68.521  28.137657     38.009      6.697   287.8546     2.4869     3.5355     0.0205      0.073      6.691      9.704        556 1.6735e-01 0.0000e+00
      6.842    11.9918     7.3845     68.514  28.165417     38.085      6.695   288.6875     2.5192     3.5355     0.0206      0.070      6.712      9.735        557 1.6793e-01 0.0000e+00
      6.871    11.9913     7.3877     68.544  28.134011     38.010      6.693   289.1796     2.5030     3.6295     0.0205      0.073      6.737      9.771        558 1.3236e-01 0.0000e+00
      6.896    11.9901     7.3819     68.492  28.117446     38.010      6.689   289.3310     2.3736     3.5087     0.0205      0.079      6.761      9.806        559 1.3578e-01 0.0000e+00
      6.914    11.9891     7.3762     68.439  28.186032     38.086      6.688   289.3689     2.3696     3.5355     0.0206      0.083      6.782      9.837        560 1.6041e-01 0.0000e+00
      6.936    11.9880     7.3814     68.487  28.167249     38.088      6.689   290.9210     2.3898     3.5758     0.0206      0.086      6.803      9.868        561 1.3897e-01 0.0000e+00
      6.962    11.9866     7.3767     68.443  28.140821     38.013      6.684   291.2996     2.4262     3.6429     0.0205      0.088      6.826      9.901        562 1.4133e-01 0.0000e+00
      6.985    11.9874     7.3773     68.449  28.159627     38.090      6.680   287.5139     2.3817     3.6027     0.0206      0.090      6.850      9.935        563 1.3624e-01 0.0000e+00
      7.008    11.9890     7.3758     68.435  28.143847     38.016      6.679   287.9303     2.3736     3.4550     0.0205      0.092      6.875      9.971        564 1.3855e-01 0.0000e+00
      7.039    11.9896     7.3728     68.408  28.101163     38.015      6.676   288.0439     2.3898     3.6161     0.0205      0.093      6.903     10.011        565 1.3229e-01 0.0000e+00
      7.068    11.9904     7.3643     68.327  28.153450     38.013      6.675   288.5360     2.3898     3.5490     0.0205      0.095      6.930     10.050        566 1.2202e-01 0.0000e+00
      7.089    11.9910     7.3650     68.332  28.197369     38.164      6.672   290.0503     1.9855     3.4952     0.0206      0.097      6.950     10.080        567 1.3698e-01 0.0000e+00
      7.103    11.9915     7.3491     68.183  28.076155     37.898      6.672   289.9746     2.0016     3.5221     0.0205      0.097      6.965     10.102        568 1.3898e-01 0.0000e+00
      7.115    11.9919     7.3483     68.175  28.096762     38.011      6.671   287.8546     2.0016     3.4952     0.0205      0.092      6.976     10.119        569 1.2864e-01 0.0000e+00
      7.124    11.9921     7.3489     68.181  28.142076     38.011      6.673   287.5517     1.9814     3.5355     0.0205      0.083      6.986     10.133        570 1.2359e-01 0.0000e+00
      7.134    11.9922     7.3556     68.245  28.168004     38.086      6.675   287.6653     1.8278     3.5490     0.0206      0.074      6.995     10.145        571 1.2833e-01 0.0000e+00
      7.140    11.9920     7.3557     68.246  28.183088     38.085      6.677   287.5139     1.7914     3.5355     0.0206      0.062      7.003     10.157        572 1.3046e-01 0.0000e+00
      7.147    11.9921     7.3694     68.373  28.182599     38.085      6.676   288.2332     1.8075     3.4281     0.0206      0.050      7.016     10.177        573 1.2704e-01 0.0000e+00
      7.177    11.9922     7.3673     68.353  28.168612     38.086      6.675   288.6117     1.8075     3.5221     0.0206      0.046      7.045     10.218        574 1.2506e-01 0.0000e+00
      7.228    11.9920     7.3736     68.411  28.141199     38.010      6.671   289.7096     1.7833     3.5490     0.0205      0.056      7.090     10.283        575 1.2635e-01 0.0000e+00
      7.283    11.9915     7.3761     68.433  28.157418     38.085      6.661   290.8832     1.8197     3.6295     0.0206      0.077      7.142     10.359        576 1.2554e-01 0.0000e+00
      7.339    11.9905     7.3724     68.398  28.059484     37.897      6.655   290.8832     1.8075     3.4952     0.0205      0.104      7.193     10.434        577 1.2597e-01 0.0000e+00
      7.385    11.9894     7.3757     68.428  28.114837     38.011      6.649   290.7317     1.8075     3.4952     0.0205      0.132      7.236     10.496        578 1.2561e-01 0.0000e+00
      7.414    11.9890     7.3733     68.406  28.177477     38.087      6.648   289.5203     1.8278     3.7101     0.0206      0.153      7.266     10.537        579 1.2591e-01 0.0000e+00
      7.426    11.9895     7.3732     68.404  28.129769     38.013      6.649   289.5203     1.9895     3.5624     0.0205      0.162      7.281     10.560        580 1.2573e-01 0.0000e+00
      7.433    11.9900     7.3770     68.439  28.174210     38.089      6.651   289.5582     1.9895     3.5490     0.0206      0.155      7.292     10.576        581 1.2574e-01 0.0000e+00
      7.447    11.9903     7.3765     68.434  28.181469     38.088      6.653   289.4446     1.9612     3.5758     0.0206      0.135      7.310     10.602        582 1.2584e-01 0.0000e+00
      7.482    11.9904     7.3769     68.438  28.180031     38.088      6.655   292.5110     1.9652     3.5624     0.0206      0.114      7.340     10.646        583 1.2569e-01 0.0000e+00
      7.525    11.9900     7.3835     68.498  28.176000     38.087      6.653   291.5267     2.0663     3.6027     0.0206      0.101      7.377     10.699        584 1.2569e-01 0.0000e+00
      7.558    11.9892     7.3836     68.498  28.127189     38.012      6.652   291.7917     2.0704     3.5355     0.0205      0.095      7.410     10.747        585 1.2575e-01 0.0000e+00
      7.585    11.9886     7.3787     68.452  28.122182     38.012      6.651   291.7539     2.0421     3.6161     0.0205      0.097      7.438     10.788        586 1.2573e-01 0.0000e+00
      7.611    11.9883     7.3809     68.471  28.182232     38.088      6.649   290.9210     2.0623     3.5624     0.0206      0.104      7.464     10.826        587 1.2587e-01 0.0000e+00
      7.640    11.9880     7.3834     68.494  28.171051     38.089      6.652   290.8832     1.8156     3.6295     0.0206      0.114      7.491     10.865        588 1.2582e-01 0.0000e+00
      7.665    11.9878     7.3730     68.398  28.136097     38.014      6.650   293.0789     1.7995     3.5624     0.0205      0.119      7.516     10.901        589 1.2578e-01 0.0000e+00
      7.687    11.9876     7.3772     68.433  28.166437     38.090      6.650   292.7382     1.8237     3.6429     0.0206      0.117      7.537     10.932        590 1.2580e-01 0.0000e+00
      7.706    11.9875     7.3654     68.320  28.192589     38.090      6.652   292.8896     1.7752     3.5490     0.0206      0.108      7.556     10.960        591 1.2580e-01 0.0000e+00
      7.723    11.9875     7.3612     68.281  28.162848     38.090      6.653   292.8518     1.8439     3.5355     0.0206      0.098      7.576     10.988        592 1.2574e-01 0.0000e+00
      7.746    11.9876     7.3567     68.239  28.144155     38.015      6.651   293.1546     1.8682     3.4415     0.0205      0.092      7.599     11.022        593 1.2572e-01 0.0000e+00
      7.778    11.9870     7.3607     68.276  28.215850     38.166      6.650   292.7760     1.8197     3.6027     0.0206      0.091      7.628     11.063        594 1.2576e-01 0.0000e+00
      7.810    11.9863     7.3580     68.251  28.192215     38.090      6.650   292.8896     1.8480     3.5758     0.0206      0.092      7.658     11.108        595 1.2575e-01 0.0000e+00
      7.841    11.9854     7.3608     68.277  28.173570     38.091      6.647   293.0032     1.8601     3.5490     0.0206      0.095      7.688     11.152        596 1.2572e-01 0.0000e+00
      7.870    11.9848     7.3670     68.334  28.179759     38.091      6.645   293.0789     2.0744     3.6564     0.0206      0.101      7.716     11.192        597 1.2567e-01 0.0000e+00
      7.895    11.9851     7.3669     68.331  28.125217     38.017      6.645   293.1546     2.0582     3.5221     0.0205      0.106      7.743     11.230        598 1.2578e-01 0.0000e+00
      7.923    11.9845     7.3671     68.331  28.122855     38.017      6.643   293.2303     2.0704     3.5490     0.0205      0.111      7.771     11.271        599 1.2591e-01 0.0000e+00
      7.956    11.9821     7.3693     68.351  28.123404     38.017      6.646   293.0789     2.0421     3.5355     0.0205      0.115      7.801     11.315        600 1.2577e-01 0.0000e+00
      7.986    11.9801     7.3718     68.374  28.124534     38.018      6.645   293.3439     1.9491     3.6564     0.0205      0.116      7.830     11.357        601 1.2577e-01 0.0000e+00
      8.013    11.9797     7.3734     68.387  28.121449     38.020      6.643   292.5868     1.9410     3.5355     0.0205      0.114      7.857     11.396        602 1.2576e-01 0.0000e+00
      8.037    11.9799     7.3662     68.320  28.127244     38.022      6.646   293.0032     1.9329     3.5624     0.0205      0.112      7.881     11.431        603 1.2574e-01 0.0000e+00
      8.061    11.9800     7.3675     68.332  28.176620     38.098      6.647   293.0032     1.9127     3.5758     0.0206      0.110      7.906     11.467        604 1.2592e-01 0.0000e+00
      8.089    11.9800     7.3685     68.341  28.178594     38.098      6.648   292.9275     2.1998     3.6295     0.0206      0.109      7.932     11.505        605 1.2584e-01 0.0000e+00
      8.117    11.9797     7.3777     68.426  28.124787     38.022      6.648   292.8518     2.1836     3.6564     0.0205      0.108      7.958     11.542        606 1.2567e-01 0.0000e+00
      8.139    11.9793     7.3781     68.429  28.124991     38.022      6.648   293.0032     2.1755     3.6295     0.0205      0.105      7.980     11.575        607 1.2572e-01 0.0000e+00
      8.158    11.9783     7.3828     68.473  28.178339     38.098      6.648   292.7382     2.1674     3.4550     0.0206      0.100      8.001     11.606        608 1.2573e-01 0.0000e+00
      8.183    11.9773     7.3897     68.536  28.176987     38.099      6.650   293.3060     2.2402     3.4281     0.0206      0.097      8.024     11.639        609 1.2568e-01 0.0000e+00
      8.207    11.9770     7.3978     68.611  28.126674     38.024      6.650   293.8739     2.2604     3.4684     0.0205      0.095      8.047     11.672        610 1.2573e-01 0.0000e+00
      8.228    11.9765     7.4001     68.636  28.122362     38.025      6.649   293.4953     2.2523     3.6564     0.0205      0.094      8.070     11.706        611 1.2581e-01 0.0000e+00
      8.254    11.9760     7.4046     68.678  28.123059     38.026      6.651   293.0032     2.2564     3.5758     0.0205      0.093      8.095     11.742        612 1.2567e-01 0.0000e+00
      8.283    11.9758     7.4028     68.663  28.125807     38.026      6.652   293.4953     2.2523     3.5624     0.0205      0.093      8.122     11.780        613 1.2573e-01 0.0000e+00
      8.309    11.9756     7.3970     68.608  28.118942     38.027      6.650   293.4196     2.2604     3.5624     0.0205      0.094      8.147     11.817        614 1.2577e-01 0.0000e+00
      8.331    11.9751     7.4025     68.657  28.131603     38.027      6.651   293.9118     2.2604     3.4952     0.0205      0.096      8.171     11.851        615 1.2571e-01 0.0000e+00
      8.356    11.9748     7.3996     68.630  28.169347     38.102      6.652   294.0632     2.2604     3.6027     0.0206      0.098      8.193     11.883        616 1.2574e-01 0.0000e+00
      8.377    11.9746     7.3978     68.612  28.131267     38.027      6.651   293.9118     2.2362     3.4550     0.0205      0.097      8.214     11.913        617 1.2590e-01 0.0000e+00
      8.395    11.9743     7.3887     68.526  28.119698     38.028      6.654   294.5175     2.3898     3.5490     0.0205      0.095      8.234     11.943        618 1.2589e-01 0.0000e+00
      8.417    11.9739     7.3862     68.504  28.124450     38.028      6.657   294.7068     2.3817     3.5892     0.0205      0.092      8.255     11.973        619 1.2563e-01 0.0000e+00
      8.441    11.9744     7.3785     68.432  28.125353     38.028      6.652   294.3660     2.3534     3.4952     0.0205      0.090      8.278     12.007        620 1.2578e-01 0.0000e+00
      8.467    11.9760     7.3827     68.470  28.118572     38.029      6.657   294.5553     2.3696     3.5624     0.0205      0.088      8.303     12.043        621 1.2591e-01 0.0000e+00
      8.494    11.9771     7.3794     68.439  28.132889     38.028      6.652   293.8739     2.1027     3.3610     0.0205      0.089      8.328     12.079        622 1.2595e-01 0.0000e+00
      8.516    11.9773     7.3748     68.396  28.166835     38.102      6.654   294.4418     2.1310     3.3475     0.0206      0.090      8.350     12.111        623 1.2580e-01 0.0000e+00
      8.535    11.9769     7.3732     68.381  28.135624     38.025      6.652   294.3282     2.1391     3.3744     0.0205      0.090      8.371     12.141        624 1.2566e-01 0.0000e+00
      8.557    11.9759     7.3725     68.374  28.112432     38.025      6.652   294.3660     2.1229     3.3341     0.0205      0.091      8.392     12.172        625 1.2582e-01 0.0000e+00
      8.580    11.9752     7.3776     68.421  28.136399     38.026      6.652   294.5175     2.1027     3.4952     0.0205      0.091      8.414     12.203        626 1.2597e-01 0.0000e+00
      8.602    11.9744     7.3811     68.454  28.165095     38.102      6.650   295.5775     2.1229     3.5490     0.0206      0.090      8.436     12.235        627 1.2577e-01 0.0000e+00
      8.626    11.9739     7.3854     68.492  28.136018     38.027      6.652   295.4260     2.1149     3.5892     0.0205      0.089      8.461     12.271        628 1.2566e-01 0.0000e+00
      8.656    11.9740     7.3906     68.539  28.113288     38.028      6.648   292.8139     2.1472     3.6161     0.0205      0.090      8.486     12.309        629 1.2574e-01 0.0000e+00
      8.679    11.9738     7.3930     68.560  28.134086     38.029      6.649   293.3060     2.1310     3.4684     0.0205      0.091      8.509     12.341        630 1.2565e-01 0.0000e+00
      8.696    11.9737     7.3847     68.482  28.169432     38.104      6.648   293.0032     2.1068     3.5758     0.0206      0.091      8.529     12.370        631 1.2577e-01 0.0000e+00
      8.718    11.9736     7.3849     68.483  28.128597     38.029      6.649   293.0032     2.1270     3.6161     0.0205      0.091      8.551     12.402        632 1.2594e-01 0.0000e+00
      8.744    11.9732     7.3756     68.398  28.125610     38.029      6.650   294.2146     2.1391     3.4281     0.0205      0.092      8.576     12.438        633 1.2584e-01 0.0000e+00
      8.772    11.9731     7.3607     68.261  28.173150     38.105      6.647   294.3660     2.1068     3.4684     0.0206      0.093      8.602     12.476        634 1.2572e-01 0.0000e+00
      8.798    11.9729     7.3505     68.166  28.128730     38.029      6.649   295.0096     2.0744     3.6027     0.0205      0.094      8.629     12.516        635 1.2589e-01 0.0000e+00
      8.828    11.9726     7.3487     68.149  28.121594     38.030      6.646   292.8518     2.0582     3.5758     0.0205      0.096      8.657     12.556        636 1.2586e-01 0.0000e+00
      8.857    11.9726     7.3401     68.068  28.182031     38.105      6.645   292.8896     2.0704     3.6027     0.0206      0.099      8.686     12.597        637 1.2576e-01 0.0000e+00
      8.887    11.9719     7.3402     68.069  28.172111     38.106      6.643   293.0789     2.0704     3.5758     0.0206      0.104      8.716     12.641        638 1.2572e-01 0.0000e+00
      8.919    11.9707     7.3370     68.040  28.133941     38.030      6.642   293.4196     2.0825     3.4684     0.0205      0.110      8.748     12.688        639 1.2578e-01 0.0000e+00
      8.955    11.9697     7.3436     68.102  28.170236     38.106      6.637   293.4953     2.1432     3.5758     0.0206      0.115      8.782     12.737        640 1.2580e-01 0.0000e+00
      8.991    11.9690     7.3503     68.164  28.186237     38.108      6.636   293.6846     2.1391     3.6429     0.0206      0.120      8.815     12.785        641 1.2567e-01 0.0000e+00
      9.019    11.9690     7.3471     68.135  28.173326     38.109      6.634   295.1989     2.1229     3.6161     0.0206      0.123      8.845     12.828        642 1.2577e-01 0.0000e+00
      9.047    11.9697     7.3502     68.164  28.186307     38.109      6.635   294.3282     2.1593     3.5758     0.0206      0.125      8.872     12.867        643 1.2577e-01 0.0000e+00
      9.074    11.9702     7.3388     68.060  28.229379     38.185      6.637   294.3282     2.2079     3.6161     0.0206      0.124      8.899     12.906        644 1.2575e-01 0.0000e+00
      9.101    11.9700     7.3351     68.025  28.179019     38.109      6.635   294.2903     2.2079     3.6027     0.0206      0.121      8.924     12.943        645 1.2579e-01 0.0000e+00
      9.125    11.9694     7.3278     67.958  28.130386     38.033      6.635   293.8739     2.1957     3.5087     0.0205      0.117      8.948     12.978        646 1.2575e-01 0.0000e+00
      9.149    11.9689     7.3245     67.927  28.171309     38.108      6.635   294.1389     2.3575     3.4952     0.0206      0.111      8.972     13.012        647 1.2570e-01 0.0000e+00
      9.172    11.9690     7.3188     67.873  28.187388     38.109      6.638   294.1389     2.3817     3.5892     0.0206      0.105      8.995     13.045        648 1.2569e-01 0.0000e+00
      9.194    11.9695     7.3176     67.862  28.169673     38.109      6.640   295.8803     2.3736     3.4818     0.0206      0.100      9.017     13.077        649 1.2570e-01 0.0000e+00
      9.217    11.9698     7.3242     67.924  28.134058     38.034      6.640   295.3503     2.4060     3.6027     0.0205      0.097      9.036     13.106        650 1.2576e-01 0.0000e+00
      9.231    11.9697     7.3212     67.896  28.172413     38.109      6.640   295.1610     2.3858     3.5490     0.0206      0.092      9.050     13.126        651 1.2578e-01 0.0000e+00
      9.239    11.9702     7.3270     67.950  28.181238     38.108      6.641   295.0853     2.3777     3.4684     0.0206      0.084      9.060     13.140        652 1.2577e-01 0.0000e+00
      9.247    11.9708     7.3236     67.918  28.182373     38.109      6.643   294.4796     2.3696     3.6027     0.0206      0.074      9.070     13.155        653 1.2572e-01 0.0000e+00
      9.261    11.9712     7.3316     67.993  28.230297     38.184      6.644   294.8582     2.3817     3.5355     0.0206      0.066      9.081     13.171        654 1.2573e-01 0.0000e+00
      9.271    11.9714     7.3269     67.949  28.240191     38.183      6.644   295.1232     2.3898     3.5624     0.0206      0.058      9.091     13.185        655 1.2578e-01 0.0000e+00
      9.277    11.9714     7.3322     67.999  28.229356     38.183      6.646   295.2746     2.3898     3.5221     0.0206      0.049      9.099     13.197        656 1.2574e-01 0.0000e+00
      9.287    11.9714     7.3278     67.958  28.184483     38.107      6.647   294.8203     2.3817     3.6295     0.0206      0.043      9.108     13.210        657 1.2575e-01 0.0000e+00
      9.297    11.9711     7.3312     67.990  28.177442     38.107      6.648   294.6689     2.3777     3.6295     0.0206      0.038      9.116     13.222        658 1.2579e-01 0.0000e+00
      9.303    11.9708     7.3337     68.014  28.178823     38.107      6.650   294.8203     2.3696     3.5892     0.0206      0.037      9.125     13.234        659 1.2585e-01 0.0000e+00
      9.314    11.9709     7.3338     68.015  28.182764     38.107      6.649   294.4418     2.1836     3.5490     0.0206      0.036      9.137     13.252        660 1.2580e-01 0.0000e+00
      9.334    11.9709     7.3311     67.990  28.231833     38.183      6.648   294.9339     2.1553     3.6295     0.0206      0.039      9.155     13.278        661 1.2575e-01 0.0000e+00
      9.357    11.9711     7.3281     67.963  28.236351     38.183      6.648   294.5553     2.1836     3.5490     0.0206      0.043      9.175     13.307        662 1.2573e-01 0.0000e+00
      9.374    11.9713     7.3284     67.965  28.177141     38.107      6.649   294.7068     2.1998     3.5490     0.0206      0.050      9.193     13.334        663 1.2560e-01 0.0000e+00
      9.393    11.9715     7.3216     67.903  28.186925     38.107      6.648   294.8582     2.0663     3.5355     0.0206      0.057      9.212     13.361        664 1.2567e-01 0.0000e+00
      9.414    11.9714     7.3191     67.879  28.224175     38.182      6.644   294.7068     2.0502     3.5221     0.0206      0.064      9.232     13.390        665 1.2579e-01 0.0000e+00
      9.434    11.9715     7.3185     67.873  28.190083     38.107      6.645   294.4418     2.0623     3.6564     0.0206      0.071      9.252     13.419        666 1.2577e-01 0.0000e+00
      9.453    11.9717     7.3152     67.842  28.170058     38.107      6.644   294.4796     2.0663     3.5087     0.0206      0.076      9.272     13.448        667 1.2582e-01 0.0000e+00
      9.477    11.9718     7.3124     67.816  28.189800     38.107      6.641   295.1232     2.1876     3.5221     0.0206      0.079      9.296     13.482        668 1.2571e-01 0.0000e+00
      9.506    11.9721     7.3110     67.803  28.224810     38.182      6.641   295.0096     2.1917     3.5490     0.0206      0.082      9.323     13.522        669 1.2561e-01 0.0000e+00
      9.537    11.9723     7.3073     67.770  28.185785     38.106      6.641   294.6689     2.1836     3.6161     0.0206      0.087      9.350     13.562        670 1.2567e-01 0.0000e+00
      9.560    11.9727     7.2929     67.636  28.179071     38.106      6.642   294.5175     2.1998     3.6027     0.0206      0.092      9.373     13.594        671 1.2577e-01 0.0000e+00
      9.576    11.9728     7.2942     67.647  28.233166     38.181      6.642   293.6468     2.0502     3.4550     0.0206      0.094      9.388     13.616        672 1.2573e-01 0.0000e+00
      9.585    11.9727     7.2885     67.596  28.237056     38.181      6.642   293.1925     2.0542     3.4952     0.0206      0.090      9.398     13.630        673 1.2576e-01 0.0000e+00
      9.589    11.9728     7.2843     67.559  28.233525     38.181      6.645   293.0032     2.0340     3.6027     0.0206      0.083      9.403     13.637        674 1.2582e-01 0.0000e+00
      9.591    11.9726     7.2827     67.546  28.237560     38.181      6.644   294.1389     2.0704     3.5490     0.0206      0.071      9.405     13.641        675 1.2564e-01 0.0000e+00
      9.593    11.9723     7.2800     67.523  28.232034     38.181      6.647   294.4039     1.9167     3.5490     0.0206      0.055      9.410     13.648        676 1.2562e-01 0.0000e+00
      9.603    11.9722     7.2816     67.541  28.181106     38.106      6.649   294.2903     1.9248     3.4952     0.0206      0.041      9.418     13.659        677 1.2576e-01 0.0000e+00
      9.613    11.9722     7.2779     67.510  28.182347     38.106      6.650   294.0253     1.9086     3.5490     0.0206      0.031      9.426     13.671        678 1.2581e-01 0.0000e+00
      9.618    11.9723     7.2850     67.577  28.230490     38.182      6.650   294.0632     1.9167     3.4818     0.0206      0.025      9.431     13.678        679 1.2574e-01 0.0000e+00
      9.620    11.9724     7.2679     67.418  28.239787     38.182      6.652   293.8739     1.9450     3.5355     0.0206      0.022      9.434     13.683        680 1.2577e-01 0.0000e+00
      9.623    11.9725     7.2163     66.942  28.230074     38.181      6.654   293.6846     1.8803     3.4818     0.0206      0.021      9.438     13.689        681 1.2580e-01 0.0000e+00
      9.629    11.9724     7.1157     66.010  28.242576     38.181      6.652   292.4353     1.8642     3.4415     0.0206      0.022      9.444     13.698        682 1.2570e-01 0.0000e+00
      9.639    11.9729     6.9899     64.844  28.283524     38.257      6.655   293.5710     1.8803     3.6027     0.0206      0.023      9.452     13.709        683 1.2575e-01 0.0000e+00
      9.647    11.9741 -9.990e-29 -9.990e-29  28.297708     38.257      6.655   293.3439     1.8642     3.5892     0.0206      0.024      9.460     13.721        684 1.2574e-01 0.0000e+00
      9.655    11.9754 -9.990e-29 -9.990e-29  28.224925     38.181      6.656   293.1546     1.9288     3.4952     0.0206      0.023      9.468     13.732        685 1.2571e-01 0.0000e+00
      9.663    11.9766 -9.990e-29 -9.990e-29  28.314806     38.255      6.656   292.9275     1.9208     3.5490     0.0206      0.025      9.475     13.743        686 1.2577e-01 0.0000e+00
      9.669    11.9785 -9.990e-29 -9.990e-29  28.245148     38.254      6.658   292.7382     1.9208     3.5624     0.0206      0.027      9.481     13.752        687 1.2594e-01 0.0000e+00
      9.673    11.9807 -9.990e-29 -9.990e-29  29.052829     39.121      6.659   290.4667     1.9127     3.5355     0.0210      0.028      9.485     13.758        688 1.2592e-01 0.0000e+00
      9.677    11.9812 -9.990e-29 -9.990e-29  30.749050     41.764      6.658   290.4667     2.0744     3.5221     0.0221      0.028      9.489     13.762        689 1.2575e-01 0.0000e+00
      9.678    11.9812 -9.990e-29 -9.990e-29  30.285256     40.893      6.660   290.5425     2.0825     3.5221     0.0218      0.025      9.491     13.765        690 1.2581e-01 0.0000e+00
      9.679    11.9820 -9.990e-29 -9.990e-29  30.519490     41.119      6.661   290.3910     2.0421     3.4952     0.0219      0.020      9.492     13.768        691 1.2579e-01 0.0000e+00
      9.682    11.9832 -9.990e-29 -9.990e-29  32.473967     44.103      6.661   291.4510     2.0866     3.5221     0.0231      0.016      9.494     13.771        692 1.2560e-01 0.0000e+00
      9.684    11.9840 -9.990e-29 -9.990e-29  34.851271     46.823      6.665   291.2996     2.0502     3.5758     0.0243      0.013      9.496     13.773        693 1.2578e-01 0.0000e+00
      9.685 -9.990e-29 -9.990e-29 -9.990e-29  35.864599     48.975      6.663   289.5960     2.0704     3.6027     0.0253      0.010      9.498     13.775        694 1.2580e-01 0.0000e+00
      9.687 -9.990e-29 -9.990e-29 -9.990e-29  35.098005     46.896      6.665   289.4067     2.0663     3.6295     0.0244      0.008      9.498     13.776        695 1.2555e-01 0.0000e+00
