* Sea-Bird SBE19plus  Data File:
* FileName = C:\R\Reservoirs\Data\DataNotYetUploadedToEDI\Raw_CTD\RawDownloads\011123_fcr50_S8188_0001.hex
* Software version 2.8.0.119
* Temperature SN = 8188
* Conductivity SN = 8188
* System UpLoad Time = Mar 20 2023 14:54:31
* <ApplicationData>
* <Seaterm232>
* <SoftwareVersion>2.8.0.119</SoftwareVersion>
* <BuildDate>07-Nov-2018</BuildDate>
* </Seaterm232>
* </ApplicationData>
* <InstrumentState>
* <HardwareData DeviceType='SBE19plus' SerialNumber='01908188'>
*
*    <Manufacturer>Sea-Bird Electronics, Inc.</Manufacturer>
*
*    <FirmwareVersion>3.1.8</FirmwareVersion>
*
*    <FirmwareDate>Mar  9 2016 16:22:29</FirmwareDate>
*
*    <CommandSetVersion>1.4</CommandSetVersion>
*
*    <PCBAssembly PCBSerialNum='260079' AssemblyNum='41054K'/>
*
*    <PCBAssembly PCBSerialNum='260083' AssemblyNum='41059E'/>
*
*    <PCBAssembly PCBSerialNum='260085' AssemblyNum='41606B'/>
*
*    <PCBAssembly PCBSerialNum='260081' AssemblyNum='41967C'/>
*
*    <MfgDate>30 Mar 2022</MfgDate>
*
*    <InternalSensors>
*
*       <Sensor id='Main Temperature'>
*
*          <type>temperature0</type>
*
*          <SerialNumber>01908188</SerialNumber>
*
*       </Sensor>
*
*       <Sensor id='Main Conductivity'>
*
*          <type>conductivity-0</type>
*
*          <SerialNumber>01908188</SerialNumber>
*
*       </Sensor>
*
*       <Sensor id='Main Pressure'>
*
*          <type>strain-0</type>
*
*          <SerialNumber>12220741</SerialNumber>
*
*       </Sensor>
*
*    </InternalSensors>
*
*    <ExternalSensors>
*
*       <Sensor id='volt 0'>
*
*          <type>CHL</type>
*
*          <SerialNumber>FLNTURT-7096</SerialNumber>
*
*       </Sensor>
*
*       <Sensor id='volt 1'>
*
*          <type>NTU</type>
*
*          <SerialNumber>FLNTURT-7096</SerialNumber>
*
*       </Sensor>
*
*       <Sensor id='volt 2'>
*
*          <type>OXY</type>
*
*          <SerialNumber>43-4269</SerialNumber>
*
*       </Sensor>
*
*       <Sensor id='volt 3'>
*
*          <type>not assigned</type>
*
*          <SerialNumber>not assigned</SerialNumber>
*
*       </Sensor>
*
*       <Sensor id='volt 4'>
*
*          <type>PAR</type>
*
*          <SerialNumber>PARLOGICSW-2209</SerialNumber>
*
*       </Sensor>
*
*       <Sensor id='volt 5'>
*
*          <type>not assigned</type>
*
*          <SerialNumber>not assigned</SerialNumber>
*
*       </Sensor>
*
*       <Sensor id='serial'>
*
*          <type>WETLABS</type>
*
*          <SerialNumber>FL3-7350</SerialNumber>
*
*       </Sensor>
*
*    </ExternalSensors>
*
* </HardwareData>
* <StatusData DeviceType='SBE19plus' SerialNumber='01908188'>
*
*    <DateTime>2023-03-20T11:53:43</DateTime>
*
*    <LoggingState>not logging</LoggingState>
*
*    <EventSummary numEvents='0'/>
*
*    <Power>
*
*       <vMain>12.8</vMain>
*
*       <vLith>8.5</vLith>
*
*       <iMain>61.8</iMain>
*
*       <iPump>56.3</iPump>
*
*       <iExt01>21.3</iExt01>
*
*       <iExt2345>20.0</iExt2345>
*
*       <iSerial>44.3</iSerial>
*
*    </Power>
*
*    <MemorySummary>
*
*       <Bytes>275075</Bytes>
*
*       <Samples>11003</Samples>
*
*       <SamplesFree>2620922</SamplesFree>
*
*       <SampleLength>25</SampleLength>
*
*       <Profiles>7</Profiles>
*
*    </MemorySummary>
*
* </StatusData>
* <ConfigurationData DeviceType='SBE19plus' SerialNumber='01908188'>
*
*    <ProfileMode>
*
*       <ScansToAverage>1</ScansToAverage>
*
*       <MinimumCondFreq>5</MinimumCondFreq>
*
*       <PumpDelay>40</PumpDelay>
*
*       <AutoRun>no</AutoRun>
*
*       <IgnoreSwitch>no</IgnoreSwitch>
*
*    </ProfileMode>
*
*    <Battery>
*
*       <Type>alkaline</Type>
*
*       <CutOff>7.5</CutOff>
*
*    </Battery>
*
*    <DataChannels>
*
*       <ExtVolt0>yes</ExtVolt0>
*
*       <ExtVolt1>yes</ExtVolt1>
*
*       <ExtVolt2>yes</ExtVolt2>
*
*       <ExtVolt3>no</ExtVolt3>
*
*       <ExtVolt4>yes</ExtVolt4>
*
*       <ExtVolt5>no</ExtVolt5>
*
*       <SBE38>no</SBE38>
*
*       <WETLABS>yes</WETLABS>
*
*       <OPTODE>no</OPTODE>
*
*       <SBE63>no</SBE63>
*
*       <SeaFET>no</SeaFET>
*
*       <GTD>no</GTD>
*
*    </DataChannels>
*
*    <EchoCharacters>yes</EchoCharacters>
*
*    <OutputExecutedTag>yes</OutputExecutedTag>
*
*    <OutputFormat>raw HEX</OutputFormat>
*
* </ConfigurationData>
* <CalibrationCoefficients DeviceType='SBE19plus' SerialNumber='01908188'>
*
*    <Calibration format='TEMP1' id='Main Temperature'>
*
*       <SerialNum>01908188</SerialNum>
*
*       <CalDate>21-Aug-22</CalDate>
*
*       <TA0>1.265284e-03</TA0>
*
*       <TA1>2.691806e-04</TA1>
*
*       <TA2>-5.655711e-07</TA2>
*
*       <TA3>1.602369e-07</TA3>
*
*       <TOFFSET>0.000000e+00</TOFFSET>
*
*    </Calibration>
*
*    <Calibration format='WBCOND0' id='Main Conductivity'>
*
*       <SerialNum>01908188</SerialNum>
*
*       <CalDate>21-Aug-22</CalDate>
*
*       <G>-1.009562e+00</G>
*
*       <H>1.439229e-01</H>
*
*       <I>-4.343583e-04</I>
*
*       <J>5.328694e-05</J>
*
*       <CPCOR>-9.570000e-08</CPCOR>
*
*       <CTCOR>3.250000e-06</CTCOR>
*
*       <CSLOPE>1.000000e+00</CSLOPE>
*
*    </Calibration>
*
*    <Calibration format='STRAIN0' id='Main Pressure'>
*
*       <SerialNum>12220741</SerialNum>
*
*       <CalDate>11-Aug-22</CalDate>
*
*       <PA0>1.627942e-01</PA0>
*
*       <PA1>4.835849e-04</PA1>
*
*       <PA2>-3.975488e-12</PA2>
*
*       <PTCA0>5.244803e+05</PTCA0>
*
*       <PTCA1>2.817194e+01</PTCA1>
*
*       <PTCA2>-5.842684e-01</PTCA2>
*
*       <PTCB0>2.522087e+01</PTCB0>
*
*       <PTCB1>5.750000e-04</PTCB1>
*
*       <PTCB2>0.000000e+00</PTCB2>
*
*       <PTEMPA0>-5.709556e+01</PTEMPA0>
*
*       <PTEMPA1>5.248567e+01</PTEMPA1>
*
*       <PTEMPA2>-2.281498e-01</PTEMPA2>
*
*       <POFFSET>-4.700000e-02</POFFSET>
*
*       <PRANGE>1.600000e+02</PRANGE>
*
*    </Calibration>
*
*    <Calibration format='VOLT0' id='Volt 0'>
*
*       <OFFSET>-4.657200e-02</OFFSET>
*
*       <SLOPE>1.248989e+00</SLOPE>
*
*    </Calibration>
*
*    <Calibration format='VOLT0' id='Volt 1'>
*
*       <OFFSET>-4.600800e-02</OFFSET>
*
*       <SLOPE>1.249849e+00</SLOPE>
*
*    </Calibration>
*
*    <Calibration format='VOLT0' id='Volt 2'>
*
*       <OFFSET>-4.668000e-02</OFFSET>
*
*       <SLOPE>1.250379e+00</SLOPE>
*
*    </Calibration>
*
*    <Calibration format='VOLT0' id='Volt 3'>
*
*       <OFFSET>-4.643200e-02</OFFSET>
*
*       <SLOPE>1.251002e+00</SLOPE>
*
*    </Calibration>
*
*    <Calibration format='VOLT0' id='Volt 4'>
*
*       <OFFSET>-4.606100e-02</OFFSET>
*
*       <SLOPE>1.249962e+00</SLOPE>
*
*    </Calibration>
*
*    <Calibration format='VOLT0' id='Volt 5'>
*
*       <OFFSET>-4.642700e-02</OFFSET>
*
*       <SLOPE>1.248530e+00</SLOPE>
*
*    </Calibration>
*
*    <Calibration format='FREQ0' id='external frequency channel'>
*
*       <EXTFREQSF>1.000018e+00</EXTFREQSF>
*
*    </Calibration>
*
* </CalibrationCoefficients>
* <EventCounters DeviceType='SBE19plus' SerialNumber='01908188'>
*
*    <EventSummary numEvents='0'/>
*
* </EventCounters></InstrumentState>
* <Headers>
*
* cast   1 11 Jan 2023 08:45:47 samples 1 to 902, avg = 1, stop = mag switch
*
# nquan = 16
# nvalues = 902                         
# units = specified
# name 0 = depFM: Depth [fresh water, m]
# name 1 = dz/dtM: Descent Rate [m/s]
# name 2 = sbeox0Mg/L: Oxygen, SBE 43 [mg/l]
# name 3 = sbeox0PS: Oxygen, SBE 43 [% saturation]
# name 4 = specc: Specific Conductance [uS/cm]
# name 5 = c0uS/cm: Conductivity [uS/cm]
# name 6 = wetCDOM: Fluorescence, WET Labs CDOM [mg/m^3]
# name 7 = flECO-AFL: Fluorescence, WET Labs ECO-AFL/FL [mg/m^3]
# name 8 = flECO-AFL1: Fluorescence, WET Labs ECO-AFL/FL, 2 [mg/m^3]
# name 9 = flECO-AFL2: Fluorescence, WET Labs ECO-AFL/FL, 3 [mg/m^3]
# name 10 = par/sat/log: PAR/Logarithmic, Satlantic
# name 11 = turbWETntu0: Turbidity, WET Labs ECO [NTU]
# name 12 = prdM: Pressure, Strain Gauge [db]
# name 13 = prdE: Pressure, Strain Gauge [psi]
# name 14 = tv290C: Temperature [ITS-90, deg C]
# name 15 = flag:  0.000e+00
# span 0 =     -0.724,      8.520       
# span 1 =     -0.536,      0.127       
# span 2 =     9.5218,    13.8127       
# span 3 =     70.989,    102.789       
# span 4 =      1.164,     37.869       
# span 5 =   0.764133,  21.557914       
# span 6 =    -4.5000,    13.0500       
# span 7 =    -0.1422,     9.3527       
# span 8 =    -2.1300,     3.4932       
# span 9 =    -2.0304,    14.2128       
# span 10 = 1.1590e-01, 3.1559e+02      
# span 11 =    -0.4084,    55.1130      
# span 12 =     -0.710,      8.356      
# span 13 =     -1.030,     12.119      
# span 14 =     2.7744,     7.8406      
# span 15 = 0.0000e+00, 0.0000e+00      
# interval = seconds: 0.25
# start_time = Jan 11 2023 08:45:47 [Instrument's time stamp, header]
# bad_flag = -9.990e-29
# <Sensors count="10" >
#   <sensor Channel="1" >
#     <!-- Count, Temperature -->
#     <TemperatureSensor SensorID="58" >
#       <SerialNumber>8188</SerialNumber>
#       <CalibrationDate>21-Aug-22</CalibrationDate>
#       <A0>1.26528397e-003</A0>
#       <A1>2.69180636e-004</A1>
#       <A2>-5.65571102e-007</A2>
#       <A3>1.60236871e-007</A3>
#       <Slope>1.00000000</Slope>
#       <Offset>0.0000</Offset>
#     </TemperatureSensor>
#   </sensor>
#   <sensor Channel="2" >
#     <!-- Frequency 0, Conductivity -->
#     <ConductivitySensor SensorID="3" >
#       <SerialNumber>8188</SerialNumber>
#       <CalibrationDate>21-Aug-22</CalibrationDate>
#       <UseG_J>1</UseG_J>
#       <!-- Cell const and series R are applicable only for wide range sensors. -->
#       <SeriesR>0.0000</SeriesR>
#       <CellConst>2000.0000</CellConst>
#       <ConductivityType>0</ConductivityType>
#       <Coefficients equation="0" >
#         <A>0.00000000e+000</A>
#         <B>0.00000000e+000</B>
#         <C>0.00000000e+000</C>
#         <D>0.00000000e+000</D>
#         <M>0.0</M>
#         <CPcor>-9.57000000e-008</CPcor>
#       </Coefficients>
#       <Coefficients equation="1" >
#         <G>-1.00956200e+000</G>
#         <H>1.43922862e-001</H>
#         <I>-4.34358337e-004</I>
#         <J>5.32869425e-005</J>
#         <CPcor>-9.57000000e-008</CPcor>
#         <CTcor>3.2500e-006</CTcor>
#         <!-- WBOTC not applicable unless ConductivityType = 1. -->
#         <WBOTC>0.00000000e+000</WBOTC>
#       </Coefficients>
#       <Slope>1.00000000</Slope>
#       <Offset>0.00000</Offset>
#     </ConductivitySensor>
#   </sensor>
#   <sensor Channel="3" >
#     <!-- Count, Pressure, Strain Gauge -->
#     <PressureSensor SensorID="46" >
#       <SerialNumber>8188</SerialNumber>
#       <CalibrationDate>11-Aug-22</CalibrationDate>
#       <PA0>1.62794185e-001</PA0>
#       <PA1>4.83584930e-004</PA1>
#       <PA2>-3.97548787e-012</PA2>
#       <PTEMPA0>-5.70955636e+001</PTEMPA0>
#       <PTEMPA1>5.24856726e+001</PTEMPA1>
#       <PTEMPA2>-2.28149804e-001</PTEMPA2>
#       <PTCA0>5.24480263e+005</PTCA0>
#       <PTCA1>2.81719406e+001</PTCA1>
#       <PTCA2>-5.84268386e-001</PTCA2>
#       <PTCB0>2.52208750e+001</PTCB0>
#       <PTCB1>5.75000000e-004</PTCB1>
#       <PTCB2>0.00000000e+000</PTCB2>
#       <Offset>0.000000</Offset>
#     </PressureSensor>
#   </sensor>
#   <sensor Channel="4" >
#     <!-- A/D voltage 0, Fluorometer, WET Labs ECO-AFL/FL -->
#     <FluoroWetlabECO_AFL_FL_Sensor SensorID="20" >
#       <SerialNumber>FLNTURT-7096</SerialNumber>
#       <CalibrationDate>01-Sep-2022</CalibrationDate>
#       <ScaleFactor>5.00000000e+001</ScaleFactor>
#       <!-- Dark output -->
#       <Vblank>0.0680</Vblank>
#     </FluoroWetlabECO_AFL_FL_Sensor>
#   </sensor>
#   <sensor Channel="5" >
#     <!-- A/D voltage 1, Turbidity Meter, WET Labs, ECO-NTU -->
#     <TurbidityMeter SensorID="67" >
#       <SerialNumber>FLNTURT-7096</SerialNumber>
#       <CalibrationDate>01-Sep-2022</CalibrationDate>
#       <ScaleFactor>197.000000</ScaleFactor>
#       <!-- Dark output -->
#       <DarkVoltage>0.067000</DarkVoltage>
#     </TurbidityMeter>
#   </sensor>
#   <sensor Channel="6" >
#     <!-- A/D voltage 2, Oxygen, SBE 43 -->
#     <OxygenSensor SensorID="38" >
#       <SerialNumber>4269</SerialNumber>
#       <CalibrationDate>16-Aug-22</CalibrationDate>
#       <Use2007Equation>1</Use2007Equation>
#       <CalibrationCoefficients equation="0" >
#         <!-- Coefficients for Owens-Millard equation. -->
#         <Boc>0.0000</Boc>
#         <Soc>0.0000e+000</Soc>
#         <offset>0.0000</offset>
#         <Pcor>0.00e+000</Pcor>
#         <Tcor>0.0000</Tcor>
#         <Tau>0.0</Tau>
#       </CalibrationCoefficients>
#       <CalibrationCoefficients equation="1" >
#         <!-- Coefficients for Sea-Bird equation - SBE calibration in 2007 and later. -->
#         <Soc>4.2506e-001</Soc>
#         <offset>-0.4922</offset>
#         <A>-4.5893e-003</A>
#         <B> 1.8653e-004</B>
#         <C>-2.0781e-006</C>
#         <D0> 2.5826e+000</D0>
#         <D1> 1.92634e-004</D1>
#         <D2>-4.64803e-002</D2>
#         <E> 3.6000e-002</E>
#         <Tau20> 2.3100</Tau20>
#         <H1>-3.3000e-002</H1>
#         <H2> 5.0000e+003</H2>
#         <H3> 1.4500e+003</H3>
#       </CalibrationCoefficients>
#     </OxygenSensor>
#   </sensor>
#   <sensor Channel="7" >
#     <!-- A/D voltage 3, PAR/Logarithmic, Satlantic -->
#     <PARLog_SatlanticSensor SensorID="76" >
#       <SerialNumber>2209</SerialNumber>
#       <CalibrationDate>14-Jan-2022</CalibrationDate>
#       <a0>9.8861e-001</a0>
#       <a1>8.0845e-001</a1>
#       <Im>1.3589e+000</Im>
#       <Multiplier>1.0000e+000</Multiplier>
#     </PARLog_SatlanticSensor>
#   </sensor>
#   <sensor Channel="8" >
#     <!-- Serial RS-232, Fluorometer, WET Labs ECO-AFL/FL, 2 -->
#     <FluoroWetlabECO_AFL_FL_Sensor SensorID="20" >
#       <SerialNumber>FL3-7350</SerialNumber>
#       <CalibrationDate>10-Mar-2022</CalibrationDate>
#       <ScaleFactor>4.26000000e-002</ScaleFactor>
#       <!-- Dark output -->
#       <Vblank>50.0000</Vblank>
#     </FluoroWetlabECO_AFL_FL_Sensor>
#   </sensor>
#   <sensor Channel="9" >
#     <!-- Serial RS-232, Fluorometer, WET Labs ECO-AFL/FL, 3 -->
#     <FluoroWetlabECO_AFL_FL_Sensor SensorID="20" >
#       <SerialNumber>FL3-7350</SerialNumber>
#       <CalibrationDate>10-Mar-2022</CalibrationDate>
#       <ScaleFactor>4.23000000e-002</ScaleFactor>
#       <!-- Dark output -->
#       <Vblank>48.0000</Vblank>
#     </FluoroWetlabECO_AFL_FL_Sensor>
#   </sensor>
#   <sensor Channel="10" >
#     <!-- Serial RS-232, Fluorometer, WET Labs ECO CDOM -->
#     <FluoroWetlabCDOM_Sensor SensorID="19" >
#       <SerialNumber>FL3-7350</SerialNumber>
#       <CalibrationDate>10-Mar-2022</CalibrationDate>
#       <ScaleFactor>0.090</ScaleFactor>
#       <!-- Dark output -->
#       <Vblank>50.000</Vblank>
#     </FluoroWetlabCDOM_Sensor>
#   </sensor>
# </Sensors>
# datcnv_date = Mar 20 2023 15:37:30, 7.26.7.129 [datcnv_vars = 15]
# datcnv_in = C:\R\Reservoirs\Data\DataNotYetUploadedToEDI\Raw_CTD\RawDownloads\011123_bvr50_S8188001.hex C:\R\Reservoirs\Data\DataNotYetUploadedToEDI\Raw_CTD\RawDownloads\SBE19plusV2_8188_start20221003.xmlcon
# datcnv_skipover = 0
# datcnv_ox_hysteresis_correction = yes
# datcnv_ox_tau_correction = yes
# filter_date = Mar 20 2023 15:44:41, 7.26.7.129
# filter_in = C:\R\Reservoirs\Data\DataNotYetUploadedToEDI\Raw_CTD\RawDownloads\011123_bvr50_S8188001.cnv
# filter_low_pass_tc_A = 0.500
# filter_low_pass_tc_B = 1.000
# filter_low_pass_A_vars = sbeox0Mg/L sbeox0PS specc c0uS/cm tv290C
# filter_low_pass_B_vars = depFM dz/dtM prdM prdE
# alignctd_date = Mar 20 2023 15:45:28, 7.26.7.129
# alignctd_in = C:\R\Reservoirs\Data\DataNotYetUploadedToEDI\Raw_CTD\RawDownloads\011123_bvr50_S8188001.cnv
# alignctd_adv = dz/dtM 1.000, sbeox0PS 1.000, specc 1.000, c0uS/cm 1.000, flECO-AFL 1.000, turbWETntu0 1.000                                                                                                                        
# file_type = ascii
*END*
     -0.724 1.5041e-08    11.2879     94.971      1.164   0.764133    -4.5000    -0.1079    -2.1300    -2.0304 2.0605e+02     3.3792     -0.710     -1.030     7.8288 0.0000e+00
     -0.724 1.9339e-08    11.2888     94.998      1.174   0.770776    -4.5000    -0.1269    -2.1300    -2.0304 2.1131e+02     3.4995     -0.710     -1.030     7.8289 0.0000e+00
     -0.724 2.4864e-08    11.2901     95.024      1.195   0.784277    -4.5000    -0.1041    -2.1300    -2.0304 2.1557e+02     3.4995     -0.710     -1.030     7.8290 0.0000e+00
     -0.724 3.1968e-08    11.2920     95.043      1.231   0.808237     0.0000    -0.1231     0.0426     0.1692 2.1089e+02     3.2891     -0.710     -1.030     7.8292 0.0000e+00
     -0.724 4.1102e-08    11.2944     95.055      1.293   0.849044     0.0000    -0.1002     0.0426     0.1692 9.5995e+01     3.2440     -0.710     -1.030     7.8295 0.0000e+00
     -0.724 5.2846e-08    11.2975     95.058      1.385   0.909672     0.0000    -0.1117     0.0426     0.1692 1.2880e+02     3.2740     -0.710     -1.030     7.8298 0.0000e+00
     -0.724 6.7944e-08    11.3005     95.051      1.499   0.984539     0.0000    -0.1079     0.0426     0.1692 1.2173e+02     3.1989     -0.710     -1.030     7.8302 0.0000e+00
     -0.724 8.7357e-08    11.3027     95.032      1.623   1.065929     0.0000    -0.1041     0.0426     0.1692 1.1854e+02     1.6508     -0.710     -1.030     7.8305 0.0000e+00
     -0.724 1.1232e-07    11.3040     95.009      1.751   1.149841     0.0000    -0.0926     0.0000     0.0846 1.0320e+02     1.6357     -0.710     -1.030     7.8309 0.0000e+00
     -0.724 1.4441e-07    11.3042     94.993      1.886   1.238881     0.0000    -0.1117     0.0000     0.0846 1.2368e+02     1.6357     -0.710     -1.030     7.8312 0.0000e+00
     -0.724 1.8567e-07    11.3032     94.990      2.048   1.344928     0.0000    -0.1079     0.0000     0.0846 1.2813e+02     1.6207     -0.710     -1.030     7.8316 0.0000e+00
     -0.724 2.3871e-07    11.3009     94.996      2.260   1.484399     0.0000    -0.0850     0.0000     0.0846 1.4899e+02     0.4784     -0.710     -1.030     7.8320 0.0000e+00
     -0.724 3.0692e-07    11.2981     95.004      2.535   1.664827     0.0000    -0.1002     0.0000     0.1269 1.5844e+02     0.4033     -0.710     -1.030     7.8324 0.0000e+00
     -0.724 3.9461e-07    11.2961     95.014      2.867   1.882918     0.0000    -0.1193     0.0000     0.1269 1.6295e+02     0.3582     -0.710     -1.030     7.8326 0.0000e+00
     -0.724 5.0735e-07    11.2958     95.025      3.255   2.137510     0.0000    -0.1079     0.0000     0.1269 1.6066e+02     0.3582     -0.710     -1.030     7.8326 0.0000e+00
     -0.724 6.5231e-07    11.2965     95.034      3.705   2.433221     0.0000    -0.0583     0.0000     0.1269 1.4090e+02     0.1327     -0.710     -1.030     7.8324 0.0000e+00
     -0.724 8.3868e-07    11.2976     95.034      4.230   2.777724     0.0000    -0.1041     0.0000     0.0000 1.4148e+02     0.0726     -0.710     -1.030     7.8322 0.0000e+00
     -0.724      0.000    11.2988     95.023      4.806   3.156108     0.0000    -0.1308     0.0000     0.0000 1.3579e+02     0.1478     -0.710     -1.030     7.8321 0.0000e+00
     -0.724      0.000    11.3000     95.012      5.340   3.507129     0.0000    -0.1155     0.0000     0.0000 1.3041e+02     0.1778     -0.710     -1.030     7.8321 0.0000e+00
     -0.724      0.000    11.3010     95.014      5.732   3.764216     0.0000    -0.1155     0.0000     0.0000 1.2298e+02    -0.0927     -0.710     -1.029     7.8324 0.0000e+00
     -0.723      0.000    11.3009     95.029      5.937   3.899030     0.0900    -0.1002     0.0000    -0.1269 1.1852e+02    -0.1228     -0.709     -1.029     7.8328 0.0000e+00
     -0.723      0.000    11.2994     95.048      5.972   3.921812     0.0900    -0.1079     0.0000    -0.1269 1.2176e+02    -0.0777     -0.709     -1.029     7.8334 0.0000e+00
     -0.723      0.000    11.2979     95.065      5.884   3.864348     0.0900    -0.1079     0.0000    -0.1269 1.2750e+02    -0.1228     -0.709     -1.029     7.8340 0.0000e+00
     -0.723      0.000    11.2980     95.076      5.723   3.758772     0.0900    -0.0964     0.0000    -0.1269 1.2777e+02     0.1778     -0.709     -1.029     7.8347 0.0000e+00
     -0.723      0.000    11.2996     95.080      5.524   3.628346     0.0900    -0.1117     0.0000    -0.1269 1.2797e+02     0.0426     -0.709     -1.029     7.8356 0.0000e+00
     -0.723      0.000    11.3015     95.078      5.307   3.485750     0.0000    -0.1155     0.0000     0.1269 1.6423e+02     0.1177     -0.709     -1.029     7.8366 0.0000e+00
     -0.723      0.000    11.3032     95.066      5.083   3.338441     0.0000    -0.1041     0.0000     0.1269 1.6834e+02     0.1177     -0.709     -1.029     7.8377 0.0000e+00
     -0.723      0.000    11.3042     95.043      4.873   3.200525     0.0000    -0.1079     0.0000     0.1269 1.6649e+02    -0.1528     -0.709     -1.029     7.8388 0.0000e+00
     -0.723      0.000    11.3044     95.018      4.699   3.086640     0.0000    -0.1155     0.0000     0.1269 1.6908e+02    -0.1378     -0.709     -1.029     7.8397 0.0000e+00
     -0.723      0.000    11.3040     95.000      4.561   2.996078     0.0900    -0.0926     0.0426     0.2115 1.6634e+02    -0.2280     -0.709     -1.028     7.8404 0.0000e+00
     -0.723      0.000    11.3025     94.994      4.446   2.920507     0.0900    -0.1346     0.0426     0.2115 1.6696e+02    -0.0927     -0.709     -1.028     7.8406 0.0000e+00
     -0.723      0.000    11.2998     94.999      4.351   2.857573     0.0900    -0.1155     0.0426     0.2115 1.6380e+02     0.1778     -0.709     -1.028     7.8404 0.0000e+00
     -0.723      0.000    11.2970     95.010      4.267   2.802357     0.0900    -0.1155     0.0426     0.2115 1.6362e+02     0.0576     -0.709     -1.028     7.8399 0.0000e+00
     -0.723      0.000    11.2951     95.022      4.181   2.746066     0.0000    -0.1079     0.0000     0.1269 1.6355e+02     0.0275     -0.709     -1.028     7.8392 0.0000e+00
     -0.723      0.000    11.2946     95.032      4.090   2.685556     0.0000    -0.0888     0.0000     0.1269 1.6476e+02     0.1027     -0.709     -1.028     7.8382 0.0000e+00
     -0.723      0.000    11.2955     95.042      3.985   2.616553     0.0000    -0.1155     0.0000     0.1269 1.6476e+02    -0.0627     -0.709     -1.028     7.8370 0.0000e+00
     -0.723      0.000    11.2973     95.053      3.864   2.536476     0.0000    -0.1155     0.0000     0.1269 1.6845e+02    -0.1528     -0.709     -1.028     7.8355 0.0000e+00
     -0.723      0.000    11.2993     95.066      3.741   2.455609     0.0000    -0.1346     0.0000     0.1269 1.6598e+02    -0.0627     -0.709     -1.028     7.8334 0.0000e+00
     -0.723      0.000    11.3012     95.082      3.633   2.384026     0.0000    -0.1155     0.0000     0.1269 1.6136e+02    -0.0927     -0.709     -1.028     7.8305 0.0000e+00
     -0.723      0.000    11.3036     95.103      3.543   2.324387     0.0000    -0.1346     0.0000     0.1269 1.5707e+02     0.1327     -0.709     -1.028     7.8267 0.0000e+00
     -0.723      0.000    11.3063     95.133      3.484   2.284519     0.0000    -0.1041     0.0000     0.1269 1.5389e+02     0.1778     -0.709     -1.028     7.8217 0.0000e+00
     -0.723      0.000    11.3096     95.173      3.465   2.271584     0.0000    -0.1193     0.0000     0.1269 1.5187e+02     0.2079     -0.709     -1.028     7.8152 0.0000e+00
     -0.722      0.001    11.3137     95.213      3.476   2.278180     0.0000    -0.1155     0.0000     0.0846 1.4490e+02     0.1177     -0.708     -1.027     7.8072 0.0000e+00
     -0.722      0.001    11.3189     95.250      3.501   2.294201     0.0000    -0.1155     0.0000     0.0846 1.4390e+02     0.0576     -0.708     -1.027     7.7977 0.0000e+00
     -0.722      0.001    11.3254     95.282      3.535   2.316009     0.0000    -0.1231     0.0000     0.0846 1.4748e+02     0.1177     -0.708     -1.027     7.7871 0.0000e+00
     -0.722      0.001    11.3332     95.308      3.575   2.341512     0.0000    -0.1346     0.0000     0.0846 1.5230e+02     0.1778     -0.708     -1.027     7.7760 0.0000e+00
     -0.722      0.002    11.3409     95.333      3.621   2.371578     0.0000    -0.1041     0.0000     0.0846 1.5666e+02     0.1778     -0.708     -1.026     7.7658 0.0000e+00
     -0.721      0.002    11.3475     95.356      3.668   2.402359     0.0000    -0.1041     0.0000     0.0846 1.5896e+02    -0.0627     -0.707     -1.026     7.7578 0.0000e+00
     -0.721      0.003    11.3527     95.366      3.696   2.420315     0.0000    -0.0964     0.0000     0.0846 1.6598e+02    -0.1228     -0.707     -1.025     7.7529 0.0000e+00
     -0.720      0.003    11.3564     95.364      3.695   2.418368     0.0000    -0.1079     0.0000     0.0846 1.7324e+02    -0.1228     -0.706     -1.024     7.7507 0.0000e+00
     -0.719      0.004    11.3596     95.352      3.675   2.403909     0.0000    -0.1155     0.0000     0.0846 1.8228e+02    -0.0777     -0.705     -1.023     7.7501 0.0000e+00
     -0.718      0.006    11.3624     95.333      3.650   2.384946     0.0000    -0.1117     0.0000     0.0846 1.9116e+02     0.1027     -0.704     -1.022     7.7496 0.0000e+00
     -0.717      0.007    11.3642     95.316      3.625   2.364332     0.0000    -0.1041     0.0000     0.0846 1.9342e+02    -0.0025     -0.703     -1.020     7.7479 0.0000e+00
     -0.715      0.009    11.3652     95.302      3.608   2.346457     0.0000    -0.1079     0.0000     0.0846 2.0188e+02     0.1327     -0.701     -1.017     7.7436 0.0000e+00
     -0.712      0.012    11.3662     95.295      3.619   2.342372     0.0000    -0.1079     0.0000     0.1269 2.0952e+02     0.1027     -0.699     -1.014     7.7353 0.0000e+00
     -0.709      0.015    11.3679     95.304      3.688   2.368785     0.0000    -0.0506     0.0000     0.1269 2.2579e+02     2.4023     -0.696     -1.009     7.7220 0.0000e+00
     -0.706      0.019    11.3717     95.334      3.864   2.452513     0.0000    -0.0468     0.0000     0.1269 2.3761e+02     2.5977     -0.692     -1.004     7.7019 0.0000e+00
     -0.701      0.023    11.3791     95.387      4.241   2.647520     0.0000    -0.0468     0.0000     0.1269 2.4930e+02     2.5977     -0.687     -0.997     7.6713 0.0000e+00
     -0.694      0.028    11.3927     95.471      4.962   3.033490     0.0000    -0.0430     0.0000     0.1269 2.5072e+02     2.5225     -0.681     -0.987     7.6224 0.0000e+00
     -0.686      0.033    11.4176     95.593      6.230   3.727188     4.5900     0.6322     0.1278     0.0423 2.4661e+02     6.7009     -0.673     -0.976     7.5421 0.0000e+00
     -0.677      0.039    11.4608     95.743      8.401   4.933374     4.5900     0.6589     0.1278     0.0423 2.4979e+02     6.7911     -0.665     -0.964     7.4090 0.0000e+00
     -0.667      0.045    11.5328     95.904     11.998   6.953922     4.5900     0.6093     0.1278     0.0423 2.4920e+02     6.8963     -0.654     -0.949     7.1879 0.0000e+00
     -0.655      0.051    11.6476     96.059     16.939   9.728401     4.5900     0.6284     0.1278     0.0423 2.4575e+02     6.7911     -0.643     -0.932     6.8365 0.0000e+00
     -0.642      0.058    11.8083     96.202     22.513  12.829787     5.4000     0.8496     0.1704     0.2961 2.4817e+02     5.3181     -0.629     -0.913     6.3502 0.0000e+00
     -0.626      0.064    12.0014     96.331     27.807  15.741852     5.4000     0.8573     0.1704     0.2961 2.4882e+02     5.4083     -0.614     -0.891     5.7770 0.0000e+00
     -0.609      0.071    12.2059     96.443     31.659  17.826360     5.4000     0.8573     0.1704     0.2961 2.5039e+02     5.3181     -0.597     -0.866     5.1818 0.0000e+00
     -0.590      0.078    12.4010     96.533     33.871  18.988173     5.4000     0.8649     0.1704     0.2961 2.5942e+02     5.3933     -0.578     -0.839     4.6259 0.0000e+00
     -0.568      0.084    12.5738     96.604     35.095  19.608356     5.4000     1.0556     0.2130     0.2538 2.6454e+02     5.7089     -0.558     -0.809     4.1450 0.0000e+00
     -0.546      0.089    12.7193     96.667     35.760  19.933436     5.4000     1.0442     0.2130     0.2538 2.6644e+02     5.5586     -0.535     -0.776     3.7500 0.0000e+00
     -0.522      0.093    12.8356     96.734     36.110  20.099578     5.4000     1.0518     0.2130     0.2538 2.6778e+02     5.6037     -0.512     -0.743     3.4426 0.0000e+00
     -0.498      0.096    12.9239     96.816     36.294  20.182754     5.4000     1.0404     0.2130     0.2538 2.6379e+02     5.6187     -0.488     -0.708     3.2137 0.0000e+00
     -0.473      0.100    12.9882     96.927     36.389  20.222956     5.4000     1.7347     0.2130     0.3807 2.6906e+02     5.6789     -0.464     -0.673     3.0505 0.0000e+00
     -0.447      0.102    13.0335     97.084     36.440  20.242779     5.4000     1.7423     0.2130     0.3807 2.4758e+02     5.5736     -0.439     -0.636     2.9414 0.0000e+00
     -0.420      0.105    13.0656     97.305     36.506  20.275217     5.4000     1.7270     0.2130     0.3807 2.3449e+02     5.6939     -0.413     -0.598     2.8729 0.0000e+00
     -0.393      0.107    13.0913     97.601     36.642  20.352670     5.4000     1.6965     0.2130     0.3807 2.3155e+02     5.5286     -0.386     -0.560     2.8298 0.0000e+00
     -0.366      0.109    13.1159     97.976     36.870  20.487875     5.4000     2.8753     0.2130     0.3807 2.2593e+02     5.7089     -0.358     -0.520     2.8017 0.0000e+00
     -0.337      0.109    13.1434     98.426     37.149  20.655534     5.4000     2.9058     0.1704     0.5076 2.3170e+02     5.6338     -0.331     -0.480     2.7836 0.0000e+00
     -0.309      0.108    13.1764     98.949     37.371  20.795461     5.4000     2.8753     0.1704     0.5076 2.2180e+02     5.5736     -0.303     -0.439     2.7744 0.0000e+00
     -0.280      0.105    13.2162     99.534     37.484  20.881634     5.4000     2.9020     0.1704     0.5076 2.2388e+02     5.6338     -0.275     -0.399     2.7747 0.0000e+00
     -0.252      0.100    13.2632    100.165     37.524  20.933078     5.4000     4.3630     0.1704     0.5076 2.1651e+02     5.6037     -0.247     -0.359     2.7846 0.0000e+00
     -0.226      0.092    13.3182    100.807     37.520  20.961530     5.4900     4.3516     0.2130     0.7191 1.8552e+02     5.5286     -0.222     -0.322     2.8011 0.0000e+00
     -0.203      0.082    13.3809    101.418     37.472  20.960727     5.4900     4.3287     0.2130     0.7191 1.0340e+02     5.5586     -0.199     -0.289     2.8230 0.0000e+00
     -0.183      0.070    13.4489    101.958     37.382  20.932432     5.4900     4.3859     0.2130     0.7191 8.9897e+01     5.5887     -0.180     -0.260     2.8536 0.0000e+00
     -0.167      0.059    13.5198    102.385     37.307  20.908686     5.4900     3.6878     0.2130     0.7191 1.0311e+02     5.6338     -0.164     -0.237     2.8928 0.0000e+00
     -0.154      0.048    13.5917    102.666     37.316  20.928677     5.4900     3.6916     0.1704     0.7614 1.0277e+02     5.6037     -0.151     -0.219     2.9330 0.0000e+00
     -0.144      0.038    13.6614    102.789     37.423  21.001696     5.4900     3.6954     0.1704     0.7614 1.0795e+02     5.6338     -0.142     -0.205     2.9681 0.0000e+00
     -0.137      0.030    13.7236    102.758     37.578  21.101693     5.4900     3.6573     0.1704     0.7614 1.0376e+02     5.5586     -0.134     -0.194     2.9972 0.0000e+00
     -0.131      0.024    13.7720    102.620     37.705  21.188041     5.4900     3.8633     0.1704     0.7614 1.0002e+02     5.5286     -0.128     -0.186     3.0217 0.0000e+00
     -0.126      0.019    13.8025    102.433     37.771  21.242204     5.4900     3.8862     0.1704     0.7614 1.0487e+02     5.6187     -0.123     -0.179     3.0417 0.0000e+00
     -0.122      0.015    13.8127    102.215     37.806  21.282582     5.4900     3.8824     0.2130     0.7191 9.7763e+01     5.6488     -0.120     -0.174     3.0589 0.0000e+00
     -0.119      0.012    13.8022    101.967     37.844  21.327862     5.4900     3.8786     0.2130     0.7191 1.0295e+02     5.5736     -0.117     -0.169     3.0765 0.0000e+00
     -0.117      0.010    13.7765    101.715     37.869  21.368346     5.4900     3.7221     0.2130     0.7191 1.0417e+02     5.7540     -0.115     -0.166     3.0960 0.0000e+00
     -0.115      0.008    13.7432    101.482     37.862  21.391081     5.4900     3.7374     0.2130     0.7191 1.0160e+02     5.8742     -0.113     -0.163     3.1186 0.0000e+00
     -0.113      0.006    13.7039    101.277     37.825  21.396192     5.4900     3.7412     0.2130     0.6768 9.8917e+01     5.8893     -0.111     -0.161     3.1462 0.0000e+00
     -0.111      0.003    13.6589    101.089     37.774  21.394939     5.4900     3.7641     0.2130     0.6768 9.2614e+01     5.7841     -0.109     -0.158     3.1784 0.0000e+00
     -0.110      0.001    13.6124    100.902     37.706  21.392924     5.4900     3.7450     0.2130     0.6768 8.6901e+01     5.7540     -0.108     -0.157     3.2131 0.0000e+00
     -0.111     -0.002    13.5686    100.714     37.593  21.377737     5.4900     3.7336     0.2130     0.6768 1.1370e+02     5.6939     -0.108     -0.157     3.2483 0.0000e+00
     -0.112     -0.005    13.5287    100.544     37.449  21.351267     5.4900     3.7450     0.2130     0.6768 1.2245e+02     5.7690     -0.109     -0.159     3.2828 0.0000e+00
     -0.113     -0.008    13.4903    100.401     37.326  21.328230     5.4900     3.7641     0.2130     0.6768 1.2816e+02     5.7540     -0.111     -0.161     3.3200 0.0000e+00
     -0.116     -0.011    13.4481    100.269     37.261  21.318318     5.4900     3.7946     0.2130     0.6768 1.5443e+02     5.6338     -0.114     -0.165     3.3684 0.0000e+00
     -0.120     -0.013    13.3997    100.133     37.240  21.316908     5.4900     3.8023     0.2130     0.6768 1.5903e+02     5.6037     -0.118     -0.170     3.4339 0.0000e+00
     -0.124     -0.014    13.3508     99.992     37.205  21.295917     5.4000     3.8175     0.1278     0.5076 1.6280e+02     5.6187     -0.121     -0.176     3.5079 0.0000e+00
     -0.127     -0.015    13.3097     99.848     37.141  21.249745     5.4000     3.7870     0.1278     0.5076 1.3712e+02     5.5736     -0.125     -0.181     3.5702 0.0000e+00
     -0.131     -0.016    13.2790     99.705     37.100  21.205666     5.4000     3.6077     0.1278     0.5076 1.5369e+02     5.6939     -0.128     -0.186     3.6071 0.0000e+00
     -0.135     -0.017    13.2562     99.562     37.117  21.187549     5.4000     3.6230     0.1278     0.5076 1.6084e+02     5.7540     -0.132     -0.191     3.6206 0.0000e+00
     -0.139     -0.019    13.2379     99.411     37.184  21.200458     5.4000     3.6115     0.1278     0.5076 1.6455e+02     5.8442     -0.137     -0.198     3.6193 0.0000e+00
     -0.144     -0.020    13.2235     99.247     37.246  21.226062     5.4000     3.6153     0.1704     0.6345 1.7089e+02     5.7239     -0.142     -0.205     3.6060 0.0000e+00
     -0.150     -0.021    13.2140     99.076     37.255  21.245459     5.4000     3.2033     0.1704     0.6345 1.4642e+02     5.6638     -0.147     -0.213     3.5788 0.0000e+00
     -0.155     -0.022    13.2082     98.907     37.199  21.251944     5.4000     3.2224     0.1704     0.6345 1.5889e+02     5.5887     -0.152     -0.221     3.5414 0.0000e+00
     -0.161     -0.022    13.2001     98.745     37.094  21.243292     5.4000     3.1919     0.1704     0.6345 1.6394e+02     5.5586     -0.158     -0.229     3.5074 0.0000e+00
     -0.167     -0.022    13.1830     98.599     36.983  21.229074     5.4000     3.1919     0.2130     0.6345 1.5653e+02     5.5586     -0.164     -0.238     3.4946 0.0000e+00
     -0.173     -0.020    13.1535     98.479     36.926  21.233209     5.4000     3.4284     0.2130     0.6345 1.6736e+02     5.5436     -0.170     -0.246     3.5143 0.0000e+00
     -0.178     -0.019    13.1132     98.390     36.941  21.264718     5.4000     3.4284     0.2130     0.6345 1.7996e+02     5.6037     -0.175     -0.254     3.5658 0.0000e+00
     -0.183     -0.016    13.0677     98.310     36.978  21.304293     5.4000     3.4208     0.2130     0.6345 1.6725e+02     5.5586     -0.180     -0.260     3.6351 0.0000e+00
     -0.187     -0.014    13.0253     98.227     36.995  21.334778     5.4000     3.4704     0.2130     0.7191 1.8898e+02     5.5286     -0.183     -0.266     3.7018 0.0000e+00
     -0.190     -0.012    12.9925     98.166     36.991  21.356387     5.4000     3.2758     0.2130     0.7191 1.9116e+02     5.6338     -0.186     -0.270     3.7508 0.0000e+00
     -0.192     -0.009    12.9700     98.146     36.979  21.374882     5.4000     3.2262     0.2130     0.7191 1.7972e+02     5.5135     -0.189     -0.273     3.7817 0.0000e+00
     -0.194     -0.008    12.9511     98.166     36.975  21.395197     5.4000     3.2835     0.2130     0.7191 1.8419e+02     5.5436     -0.190     -0.276     3.8063 0.0000e+00
     -0.195     -0.007    12.9308     98.218     36.981  21.416812     5.4000     3.2644     0.1704     0.7614 2.1399e+02     5.6037     -0.192     -0.278     3.8338 0.0000e+00
     -0.197     -0.007    12.9117     98.289     36.985  21.433617     5.4000     3.4856     0.1704     0.7614 2.4063e+02     5.6037     -0.193     -0.280     3.8661 0.0000e+00
     -0.198     -0.007    12.8974     98.369     36.983  21.444154     5.4000     3.4856     0.1704     0.7614 2.5600e+02     5.5135     -0.195     -0.282     3.9002 0.0000e+00
     -0.200     -0.008    12.8897     98.444     36.979  21.451234     5.4000     3.5009     0.1704     0.7614 2.6134e+02     5.5135     -0.196     -0.285     3.9307 0.0000e+00
     -0.202     -0.009    12.8881     98.501     36.974  21.456745     5.4000     3.5467     0.1704     0.7614 2.6408e+02     5.6037     -0.199     -0.288     3.9552 0.0000e+00
     -0.205     -0.010    12.8907     98.527     36.972  21.464135     5.4000     3.8023     0.1704     0.6768 2.6737e+02     5.7690     -0.201     -0.291     3.9748 0.0000e+00
     -0.208     -0.010    12.8959     98.519     36.973  21.473398     5.4000     3.7908     0.1704     0.6768 2.6598e+02     5.8592     -0.204     -0.296     3.9907 0.0000e+00
     -0.211     -0.010    12.9013     98.476     36.964  21.477106     5.4000     3.8061     0.1704     0.6768 2.6145e+02     5.8893     -0.207     -0.300     4.0037 0.0000e+00
     -0.214     -0.009    12.9047     98.397     36.934  21.470311     5.4000     3.7870     0.1704     0.6768 2.5589e+02     5.7991     -0.210     -0.304     4.0154 0.0000e+00
     -0.216     -0.008    12.9044     98.309     36.883  21.451202     5.4000     3.8099     0.2130     0.7191 2.6066e+02     5.4684     -0.212     -0.307     4.0267 0.0000e+00
     -0.218     -0.007    12.8993     98.242     36.816  21.420620     5.4000     3.8061     0.2130     0.7191 2.5796e+02     5.5436     -0.214     -0.310     4.0381 0.0000e+00
     -0.219     -0.006    12.8895     98.197     36.765  21.394163     5.4000     3.7946     0.2130     0.7191 2.6140e+02     5.4985     -0.215     -0.312     4.0507 0.0000e+00
     -0.221     -0.005    12.8744     98.150     36.761  21.390504     5.4000     3.7984     0.2130     0.7191 2.6431e+02     5.5436     -0.217     -0.314     4.0648 0.0000e+00
     -0.222     -0.004    12.8579     98.097     36.790  21.404710     5.4000     3.6306     0.2130     0.6345 2.7248e+02     5.7841     -0.218     -0.316     4.0793 0.0000e+00
     -0.223     -0.003    12.8454     98.049     36.815  21.418797     5.4000     3.6268     0.2130     0.6345 2.6397e+02     5.8292     -0.219     -0.318     4.0908 0.0000e+00
     -0.224     -0.002    12.8379     98.012     36.823  21.426624     5.4000     3.6230     0.2130     0.6345 2.6830e+02     5.8442     -0.220     -0.319     4.0952 0.0000e+00
     -0.225     -0.002    12.8325     97.987     36.820  21.432259     5.4000     3.6153     0.2130     0.6345 2.6523e+02     5.7841     -0.220     -0.319     4.0931 0.0000e+00
     -0.225     -0.001    12.8267     97.965     36.815  21.439183     5.4900     3.7450     0.2130     0.6345 2.6385e+02     5.5436     -0.220     -0.320     4.0895 0.0000e+00
     -0.225     -0.000    12.8208     97.953     36.813  21.449244     5.4900     3.7527     0.2130     0.6345 2.6460e+02     5.5887     -0.220     -0.319     4.0887 0.0000e+00
     -0.225      0.000    12.8146     97.968     36.818  21.463145     5.4900     3.7450     0.2130     0.6345 2.6494e+02     5.5887     -0.220     -0.319     4.0930 0.0000e+00
     -0.224      0.001    12.8079     98.011     36.825  21.476677     5.4900     3.7260     0.2130     0.6345 2.6650e+02     5.5736     -0.220     -0.319     4.1030 0.0000e+00
     -0.224      0.001    12.8004     98.071     36.831  21.487511     5.4900     4.1227     0.2130     0.6345 2.6529e+02     5.6488     -0.220     -0.319     4.1168 0.0000e+00
     -0.224      0.001    12.7937     98.137     36.840  21.498537     5.4000     4.1151     0.2130     0.6768 2.6431e+02     5.4985     -0.219     -0.318     4.1319 0.0000e+00
     -0.224      0.001    12.7908     98.201     36.851  21.508735     5.4000     4.1074     0.2130     0.6768 2.6391e+02     5.4684     -0.219     -0.318     4.1463 0.0000e+00
     -0.223      0.001    12.7922     98.253     36.860  21.516867     5.4000     4.1074     0.2130     0.6768 2.6420e+02     5.6037     -0.219     -0.318     4.1590 0.0000e+00
     -0.223      0.001    12.7965     98.292     36.870  21.525102     5.4000     4.3668     0.2130     0.6768 2.6385e+02     5.8141     -0.219     -0.318     4.1696 0.0000e+00
     -0.223      0.001    12.8025     98.316     36.883  21.535636     5.4900     4.3630     0.2130     0.7614 2.6357e+02     5.8292     -0.219     -0.317     4.1775 0.0000e+00
     -0.223      0.001    12.8090     98.335     36.897  21.547320     5.4900     4.3363     0.2130     0.7614 2.6437e+02     5.7239     -0.219     -0.317     4.1828 0.0000e+00
     -0.223      0.001    12.8146     98.357     36.903  21.555351     5.4900     4.3592     0.2130     0.7614 2.6420e+02     5.7991     -0.219     -0.317     4.1866 0.0000e+00
     -0.223      0.001    12.8184     98.380     36.898  21.557914     5.4900     4.5347     0.2130     0.7614 2.6385e+02     5.5135     -0.218     -0.317     4.1900 0.0000e+00
     -0.223      0.000    12.8203     98.398     36.886  21.555692     5.4900     4.5767     0.1704     0.7191 2.6345e+02     5.6338     -0.218     -0.316     4.1938 0.0000e+00
     -0.222      0.000    12.8211     98.409     36.867  21.548092     5.4900     4.5271     0.1704     0.7191 2.6248e+02     5.4985     -0.218     -0.316     4.1986 0.0000e+00
     -0.222      0.000    12.8219     98.418     36.833  21.529131     5.4900     4.5614     0.1704     0.7191 2.6259e+02     5.6187     -0.218     -0.316     4.2048 0.0000e+00
     -0.222      0.000    12.8226     98.418     36.775  21.493751     5.4900     4.4241     0.1704     0.7191 2.6334e+02     5.8893     -0.218     -0.316     4.2117 0.0000e+00
     -0.223     -0.001    12.8227     98.398     36.707  21.448351     5.4900     4.4164     0.1704     0.7191 2.6368e+02     5.8442     -0.218     -0.316     4.2182 0.0000e+00
     -0.223     -0.001    12.8227     98.361     36.636  21.396660     5.4900     4.4279     0.2130     0.6345 2.6242e+02     5.8893     -0.218     -0.317     4.2228 0.0000e+00
     -0.223     -0.001    12.8234     98.310     36.543  21.324892     5.4900     4.4164     0.2130     0.6345 2.6174e+02     5.8592     -0.219     -0.317     4.2243 0.0000e+00
     -0.223     -0.001    12.8243     98.240     36.386  21.205993     5.4900     4.3478     0.2130     0.6345 2.6500e+02     5.8141     -0.219     -0.318     4.2217 0.0000e+00
     -0.223     -0.001    12.8242     98.143     36.127  21.010236     5.4900     4.3783     0.2130     0.6345 2.6066e+02     5.7390     -0.219     -0.318     4.2140 0.0000e+00
     -0.223      0.000    12.8243     98.004     35.845  20.776461     5.5800     4.3478     0.1704     0.8037 2.6134e+02     5.7540     -0.219     -0.318     4.1995 0.0000e+00
     -0.223      0.000    12.8257     97.794     35.738  20.624410     5.5800     4.3630     0.1704     0.8037 2.5790e+02     5.8742     -0.219     -0.318     4.1756 0.0000e+00
     -0.223      0.001    12.8295     97.474     35.828  20.588740     5.5800     4.4508     0.1704     0.8037 2.5835e+02     5.8292     -0.219     -0.318     4.1374 0.0000e+00
     -0.223      0.001    12.8376     97.019     35.941  20.586707     5.5800     4.4813     0.1704     0.8037 2.6106e+02     5.7991     -0.219     -0.318     4.0756 0.0000e+00
     -0.223      0.001    12.8522     96.454     35.973  20.562351     5.4900     4.5004     0.2130     0.7191 2.8297e+02     5.7690     -0.219     -0.317     3.9786 0.0000e+00
     -0.223      0.001    12.8668     95.844     35.962  20.530948     5.4900     4.4851     0.2130     0.7191 2.6311e+02     5.8292     -0.218     -0.317     3.8539 0.0000e+00
     -0.222      0.001    12.8657     95.267     35.986  20.527664     5.4900     4.4622     0.2130     0.7191 2.6650e+02     5.7690     -0.218     -0.316     3.7328 0.0000e+00
     -0.222      0.002    12.8370     94.797     36.057  20.555583     5.4900     4.5538     0.2130     0.7191 2.6930e+02     5.5135     -0.218     -0.316     3.6402 0.0000e+00
     -0.221      0.002    12.7823     94.493     36.126  20.586525     5.4900     4.5461     0.2130     0.7191 2.6941e+02     5.6187     -0.217     -0.315     3.5805 0.0000e+00
     -0.221      0.002    12.7135     94.379     36.156  20.599053     5.4900     4.5500     0.2130     0.7191 2.6953e+02     5.4985     -0.217     -0.314     3.5446 0.0000e+00
     -0.220      0.002    12.6450     94.449     36.139  20.588591     5.4900     4.5614     0.2130     0.7191 2.6842e+02     5.5135     -0.216     -0.314     3.5208 0.0000e+00
     -0.220      0.002    12.5885     94.665     36.093  20.564224     5.4900     4.6529     0.2130     0.7191 2.6819e+02     5.7991     -0.216     -0.313     3.5037 0.0000e+00
     -0.220      0.002    12.5519     94.978     36.056  20.545184     5.4900     4.6339     0.2130     0.7191 2.6743e+02     5.7841     -0.215     -0.312     3.4923 0.0000e+00
     -0.219      0.001    12.5389     95.340     36.056  20.546186     5.4900     4.6453     0.1704     0.7614 2.6778e+02     5.7540     -0.215     -0.312     3.4860 0.0000e+00
     -0.219      0.001    12.5485     95.710     36.098  20.571455     5.4900     4.6453     0.1704     0.7614 2.6865e+02     5.7089     -0.215     -0.311     3.4850 0.0000e+00
     -0.219      0.001    12.5765     96.054     36.158  20.607938     5.4900     4.5919     0.1704     0.7614 2.6906e+02     5.7841     -0.214     -0.311     3.4875 0.0000e+00
     -0.219      0.001    12.6173     96.353     36.186  20.627759     5.4900     4.6034     0.1704     0.7614 2.7041e+02     5.9494     -0.214     -0.311     3.4900 0.0000e+00
     -0.218      0.001    12.6648     96.609     36.166  20.620371     5.4900     4.5919     0.1704     0.7614 2.6895e+02     5.7841     -0.214     -0.311     3.4913 0.0000e+00
     -0.218      0.001    12.7134     96.824     36.138  20.609532     5.4900     4.6148     0.1704     0.7614 2.6906e+02     5.7089     -0.214     -0.311     3.4931 0.0000e+00
     -0.218      0.001    12.7580     96.996     36.142  20.618083     5.4900     4.7064     0.1704     0.7614 2.6918e+02     5.6638     -0.214     -0.310     3.4966 0.0000e+00
     -0.218      0.000    12.7961     97.126     36.164  20.638406     5.4900     4.7407     0.1704     0.7614 2.6900e+02     5.5586     -0.214     -0.310     3.5013 0.0000e+00
     -0.218      0.000    12.8281     97.220     36.176  20.654153     5.4900     4.6720     0.1704     0.7614 2.6854e+02     5.5135     -0.214     -0.310     3.5070 0.0000e+00
     -0.218      0.000    12.8542     97.290     36.168  20.657646     5.4900     4.7064     0.1704     0.7614 2.6918e+02     5.5135     -0.213     -0.309     3.5141 0.0000e+00
     -0.218      0.000    12.8740     97.352     36.136  20.645860     5.4900     4.5004     0.1704     0.7614 2.6918e+02     5.9494     -0.213     -0.309     3.5229 0.0000e+00
     -0.218      0.000    12.8875     97.414     36.097  20.627526     5.4900     4.4775     0.1704     0.7614 2.6854e+02     5.7991     -0.213     -0.309     3.5338 0.0000e+00
     -0.217      0.000    12.8959     97.474     36.074  20.617547     5.4900     4.4813     0.2130     0.8460 2.6918e+02     5.7690     -0.213     -0.309     3.5460 0.0000e+00
     -0.217      0.000    12.9013     97.527     36.075  20.621178     5.4900     4.4737     0.2130     0.8460 2.6924e+02     5.7390     -0.213     -0.309     3.5573 0.0000e+00
     -0.217      0.000    12.9066     97.578     36.087  20.631473     5.4900     5.0077     0.2130     0.8460 2.6918e+02     5.7841     -0.213     -0.309     3.5660 0.0000e+00
     -0.217      0.000    12.9128     97.628     36.087  20.635341     5.4900     5.0039     0.2130     0.8460 2.6965e+02     5.7991     -0.213     -0.308     3.5719 0.0000e+00
     -0.217      0.000    12.9191     97.668     36.079  20.633816     5.4900     5.0192     0.2130     0.8460 2.6924e+02     5.8592     -0.213     -0.308     3.5764 0.0000e+00
     -0.217      0.000    12.9248     97.699     36.082  20.638366     5.4900     4.9810     0.1704     0.7614 2.6977e+02     5.7690     -0.213     -0.308     3.5806 0.0000e+00
     -0.217      0.000    12.9300     97.722     36.100  20.650203     5.4900     4.8666     0.1704     0.7614 2.6906e+02     5.7690     -0.213     -0.308     3.5853 0.0000e+00
     -0.217      0.000    12.9348     97.733     36.114  20.660611     5.4900     4.8933     0.1704     0.7614 2.6953e+02     5.8592     -0.213     -0.308     3.5903 0.0000e+00
     -0.217      0.000    12.9387     97.733     36.111  20.660488     5.4900     4.8933     0.1704     0.7614 2.6982e+02     5.7690     -0.212     -0.308     3.5947 0.0000e+00
     -0.216      0.000    12.9415     97.728     36.097  20.653760     5.4900     4.8971     0.2130     0.6768 2.6918e+02     5.7841     -0.212     -0.308     3.5981 0.0000e+00
     -0.216      0.000    12.9436     97.728     36.097  20.654467     5.4900     5.1985     0.2130     0.6768 2.6906e+02     5.7690     -0.212     -0.308     3.6009 0.0000e+00
     -0.216      0.000    12.9441     97.736     36.110  20.662798     5.4900     5.1794     0.2130     0.6768 2.6889e+02     5.7841     -0.212     -0.307     3.6036 0.0000e+00
     -0.216      0.000    12.9432     97.752     36.111  20.665141     5.4900     5.1718     0.2130     0.6768 2.6895e+02     5.8592     -0.212     -0.307     3.6060 0.0000e+00
     -0.216      0.000    12.9421     97.771     36.088  20.654203     5.4900     5.2023     0.2130     0.8037 2.6900e+02     5.7690     -0.212     -0.307     3.6077 0.0000e+00
     -0.216      0.000    12.9417     97.793     36.051  20.634985     5.4900     5.0726     0.2130     0.8037 2.6883e+02     5.7841     -0.212     -0.307     3.6088 0.0000e+00
     -0.216 1.6496e-10    12.9423     97.821     36.033  20.626112     5.4900     5.0726     0.2130     0.8037 2.6895e+02     5.9043     -0.212     -0.307     3.6103 0.0000e+00
     -0.216 2.1209e-10    12.9436     97.855     36.042  20.633134     5.4900     5.0726     0.2130     0.8037 2.6918e+02     5.8592     -0.212     -0.307     3.6127 0.0000e+00
     -0.216 2.7269e-10    12.9451     97.881     36.054  20.642091     5.4900     5.0649     0.1704     0.8460 2.6994e+02     5.7690     -0.212     -0.307     3.6157 0.0000e+00
     -0.216 3.5060e-10    12.9470     97.895     36.059  20.647454     5.4900     4.9886     0.1704     0.8460 2.6971e+02     5.8292     -0.212     -0.307     3.6184 0.0000e+00
     -0.215 4.5078e-10    12.9501     97.906     36.060  20.650654     5.4900     5.0154     0.1704     0.8460 2.6865e+02     5.8742     -0.211     -0.306     3.6205 0.0000e+00
     -0.215 5.7957e-10    12.9538     97.920     36.067  20.656503     5.4900     5.0077     0.1704     0.8460 2.6912e+02     5.7841     -0.211     -0.306     3.6226 0.0000e+00
     -0.215 7.4516e-10    12.9563     97.933     36.082  20.666560     5.4900     5.0344     0.1704     0.8460 2.6854e+02     5.7239     -0.211     -0.306     3.6255 0.0000e+00
     -0.215 9.5807e-10    12.9568     97.945     36.094  20.675590     5.4900     5.6753     0.2130     0.6768 2.6842e+02     5.8442     -0.211     -0.306     3.6291 0.0000e+00
     -0.215 1.2318e-09    12.9571     97.944     36.102  20.682044     5.4900     5.6791     0.2130     0.6768 2.7000e+02     5.8592     -0.211     -0.306     3.6326 0.0000e+00
     -0.215 1.5837e-09    12.9580     97.927     36.108  20.687642     5.4900     5.6906     0.2130     0.6768 2.6959e+02     5.7991     -0.211     -0.306     3.6353 0.0000e+00
     -0.215 2.0362e-09    12.9590     97.906     36.109  20.689919     5.4900     5.6906     0.2130     0.6768 2.6906e+02     5.8292     -0.211     -0.306     3.6376 0.0000e+00
     -0.215 2.6180e-09    12.9596     97.887     36.097  20.685524     5.4900     5.3778     0.2130     0.7191 2.6865e+02     5.8742     -0.211     -0.306     3.6403 0.0000e+00
     -0.215 3.3660e-09    12.9585     97.868     36.079  20.677243     5.4900     5.4006     0.2130     0.7191 2.6912e+02     5.8742     -0.211     -0.305     3.6434 0.0000e+00
     -0.215 4.3277e-09    12.9552     97.851     36.066  20.670786     5.4900     5.4006     0.2130     0.7191 2.6889e+02     5.8742     -0.211     -0.305     3.6463 0.0000e+00
     -0.215 5.5642e-09    12.9514     97.842     36.068  20.672346     5.4900     5.3625     0.2130     0.7191 2.6918e+02     5.7690     -0.211     -0.305     3.6490 0.0000e+00
     -0.215 7.1540e-09    12.9479     97.841     36.078  20.678381     5.4900     5.7402     0.2130     0.7614 2.6953e+02     5.7841     -0.211     -0.305     3.6518 0.0000e+00
     -0.215 9.1980e-09    12.9445     97.847     36.076  20.678626     5.4900     5.7287     0.2130     0.7614 2.6924e+02     5.8292     -0.211     -0.305     3.6544 0.0000e+00
     -0.215 1.1826e-08    12.9418     97.854     36.063  20.673146     5.4900     5.7363     0.2130     0.7614 2.6953e+02     5.8592     -0.210     -0.305     3.6560 0.0000e+00
     -0.215 1.5205e-08    12.9404     97.862     36.051  20.668396     5.4900     5.7592     0.2130     0.7614 2.6912e+02     5.7841     -0.210     -0.305     3.6565 0.0000e+00
     -0.215 1.9549e-08    12.9402     97.869     36.053  20.671027     5.4900     5.5456     0.1704     0.8883 2.6906e+02     5.8893     -0.210     -0.305     3.6569 0.0000e+00
     -0.215 2.5135e-08    12.9404     97.876     36.071  20.681741     5.4900     5.5418     0.1704     0.8883 2.6918e+02     5.9043     -0.210     -0.305     3.6586 0.0000e+00
     -0.214 3.2316e-08    12.9404     97.884     36.093  20.695476     5.4900     5.5418     0.1704     0.8883 2.6889e+02     5.8893     -0.210     -0.305     3.6617 0.0000e+00
     -0.214 4.1549e-08    12.9403     97.896     36.104  20.704022     5.4900     5.5456     0.1704     0.8883 2.6959e+02     5.8893     -0.210     -0.305     3.6648 0.0000e+00
     -0.214 5.3420e-08    12.9405     97.911     36.096  20.701740     5.4900     5.7592     0.1704     0.8883 2.6865e+02     5.7390     -0.210     -0.305     3.6667 0.0000e+00
     -0.214 6.8683e-08    12.9411     97.925     36.084  20.695938     5.4900     5.7249     0.2130     0.7191 2.6889e+02     5.9193     -0.210     -0.305     3.6677 0.0000e+00
     -0.214 8.8307e-08    12.9416     97.934     36.078  20.692987     5.4900     5.7554     0.2130     0.7191 2.6836e+02     5.8592     -0.210     -0.305     3.6692 0.0000e+00
     -0.214 1.1354e-07    12.9423     97.934     36.068  20.688140     5.4900     5.7592     0.2130     0.7191 2.6900e+02     5.7841     -0.210     -0.305     3.6719 0.0000e+00
     -0.214 1.4598e-07    12.9433     97.929     36.052  20.680106     5.4900     6.1293     0.2130     0.7191 2.6895e+02     5.7841     -0.210     -0.305     3.6747 0.0000e+00
     -0.214 1.8768e-07    12.9445     97.923     36.049  20.678617     5.4900     6.1407     0.2130     0.7614 2.7000e+02     5.8742     -0.210     -0.305     3.6766 0.0000e+00
     -0.214 2.4131e-07    12.9453     97.916     36.056  20.683276     5.4900     6.1026     0.2130     0.7614 2.6883e+02     5.7390     -0.210     -0.305     3.6776 0.0000e+00
     -0.214 3.1025e-07    12.9449     97.906     36.056  20.683450     5.4900     6.1102     0.2130     0.7614 2.6959e+02     5.8592     -0.210     -0.305     3.6788 0.0000e+00
     -0.214 3.9890e-07    12.9438     97.895     36.047  20.679186     5.4900     5.6448     0.2130     0.7614 2.6860e+02     5.8292     -0.210     -0.304     3.6801 0.0000e+00
     -0.214 3.9901e-07    12.9428     97.890     36.029  20.669347     5.4900     5.6333     0.2130     0.7614 2.6924e+02     5.7540     -0.210     -0.304     3.6809 0.0000e+00
     -0.214 3.1061e-07    12.9418     97.889     36.005  20.655266     5.4900     5.6448     0.2130     0.7614 2.6918e+02     5.7991     -0.210     -0.304     3.6812 0.0000e+00
     -0.214 2.4192e-07    12.9401     97.893     35.996  20.649024     5.4900     5.6143     0.2130     0.7614 2.6947e+02     5.7089     -0.210     -0.304     3.6820 0.0000e+00
     -0.214 1.8860e-07    12.9383     97.901     36.009  20.656871     5.4900     6.0797     0.2130     0.7614 2.6971e+02     5.7540     -0.210     -0.304     3.6832 0.0000e+00
     -0.214 1.4725e-07    12.9375     97.903     36.035  20.672984     5.5800     6.0453     0.2130     0.8460 2.7018e+02     5.6939     -0.210     -0.305     3.6836 0.0000e+00
     -0.214 1.1525e-07    12.9375     97.897     36.053  20.685827     5.5800     6.0797     0.2130     0.8460 2.6965e+02     5.8442     -0.210     -0.305     3.6830 0.0000e+00
     -0.214 9.0565e-08    12.9384     97.890     36.057  20.690906     5.5800     6.0797     0.2130     0.8460 2.6959e+02     5.7841     -0.210     -0.305     3.6820 0.0000e+00
     -0.214 7.1632e-08    12.9395     97.886     36.052  20.689577     5.5800     5.8088     0.2130     0.8460 2.7023e+02     5.8292     -0.210     -0.305     3.6819 0.0000e+00
     -0.214 5.7246e-08    12.9391     97.881     36.050  20.689403     5.5800     5.8088     0.2130     0.8460 2.7023e+02     5.7841     -0.210     -0.305     3.6837 0.0000e+00
     -0.214 4.6496e-08    12.9372     97.871     36.058  20.694295     5.4900     5.8088     0.2130     0.7614 2.6959e+02     5.8592     -0.210     -0.305     3.6872 0.0000e+00
     -0.214 3.8698e-08    12.9351     97.860     36.061  20.697641     5.4900     5.7974     0.2130     0.7614 2.7000e+02     5.7239     -0.210     -0.305     3.6909 0.0000e+00
     -0.214 3.3357e-08    12.9337     97.852     36.060  20.700332     5.4900     6.1102     0.2130     0.7614 2.6988e+02     5.8292     -0.210     -0.305     3.6935 0.0000e+00
     -0.214 3.5713e-08    12.9327     97.850     36.059  20.703088     5.4900     6.0987     0.2130     0.7614 2.6971e+02     5.8592     -0.210     -0.304     3.6943 0.0000e+00
     -0.214 4.5917e-08    12.9312     97.853     36.047  20.698726     5.5800     6.1026     0.1704     0.8883 2.6971e+02     5.8292     -0.210     -0.304     3.6950 0.0000e+00
     -0.214 5.9036e-08    12.9289     97.855     36.021  20.686083     5.5800     6.1293     0.1704     0.8883 2.6994e+02     5.6939     -0.210     -0.304     3.6974 0.0000e+00
     -0.214 7.5903e-08    12.9263     97.857     35.991  20.669705     5.5800     6.1789     0.1704     0.8883 2.7000e+02     5.9193     -0.210     -0.304     3.7017 0.0000e+00
     -0.214 9.7590e-08    12.9245     97.863     35.956  20.649183     5.5800     6.1674     0.1704     0.8883 2.7006e+02     5.8592     -0.210     -0.304     3.7065 0.0000e+00
     -0.214 1.2547e-07    12.9235     97.874     35.920  20.626961     5.4900     6.1827     0.2130     0.8883 2.7006e+02     5.8442     -0.210     -0.304     3.7104 0.0000e+00
     -0.214 1.6132e-07    12.9228     97.890     35.902  20.612945     5.4900     6.1789     0.2130     0.8883 2.6988e+02     5.8442     -0.210     -0.304     3.7129 0.0000e+00
     -0.214 2.0741e-07    12.9227     97.904     35.905  20.611315     5.4900     5.7592     0.2130     0.8883 2.6971e+02     5.8442     -0.210     -0.304     3.7140 0.0000e+00
     -0.214 2.6668e-07    12.9236     97.907     35.923  20.617677     5.4900     5.7592     0.2130     0.8883 2.7053e+02     5.9043     -0.210     -0.304     3.7137 0.0000e+00
     -0.214 3.4287e-07    12.9260     97.902     35.945  20.625812     5.4900     5.7516     0.2130     0.8883 2.6994e+02     5.7991     -0.210     -0.304     3.7112 0.0000e+00
     -0.214 4.4083e-07    12.9297     97.895     35.967  20.633931     5.4900     5.7669     0.1704     0.7191 2.7018e+02     5.8292     -0.210     -0.304     3.7066 0.0000e+00
     -0.214 5.6678e-07    12.9332     97.886     35.990  20.644198     5.4900     6.2437     0.1704     0.7191 2.6982e+02     5.8292     -0.210     -0.304     3.7014 0.0000e+00
     -0.214 7.2872e-07    12.9354     97.876     36.009  20.655392     5.4900     6.2246     0.1704     0.7191 2.6941e+02     5.7239     -0.210     -0.304     3.6962 0.0000e+00
     -0.214 9.3693e-07    12.9369     97.862     36.016  20.662582     5.4900     6.2399     0.1704     0.7191 2.6988e+02     5.7841     -0.210     -0.304     3.6901 0.0000e+00
     -0.214      0.000    12.9381     97.848     36.011  20.663727     5.5800     6.2551     0.1704     0.8883 2.6971e+02     5.7841     -0.210     -0.304     3.6836 0.0000e+00
     -0.214      0.000    12.9383     97.839     36.003  20.663092     5.5800     6.1598     0.1704     0.8883 2.6953e+02     5.7991     -0.210     -0.304     3.6797 0.0000e+00
     -0.214      0.000    12.9368     97.840     35.999  20.664465     5.5800     6.1941     0.1704     0.8883 2.6971e+02     5.7540     -0.210     -0.304     3.6803 0.0000e+00
     -0.214      0.000    12.9336     97.846     35.992  20.664254     5.5800     6.1979     0.1704     0.8883 2.6982e+02     5.8742     -0.210     -0.304     3.6844 0.0000e+00
     -0.214      0.000    12.9297     97.854     35.983  20.662403     5.4900     6.2170     0.2130     0.9306 2.6941e+02     5.8442     -0.209     -0.304     3.6900 0.0000e+00
     -0.214      0.000    12.9267     97.860     35.978  20.662376     5.4900     5.7669     0.2130     0.9306 2.6988e+02     5.6939     -0.209     -0.304     3.6957 0.0000e+00
     -0.214      0.000    12.9250     97.863     35.969  20.660209     5.4900     5.7440     0.2130     0.9306 2.6971e+02     5.8442     -0.209     -0.304     3.7009 0.0000e+00
     -0.214      0.000    12.9241     97.868     35.949  20.651364     5.4900     5.7592     0.2130     0.9306 2.6965e+02     5.7991     -0.209     -0.304     3.7057 0.0000e+00
     -0.214      0.000    12.9236     97.874     35.922  20.637443     5.4900     5.7592     0.2130     0.8883 2.6994e+02     5.8442     -0.209     -0.304     3.7102 0.0000e+00
     -0.214      0.000    12.9229     97.874     35.895  20.622649     5.4900     5.8927     0.2130     0.8883 2.7023e+02     5.8893     -0.209     -0.304     3.7146 0.0000e+00
     -0.213      0.000    12.9219     97.868     35.874  20.610953     5.4900     5.8775     0.2130     0.8883 2.7012e+02     5.7841     -0.209     -0.304     3.7188 0.0000e+00
     -0.213      0.000    12.9214     97.856     35.867  20.607154     5.4900     5.8927     0.2130     0.8883 2.6982e+02     5.8592     -0.209     -0.304     3.7222 0.0000e+00
     -0.213      0.000    12.9214     97.845     35.872  20.610238     5.4900     5.8813     0.2130     0.8883 2.7006e+02     5.7540     -0.209     -0.304     3.7244 0.0000e+00
     -0.213      0.000    12.9212     97.841     35.874  20.613112     5.4900     6.1026     0.2130     1.0152 2.6994e+02     5.7390     -0.209     -0.304     3.7254 0.0000e+00
     -0.213      0.000    12.9202     97.846     35.871  20.612584     5.4900     6.1254     0.2130     1.0152 2.7041e+02     5.8893     -0.209     -0.304     3.7258 0.0000e+00
     -0.214      0.000    12.9186     97.861     35.869  20.612470     5.4900     6.1140     0.2130     1.0152 2.7000e+02     5.7089     -0.210     -0.304     3.7261 0.0000e+00
     -0.214      0.000    12.9168     97.881     35.877  20.616700     5.4900     6.1026     0.2130     1.0152 2.7053e+02     5.7690     -0.210     -0.304     3.7270 0.0000e+00
     -0.214      0.000    12.9155     97.899     35.888  20.622443     5.4900     6.8579     0.2130     1.0152 2.7041e+02     5.8292     -0.210     -0.304     3.7289 0.0000e+00
     -0.214      0.000    12.9155     97.912     35.889  20.623312     5.4900     6.8541     0.2130     1.0152 2.7012e+02     5.8592     -0.210     -0.304     3.7310 0.0000e+00
     -0.214      0.000    12.9171     97.915     35.874  20.615583     5.4900     6.8579     0.2130     1.0152 2.6971e+02     5.8442     -0.210     -0.304     3.7321 0.0000e+00
     -0.214      0.000    12.9199     97.910     35.854  20.605110     5.4900     6.8808     0.2130     1.0152 2.7035e+02     5.8442     -0.210     -0.304     3.7317 0.0000e+00
     -0.213      0.000    12.9225     97.898     35.848  20.600975     5.4900     6.5985     0.2130     0.9306 2.7023e+02     5.7991     -0.209     -0.304     3.7311 0.0000e+00
     -0.213      0.000    12.9239     97.884     35.851  20.602077     5.4900     6.6443     0.2130     0.9306 2.7070e+02     5.7841     -0.209     -0.304     3.7317 0.0000e+00
     -0.213      0.000    12.9239     97.874     35.849  20.600791     5.4900     6.6099     0.2130     0.9306 2.7023e+02     5.7991     -0.209     -0.304     3.7330 0.0000e+00
     -0.213      0.000    12.9230     97.874     35.841  20.596775     5.4900     6.6366     0.2130     0.9306 2.7076e+02     5.8893     -0.209     -0.303     3.7338 0.0000e+00
     -0.213      0.001    12.9216     97.878     35.833  20.592917     5.4900     6.0911     0.2130     0.8883 2.7053e+02     5.8893     -0.209     -0.303     3.7332 0.0000e+00
     -0.213      0.001    12.9201     97.880     35.824  20.588187     5.4900     6.1178     0.2130     0.8883 2.7047e+02     5.9043     -0.209     -0.303     3.7322 0.0000e+00
     -0.213      0.001    12.9189     97.872     35.813  20.581326     5.4900     6.1216     0.2130     0.8883 2.7059e+02     5.8141     -0.209     -0.303     3.7319 0.0000e+00
     -0.213      0.000    12.9187     97.857     35.796  20.570502     5.4900     6.1064     0.2130     0.8883 2.7059e+02     5.8292     -0.209     -0.303     3.7324 0.0000e+00
     -0.213      0.000    12.9190     97.844     35.776  20.556788     5.4900     5.9652     0.2130     0.8883 2.7065e+02     5.7239     -0.209     -0.303     3.7332 0.0000e+00
     -0.213      0.000    12.9189     97.838     35.762  20.544443     5.4900     5.9309     0.2130     0.8460 2.7047e+02     5.7991     -0.209     -0.303     3.7337 0.0000e+00
     -0.213 4.3470e-07    12.9179     97.836     35.764  20.538093     5.4900     5.9462     0.2130     0.8460 2.7106e+02     5.9193     -0.209     -0.303     3.7337 0.0000e+00
     -0.213 5.5890e-07    12.9163     97.837     35.783  20.540001     5.4900     5.9652     0.2130     0.8460 2.7129e+02     5.7991     -0.209     -0.303     3.7326 0.0000e+00
     -0.213 7.1859e-07    12.9156     97.843     35.810  20.546718     5.4900     5.7592     0.2130     0.8460 2.7171e+02     5.8292     -0.209     -0.303     3.7297 0.0000e+00
     -0.213 9.2390e-07    12.9170     97.852     35.826  20.548160     5.5800     5.7440     0.2130     0.9306 2.7123e+02     5.7841     -0.209     -0.303     3.7234 0.0000e+00
     -0.212      0.000    12.9203     97.861     35.835  20.542733     5.5800     5.7478     0.2130     0.9306 2.7159e+02     5.8592     -0.208     -0.303     3.7130 0.0000e+00
     -0.212      0.000    12.9249     97.857     35.861  20.544821     5.5800     5.7592     0.2130     0.9306 2.7112e+02     5.9043     -0.208     -0.302     3.7002 0.0000e+00
     -0.212      0.000    12.9297     97.834     35.905  20.558940     5.5800     5.9271     0.2130     0.9306 2.7070e+02     5.8442     -0.208     -0.302     3.6882 0.0000e+00
     -0.212      0.000    12.9349     97.798     35.934  20.573020     5.4900     5.9233     0.2130     0.8037 2.7118e+02     5.7239     -0.208     -0.302     3.6768 0.0000e+00
     -0.212      0.000    12.9409     97.749     35.919  20.573003     5.4900     5.9385     0.2130     0.8037 2.7147e+02     5.7841     -0.208     -0.302     3.6626 0.0000e+00
     -0.212      0.000    12.9465     97.691     35.855  20.554927     5.4900     5.9576     0.2130     0.8037 2.7118e+02     5.8592     -0.208     -0.302     3.6448 0.0000e+00
     -0.212      0.000    12.9487     97.630     35.774  20.531785     5.4900     6.5527     0.2130     0.8037 2.7135e+02     5.4835     -0.208     -0.302     3.6294 0.0000e+00
     -0.212      0.000    12.9453     97.570     35.709  20.517198     5.5800     6.5527     0.2130     0.7614 2.7106e+02     5.4684     -0.208     -0.302     3.6254 0.0000e+00
     -0.212      0.000    12.9348     97.510     35.667  20.511236     5.5800     6.5413     0.2130     0.7614 2.7088e+02     5.6488     -0.208     -0.301     3.6375 0.0000e+00
     -0.212      0.000    12.9182     97.452     35.637  20.508351     5.5800     6.5374     0.2130     0.7614 2.7070e+02     5.6939     -0.208     -0.301     3.6636 0.0000e+00
     -0.212      0.000    12.8989     97.403     35.615  20.505796     5.5800     6.0034     0.2130     0.7614 2.7159e+02     5.6037     -0.208     -0.301     3.6962 0.0000e+00
     -0.212      0.000    12.8802     97.365     35.600  20.502887     5.5800     5.9996     0.2130     0.7614 2.7171e+02     5.5887     -0.208     -0.301     3.7276 0.0000e+00
     -0.212      0.000    12.8635     97.337     35.594  20.500830     5.4900     5.9919     0.1704     0.8460 2.7129e+02     5.5736     -0.208     -0.301     3.7535 0.0000e+00
     -0.212      0.000    12.8492     97.323     35.602  20.503034     5.4900     5.9805     0.1704     0.8460 2.7123e+02     5.4985     -0.208     -0.301     3.7733 0.0000e+00
     -0.212      0.000    12.8380     97.320     35.619  20.510087     5.4900     6.4840     0.1704     0.8460 2.7147e+02     5.7841     -0.208     -0.301     3.7873 0.0000e+00
     -0.212      0.000    12.8302     97.329     35.636  20.515952     5.4900     6.4993     0.1704     0.8460 2.7123e+02     5.8442     -0.208     -0.301     3.7951 0.0000e+00
     -0.212      0.000    12.8260     97.354     35.637  20.512298     5.4900     6.4764     0.2130     1.0152 2.7112e+02     5.9193     -0.208     -0.301     3.7968 0.0000e+00
     -0.212      0.000    12.8250     97.394     35.635  20.504088     5.4900     6.4878     0.2130     1.0152 2.7118e+02     5.8592     -0.208     -0.301     3.7941 0.0000e+00
     -0.212      0.000    12.8261     97.445     35.646  20.502986     5.4900     5.4884     0.2130     1.0152 2.7147e+02     5.7540     -0.208     -0.301     3.7896 0.0000e+00
     -0.212      0.000    12.8289     97.501     35.665  20.506720     5.4900     5.4960     0.2130     1.0152 2.7082e+02     5.7991     -0.208     -0.301     3.7849 0.0000e+00
     -0.212      0.000    12.8344     97.552     35.674  20.506388     5.5800     5.4998     0.2130     0.8883 2.7094e+02     5.8592     -0.208     -0.301     3.7786 0.0000e+00
     -0.212      0.000    12.8428     97.594     35.672  20.499922     5.5800     5.4808     0.2130     0.8883 2.7159e+02     5.7690     -0.208     -0.301     3.7693 0.0000e+00
     -0.212      0.000    12.8533     97.628     35.677  20.497475     5.5800     5.3282     0.2130     0.8883 2.7094e+02     5.7991     -0.208     -0.301     3.7583 0.0000e+00
     -0.212      0.000    12.8640     97.656     35.700  20.506309     5.5800     5.3396     0.2130     0.8883 2.7147e+02     5.7841     -0.207     -0.301     3.7484 0.0000e+00
     -0.211      0.000    12.8734     97.679     35.724  20.516904     5.4900     5.3358     0.2130     0.8037 2.7171e+02     5.7690     -0.207     -0.300     3.7407 0.0000e+00
     -0.211      0.001    12.8814     97.701     35.729  20.518233     5.4900     5.3053     0.2130     0.8037 2.7159e+02     5.7239     -0.207     -0.300     3.7334 0.0000e+00
     -0.211      0.001    12.8884     97.726     35.719  20.510649     5.4900     5.3816     0.2130     0.8037 2.7182e+02     5.8292     -0.207     -0.300     3.7259 0.0000e+00
     -0.211      0.001    12.8943     97.757     35.707  20.502027     5.4900     5.3701     0.2130     0.8037 2.7182e+02     5.7841     -0.206     -0.300     3.7194 0.0000e+00
     -0.211      0.000    12.8988     97.792     35.698  20.496004     5.4900     5.3854     0.2130     0.8037 2.7147e+02     5.7690     -0.206     -0.299     3.7151 0.0000e+00
     -0.210      0.000    12.9026     97.826     35.689  20.490973     5.4900     5.3816     0.2130     0.9306 2.7153e+02     5.6939     -0.206     -0.299     3.7125 0.0000e+00
     -0.210      0.000    12.9067     97.850     35.682  20.487574     5.4900     5.8584     0.2130     0.9306 2.7147e+02     5.8592     -0.206     -0.299     3.7103 0.0000e+00
     -0.210 3.0093e-09    12.9115     97.864     35.679  20.486877     5.4900     5.8775     0.2130     0.9306 2.7165e+02     5.8292     -0.206     -0.299     3.7082 0.0000e+00
     -0.210 3.8691e-09    12.9166     97.869     35.678  20.486719     5.4900     5.8508     0.2130     0.9306 2.7088e+02     5.8893     -0.206     -0.299     3.7068 0.0000e+00
     -0.210 4.9746e-09    12.9211     97.867     35.674  20.485079     5.4900     5.8737     0.2130     1.0152 2.7147e+02     5.8893     -0.206     -0.299     3.7067 0.0000e+00
     -0.210 6.3959e-09    12.9241     97.861     35.671  20.483498     5.4900     5.6791     0.2130     1.0152 2.7159e+02     5.8292     -0.206     -0.299     3.7076 0.0000e+00
     -0.210 8.2232e-09    12.9255     97.851     35.668  20.481554     5.4900     5.6791     0.2130     1.0152 2.7106e+02     5.8442     -0.206     -0.299     3.7088 0.0000e+00
     -0.210 1.0573e-08    12.9258     97.836     35.659  20.476750     5.4900     5.6753     0.2130     1.0152 2.7112e+02     5.7540     -0.206     -0.299     3.7098 0.0000e+00
     -0.210 1.3594e-08    12.9254     97.822     35.644  20.467805     5.5800     5.6791     0.1704     0.9306 2.7200e+02     5.8292     -0.206     -0.299     3.7103 0.0000e+00
     -0.210 1.7477e-08    12.9244     97.816     35.619  20.452333     5.5800     5.6791     0.1704     0.9306 2.7147e+02     5.8292     -0.206     -0.299     3.7106 0.0000e+00
     -0.210 2.2471e-08    12.9230     97.816     35.595  20.436104     5.5800     5.7020     0.1704     0.9306 2.7159e+02     5.8742     -0.206     -0.299     3.7107 0.0000e+00
     -0.210 2.8891e-08    12.9210     97.819     35.590  20.428645     5.5800     5.7020     0.1704     0.9306 2.7118e+02     5.9043     -0.206     -0.299     3.7108 0.0000e+00
     -0.210 3.7146e-08    12.9194     97.826     35.597  20.427966     5.5800     5.6600     0.1704     0.9306 2.7100e+02     5.8292     -0.206     -0.299     3.7104 0.0000e+00
     -0.210 4.7759e-08    12.9191     97.838     35.607  20.429928     5.5800     5.8622     0.2130     1.0152 2.7159e+02     5.7841     -0.206     -0.299     3.7089 0.0000e+00
     -0.211 6.1404e-08    12.9203     97.852     35.620  20.435054     5.5800     5.8737     0.2130     1.0152 2.7106e+02     5.8893     -0.207     -0.300     3.7053 0.0000e+00
     -0.211 7.8948e-08    12.9227     97.862     35.632  20.440752     5.5800     5.8775     0.2130     1.0152 2.7082e+02     5.8442     -0.207     -0.300     3.6993 0.0000e+00
     -0.211 1.0151e-07    12.9258     97.863     35.640  20.444584     5.5800     5.8813     0.2130     1.0152 2.7135e+02     5.9043     -0.207     -0.300     3.6929 0.0000e+00
     -0.211 1.3051e-07    12.9292     97.859     35.646  20.447572     5.4900     5.8050     0.2130     0.9306 2.7141e+02     5.8292     -0.207     -0.300     3.6878 0.0000e+00
     -0.211 1.6779e-07    12.9322     97.858     35.652  20.450511     5.4900     5.8164     0.2130     0.9306 2.7141e+02     5.8442     -0.207     -0.300     3.6843 0.0000e+00
     -0.211 2.1574e-07    12.9343     97.863     35.658  20.454187     5.4900     5.8088     0.2130     0.9306 2.7129e+02     5.7991     -0.207     -0.300     3.6822 0.0000e+00
     -0.211 2.7737e-07    12.9349     97.870     35.659  20.455621     5.4900     5.8203     0.2130     0.9306 2.7206e+02     5.8141     -0.207     -0.300     3.6812 0.0000e+00
     -0.211 3.5662e-07    12.9345     97.876     35.649  20.451236     5.5800     5.6219     0.2130     1.0575 2.7135e+02     5.7991     -0.207     -0.300     3.6806 0.0000e+00
     -0.211 4.5852e-07    12.9345     97.887     35.635  20.443823     5.5800     5.5876     0.2130     1.0575 2.7171e+02     5.7841     -0.207     -0.300     3.6802 0.0000e+00
     -0.211 5.8952e-07    12.9350     97.901     35.629  20.439321     5.5800     5.6066     0.2130     1.0575 2.7135e+02     5.7540     -0.207     -0.300     3.6805 0.0000e+00
     -0.211 7.5796e-07    12.9354     97.912     35.627  20.436529     5.5800     5.6333     0.2130     1.0575 2.7082e+02     5.8141     -0.207     -0.300     3.6818 0.0000e+00
     -0.211 9.7451e-07    12.9358     97.916     35.620  20.430745     5.5800     5.7897     0.2130     0.9729 2.7153e+02     5.7841     -0.207     -0.300     3.6832 0.0000e+00
     -0.211      0.000    12.9371     97.914     35.614  20.424385     5.5800     5.8126     0.2130     0.9729 2.7171e+02     5.7540     -0.207     -0.300     3.6837 0.0000e+00
     -0.211      0.000    12.9393     97.908     35.614  20.419709     5.5800     5.7821     0.2130     0.9729 2.7171e+02     5.8442     -0.207     -0.300     3.6827 0.0000e+00
     -0.211      0.000    12.9415     97.901     35.624  20.419431     5.5800     5.8241     0.2130     0.9729 2.7159e+02     5.7390     -0.207     -0.300     3.6805 0.0000e+00
     -0.211      0.000    12.9430     97.893     35.643  20.423476     5.5800     5.6944     0.2130     0.9729 2.7106e+02     5.8592     -0.207     -0.300     3.6776 0.0000e+00
     -0.211      0.000    12.9441     97.888     35.658  20.425005     5.5800     5.6829     0.1704     0.8883 2.7159e+02     5.9043     -0.207     -0.300     3.6736 0.0000e+00
     -0.211      0.000    12.9454     97.886     35.664  20.420467     5.5800     5.6829     0.1704     0.8883 2.7177e+02     5.8742     -0.207     -0.300     3.6675 0.0000e+00
     -0.211      0.000    12.9475     97.884     35.662  20.408653     5.5800     5.6867     0.1704     0.8883 2.7194e+02     5.7841     -0.207     -0.300     3.6589 0.0000e+00
     -0.211      0.000    12.9498     97.884     35.664  20.394329     5.5800     5.7592     0.1704     0.8883 2.7100e+02     5.7991     -0.207     -0.300     3.6492 0.0000e+00
     -0.211      0.000    12.9524     97.881     35.685  20.389508     5.5800     5.7592     0.2130     1.0998 2.7112e+02     5.7991     -0.207     -0.300     3.6394 0.0000e+00
     -0.211      0.000    12.9559     97.867     35.718  20.396860     5.5800     5.7592     0.2130     1.0998 2.7200e+02     5.7089     -0.207     -0.300     3.6286 0.0000e+00
     -0.211      0.000    12.9609     97.842     35.734  20.406471     5.5800     5.7440     0.2130     1.0998 2.7259e+02     5.7239     -0.207     -0.300     3.6134 0.0000e+00
     -0.211      0.000    12.9684     97.809     35.712  20.407050     5.5800     5.7592     0.2130     1.0998 2.7206e+02     5.8292     -0.207     -0.300     3.5915 0.0000e+00
     -0.211      0.000    12.9762     97.765     35.654  20.396772     5.5800     5.7173     0.2130     1.0575 2.7224e+02     5.7239     -0.207     -0.300     3.5677 0.0000e+00
     -0.211      0.000    12.9797     97.713     35.591  20.386752     5.5800     5.7440     0.2130     1.0575 2.7194e+02     5.9043     -0.207     -0.300     3.5523 0.0000e+00
     -0.211      0.000    12.9762     97.666     35.554  20.388172     5.5800     5.7821     0.2130     1.0575 2.7188e+02     5.8292     -0.207     -0.300     3.5528 0.0000e+00
     -0.211      0.000    12.9656     97.628     35.536  20.395476     5.5800     5.5342     0.2130     1.0575 2.7159e+02     5.9494     -0.207     -0.300     3.5709 0.0000e+00
     -0.211      0.000    12.9487     97.596     35.516  20.396757     5.5800     5.4808     0.2130     0.8460 2.7224e+02     5.7690     -0.207     -0.300     3.6030 0.0000e+00
     -0.211      0.000    12.9293     97.569     35.491  20.390378     5.5800     5.4846     0.2130     0.8460 2.7194e+02     5.7540     -0.207     -0.300     3.6397 0.0000e+00
     -0.211      0.000    12.9122     97.549     35.466  20.380576     5.5800     5.4884     0.2130     0.8460 2.7248e+02     5.8141     -0.206     -0.299     3.6716 0.0000e+00
     -0.210      0.000    12.8986     97.538     35.455  20.376612     5.5800     5.6753     0.2130     0.8460 2.7206e+02     5.8592     -0.206     -0.299     3.6962 0.0000e+00
     -0.210      0.000    12.8883     97.537     35.462  20.381385     5.5800     5.6867     0.2130     0.8460 2.7200e+02     5.7239     -0.206     -0.299     3.7140 0.0000e+00
     -0.210      0.000    12.8809     97.545     35.473  20.388254     5.5800     5.6715     0.2130     0.8883 2.7224e+02     5.7690     -0.206     -0.299     3.7255 0.0000e+00
     -0.210      0.000    12.8761     97.561     35.477  20.391132     5.5800     5.6944     0.2130     0.8883 2.7165e+02     5.7540     -0.206     -0.299     3.7318 0.0000e+00
     -0.210      0.000    12.8736     97.584     35.484  20.394747     5.5800     5.8012     0.2130     0.8883 2.7147e+02     5.8292     -0.206     -0.298     3.7348 0.0000e+00
     -0.210      0.001    12.8729     97.612     35.501  20.404019     5.5800     5.8164     0.2130     0.8883 2.7230e+02     5.7841     -0.206     -0.298     3.7364 0.0000e+00
     -0.210      0.001    12.8737     97.637     35.512  20.409546     5.5800     5.8088     0.2130     0.8883 2.7248e+02     5.7841     -0.205     -0.298     3.7373 0.0000e+00
     -0.209      0.001    12.8757     97.660     35.511  20.408846     5.5800     5.8279     0.2130     0.8883 2.7194e+02     5.7690     -0.205     -0.298     3.7376 0.0000e+00
     -0.209      0.001    12.8788     97.684     35.506  20.405688     5.5800     5.6562     0.2130     0.8883 2.7224e+02     5.8893     -0.205     -0.298     3.7372 0.0000e+00
     -0.209      0.001    12.8827     97.712     35.496  20.399231     5.5800     5.6944     0.2130     0.8883 2.7236e+02     5.9193     -0.205     -0.297     3.7365 0.0000e+00
     -0.209      0.001    12.8864     97.747     35.483  20.391711     5.5800     5.7096     0.2130     0.9729 2.7218e+02     5.8442     -0.204     -0.297     3.7356 0.0000e+00
     -0.208      0.001    12.8896     97.788     35.472  20.385082     5.5800     5.6715     0.2130     0.9729 2.7206e+02     5.7841     -0.204     -0.296     3.7349 0.0000e+00
     -0.208      0.002    12.8930     97.831     35.453  20.373616     5.5800     5.4312     0.2130     0.9729 2.7171e+02     5.7540     -0.204     -0.296     3.7344 0.0000e+00
     -0.207      0.002    12.8969     97.867     35.428  20.358215     5.5800     5.4502     0.2130     0.9729 2.7135e+02     5.8742     -0.203     -0.295     3.7339 0.0000e+00
     -0.207      0.003    12.9016     97.892     35.411  20.346647     5.5800     5.4426     0.2130     1.0152 2.7236e+02     5.8292     -0.203     -0.294     3.7334 0.0000e+00
     -0.206      0.004    12.9073     97.904     35.404  20.339785     5.5800     5.4312     0.2130     1.0152 2.7313e+02     5.7841     -0.202     -0.293     3.7329 0.0000e+00
     -0.205      0.005    12.9132     97.910     35.404  20.335800     5.5800     4.6797     0.2130     1.0152 2.7182e+02     5.8592     -0.201     -0.291     3.7321 0.0000e+00
     -0.203      0.006    12.9185     97.911     35.403  20.329670     5.5800     4.7102     0.2130     1.0152 2.6883e+02     5.7239     -0.199     -0.289     3.7306 0.0000e+00
     -0.202      0.007    12.9226     97.909     35.409  20.323718     5.5800     4.6873     0.2130     1.0152 2.6883e+02     5.9193     -0.198     -0.287     3.7281 0.0000e+00
     -0.200      0.008    12.9255     97.907     35.449  20.332192     5.5800     4.7025     0.2130     0.9306 2.6953e+02     5.7690     -0.196     -0.284     3.7243 0.0000e+00
     -0.197      0.010    12.9280     97.901     35.524  20.357349     5.5800     4.4088     0.2130     0.9306 2.7118e+02     5.5436     -0.194     -0.281     3.7190 0.0000e+00
     -0.195      0.011    12.9309     97.893     35.587  20.380168     5.5800     4.4355     0.2130     0.9306 2.7325e+02     5.6037     -0.191     -0.277     3.7110 0.0000e+00
     -0.192      0.012    12.9352     97.885     35.593  20.381005     5.5800     4.4279     0.2130     0.9306 2.7629e+02     5.5736     -0.188     -0.273     3.6979 0.0000e+00
     -0.189      0.013    12.9418     97.871     35.546  20.362063     5.5800     4.4050     0.2130     0.9306 2.7171e+02     5.5586     -0.185     -0.268     3.6775 0.0000e+00
     -0.185      0.015    12.9495     97.847     35.477  20.336102     5.5800     5.0154     0.2130     0.9306 2.6889e+02     5.7690     -0.182     -0.263     3.6529 0.0000e+00
     -0.181      0.016    12.9549     97.819     35.417  20.312034     5.5800     5.0001     0.2130     0.9306 2.6443e+02     5.8292     -0.178     -0.258     3.6341 0.0000e+00
     -0.177      0.018    12.9552     97.794     35.376  20.291358     5.5800     5.0001     0.2130     0.9306 2.6575e+02     5.8292     -0.174     -0.252     3.6302 0.0000e+00
     -0.173      0.020    12.9493     97.775     35.344  20.268561     5.4900     5.0115     0.1704     0.8460 3.0995e+02     5.8292     -0.169     -0.245     3.6419 0.0000e+00
     -0.167      0.023    12.9397     97.761     35.325  20.245480     5.4900     4.4164     0.1704     0.8460 3.1559e+02     5.7991     -0.164     -0.238     3.6605 0.0000e+00
     -0.161      0.025    12.9311     97.744     35.324  20.223877     5.4900     4.4279     0.1704     0.8460 2.8034e+02     5.8141     -0.158     -0.229     3.6748 0.0000e+00
     -0.155      0.028    12.9264     97.716     35.332  20.197989     5.4900     4.4050     0.1704     0.8460 2.7852e+02     5.8442     -0.152     -0.220     3.6790 0.0000e+00
     -0.147      0.030    12.9261     97.669     35.353  20.172787     5.5800     4.4279     0.1278     0.9729 2.7426e+02     5.7540     -0.144     -0.209     3.6726 0.0000e+00
     -0.139      0.032    12.9302     97.608     35.405  20.161340     5.5800     3.0813     0.1278     0.9729 2.3059e+02     5.9494     -0.137     -0.198     3.6555 0.0000e+00
     -0.130      0.032    12.9382     97.561     35.465  20.156637     5.5800     3.0889     0.1278     0.9729 2.2403e+02     5.9344     -0.128     -0.186     3.6257 0.0000e+00
     -0.121      0.032    12.9492     97.540     35.511  20.149506     5.5800     3.0431     0.1278     0.9729 2.1689e+02     5.7991     -0.119     -0.173     3.5828 0.0000e+00
     -0.112      0.030    12.9612     97.541     35.554  20.145959     5.5800     3.0469     0.1278     0.9729 1.7891e+02     5.9494     -0.110     -0.160     3.5298 0.0000e+00
     -0.104      0.026    12.9730     97.559     35.571  20.133177     5.5800     3.6878     0.2130     1.0998 1.8110e+02     5.8141     -0.102     -0.148     3.4723 0.0000e+00
     -0.098      0.022    12.9856     97.584     35.552  20.103792     5.5800     3.6840     0.2130     1.0998 1.8256e+02     5.8592     -0.096     -0.139     3.4173 0.0000e+00
     -0.093      0.018    12.9992     97.606     35.542  20.083612     5.5800     3.6726     0.2130     1.0998 1.7682e+02     5.8292     -0.091     -0.133     3.3699 0.0000e+00
     -0.090      0.014    13.0128     97.632     35.572  20.089026     5.5800     3.6916     0.2130     1.0998 1.7941e+02     5.8292     -0.088     -0.128     3.3310 0.0000e+00
     -0.088      0.011    13.0262     97.676     35.616  20.107624     5.5800     3.4894     0.2130     0.9306 1.9401e+02     5.7540     -0.086     -0.125     3.2993 0.0000e+00
     -0.086      0.009    13.0385     97.744     35.638  20.118637     5.5800     3.5009     0.2130     0.9306 2.0453e+02     5.6638     -0.084     -0.122     3.2735 0.0000e+00
     -0.084      0.007    13.0487     97.834     35.623  20.113126     5.5800     3.4780     0.2130     0.9306 1.8791e+02     5.7390     -0.082     -0.120     3.2524 0.0000e+00
     -0.082      0.007    13.0576     97.936     35.583  20.097538     5.5800     3.4742     0.2130     0.9306 1.8661e+02     5.7690     -0.081     -0.117     3.2367 0.0000e+00
     -0.081      0.007    13.0667     98.046     35.543  20.083551     5.5800     4.3325     0.2130     0.9729 1.8315e+02     5.7841     -0.079     -0.115     3.2275 0.0000e+00
     -0.079      0.007    13.0766     98.163     35.520  20.079308     5.5800     4.3668     0.2130     0.9729 1.7651e+02     5.7690     -0.077     -0.112     3.2252 0.0000e+00
     -0.077      0.007    13.0871     98.268     35.512  20.083680     5.5800     4.3440     0.2130     0.9729 1.7933e+02     5.7991     -0.076     -0.110     3.2296 0.0000e+00
     -0.076      0.007    13.0973     98.335     35.499  20.085957     5.5800     4.3745     0.2130     0.9729 1.8451e+02     5.8141     -0.074     -0.108     3.2397 0.0000e+00
     -0.074      0.007    13.1077     98.363     35.472  20.078830     5.5800     4.2829     0.2130     0.9729 1.8649e+02     5.8292     -0.073     -0.106     3.2519 0.0000e+00
     -0.073      0.007    13.1191     98.365     35.437  20.064358     5.5800     4.2982     0.2130     1.0152 1.7961e+02     5.7690     -0.071     -0.103     3.2639 0.0000e+00
     -0.071      0.008    13.1287     98.359     35.410  20.050557     5.5800     4.3134     0.2130     1.0152 1.7674e+02     5.7991     -0.069     -0.101     3.2766 0.0000e+00
     -0.069      0.010    13.1330     98.354     35.405  20.047599     5.5800     4.2944     0.2130     1.0152 1.7863e+02     5.8592     -0.067     -0.098     3.2901 0.0000e+00
     -0.066      0.012    13.1326     98.341     35.422  20.056675     5.5800     4.5271     0.2130     1.0152 1.8102e+02     5.8292     -0.065     -0.095     3.3017 0.0000e+00
     -0.064      0.014    13.1304     98.312     35.440  20.066351     5.5800     4.5385     0.2130     1.0575 1.8415e+02     5.8141     -0.062     -0.091     3.3087 0.0000e+00
     -0.060      0.018    13.1288     98.262     35.440  20.065353     5.5800     4.5194     0.2130     1.0575 1.8528e+02     5.9043     -0.059     -0.086     3.3111 0.0000e+00
     -0.056      0.022    13.1282     98.179     35.424  20.053416     5.5800     4.5309     0.2130     1.0575 1.8423e+02     5.8592     -0.055     -0.079     3.3109 0.0000e+00
     -0.050      0.027    13.1267     98.042     35.410  20.041210     5.5800     4.6301     0.2130     1.0575 1.7468e+02     5.7239     -0.049     -0.070     3.3102 0.0000e+00
     -0.042      0.033    13.1230     97.838     35.417  20.039334     5.5800     4.6415     0.2130     1.0152 1.7445e+02     5.8292     -0.041     -0.060     3.3095 0.0000e+00
     -0.033      0.038    13.1170     97.534     35.442  20.045309     5.5800     4.6301     0.2130     1.0152 1.6725e+02     5.8442     -0.033     -0.047     3.3079 0.0000e+00
     -0.023      0.044    13.1070     97.066     35.461  20.046873     5.5800     4.6491     0.2130     1.0152 1.6922e+02     5.7540     -0.023     -0.032     3.3045 0.0000e+00
     -0.011      0.048    13.0908     96.358     35.450  20.032568     5.5800     5.1374     0.2130     1.0152 1.5286e+02     5.8141     -0.011     -0.015     3.2985 0.0000e+00
      0.003      0.052    13.0666     95.347     35.414  20.004518     5.5800     5.1145     0.2130     0.9729 1.4886e+02     5.9043      0.003      0.004     3.2896 0.0000e+00
      0.018      0.054    13.0299     94.020     35.381  19.978990     5.5800     5.1412     0.2130     0.9729 1.2934e+02     5.9494      0.017      0.025     3.2782 0.0000e+00
      0.032      0.055    12.9718     92.424     35.370  19.966990     5.5800     5.1374     0.2130     0.9729 1.3010e+02     5.8292      0.032      0.046     3.2657 0.0000e+00
      0.047      0.055    12.8813     90.630     35.363  19.959380     5.5800     5.4579     0.2130     0.9729 1.3258e+02     5.8292      0.046      0.067     3.2537 0.0000e+00
      0.061      0.053    12.7497     88.689     35.332  19.940276     5.5800     5.4540     0.2130     0.9729 1.2700e+02     5.8592      0.059      0.086     3.2430 0.0000e+00
      0.074      0.051    12.5754     86.666     35.286  19.914481     5.5800     5.4312     0.2130     1.3113 1.2533e+02     5.7540      0.073      0.105     3.2333 0.0000e+00
      0.087      0.048    12.3647     84.656     35.257  19.900843     5.5800     5.4464     0.2130     1.3113 1.2104e+02     5.8442      0.085      0.124     3.2252 0.0000e+00
      0.099      0.045    12.1265     82.741     35.254  19.903642     5.5800     5.4006     0.2130     1.3113 1.2052e+02     5.8592      0.097      0.141     3.2197 0.0000e+00
      0.110      0.043    11.8677     80.967     35.252  19.907792     5.5800     5.3739     0.2130     1.3113 1.1922e+02     5.7991      0.108      0.157     3.2172 0.0000e+00
      0.120      0.040    11.5969     79.349     35.236  19.902526     5.5800     5.3930     0.2130     1.0575 1.1854e+02     5.8292      0.118      0.171     3.2180 0.0000e+00
      0.130      0.038    11.3269     77.893     35.220  19.894355     5.5800     5.3739     0.2130     1.0575 1.1688e+02     5.7841      0.127      0.185     3.2217 0.0000e+00
      0.139      0.037    11.0689     76.615     35.223  19.892976     5.5800     5.6295     0.2130     1.0575 1.1472e+02     5.7540      0.137      0.198     3.2278 0.0000e+00
      0.148      0.036    10.8294     75.536     35.241  19.898021     5.5800     5.6829     0.2130     1.0575 1.1449e+02     5.7841      0.145      0.211     3.2352 0.0000e+00
      0.157      0.035    10.6114     74.656     35.253  19.898960     5.5800     5.6791     0.2130     1.0998 1.1080e+02     5.7540      0.154      0.224     3.2409 0.0000e+00
      0.166      0.033    10.4162     73.948     35.244  19.888126     5.5800     5.6715     0.2130     1.0998 1.0823e+02     5.8442      0.163      0.237     3.2419 0.0000e+00
      0.175      0.032    10.2464     73.384     35.223  19.870547     5.5800     5.7020     0.2130     1.0998 1.0501e+02     5.7089      0.172      0.249     3.2377 0.0000e+00
      0.183      0.030    10.1041     72.944     35.209  19.857369     5.5800     6.0034     0.2130     1.0998 1.0331e+02     5.7690      0.180      0.261     3.2303 0.0000e+00
      0.191      0.028     9.9885     72.614     35.209  19.852992     5.5800     6.0110     0.2130     0.9306 1.0273e+02     5.8292      0.187      0.271     3.2221 0.0000e+00
      0.197      0.027     9.8959     72.376     35.215  19.852292     5.5800     5.9805     0.2130     0.9306 1.0215e+02     5.8592      0.193      0.280     3.2143 0.0000e+00
      0.203      0.026     9.8226     72.202     35.218  19.851123     5.5800     6.0263     0.2130     0.9306 1.0124e+02     5.7841      0.199      0.289     3.2064 0.0000e+00
      0.209      0.026     9.7657     72.070     35.212  19.845215     5.5800     6.3658     0.2130     0.9306 1.0030e+02     5.8893      0.205      0.298     3.1989 0.0000e+00
      0.216      0.028     9.7232     71.959     35.204  19.836952     5.5800     6.3505     0.2130     0.9306 9.9110e+01     5.8292      0.211      0.307     3.1922 0.0000e+00
      0.223      0.030     9.6927     71.851     35.210  19.836003     5.5800     6.3353     0.1704     0.9306 9.8745e+01     5.7540      0.218      0.316     3.1867 0.0000e+00
      0.230      0.033     9.6705     71.746     35.223  19.838159     5.5800     6.3658     0.1704     0.9306 9.7212e+01     5.8141      0.226      0.327     3.1824 0.0000e+00
      0.239      0.036     9.6538     71.646     35.220  19.832118     5.5800     5.9957     0.1704     0.9306 9.6224e+01     5.7690      0.234      0.340     3.1785 0.0000e+00
      0.249      0.039     9.6403     71.547     35.191  19.812313     5.5800     5.9881     0.1704     0.9306 9.1434e+01     5.8442      0.244      0.354     3.1734 0.0000e+00
      0.260      0.041     9.6276     71.452     35.149  19.785334     5.5800     6.0034     0.2130     1.0998 8.7033e+01     5.7991      0.255      0.370     3.1667 0.0000e+00
      0.271      0.042     9.6153     71.363     35.116  19.763780     5.5800     5.9919     0.2130     1.0998 8.3441e+01     5.7239      0.266      0.386     3.1598 0.0000e+00
      0.283      0.042     9.6034     71.283     35.102  19.753777     5.5800     5.9309     0.2130     1.0998 7.9892e+01     5.7841      0.277      0.402     3.1537 0.0000e+00
      0.294      0.042     9.5915     71.216     35.103  19.752657     5.5800     5.9118     0.2130     1.0998 7.8977e+01     5.7239      0.288      0.418     3.1485 0.0000e+00
      0.304      0.041     9.5799     71.157     35.097  19.748247     5.5800     5.9194     0.1704     1.0998 7.5127e+01     5.7690      0.298      0.432     3.1440 0.0000e+00
      0.314      0.040     9.5690     71.099     35.076  19.735413     5.5800     5.9271     0.1704     1.0998 7.3209e+01     5.8141      0.308      0.447     3.1399 0.0000e+00
      0.324      0.040     9.5592     71.045     35.062  19.726566     5.5800     5.4731     0.1704     1.0998 7.0416e+01     5.7540      0.318      0.461     3.1366 0.0000e+00
      0.334      0.040     9.5507     71.006     35.072  19.731220     5.5800     5.4998     0.1704     1.0998 6.8440e+01     5.7841      0.327      0.475     3.1344 0.0000e+00
      0.344      0.040     9.5432     70.989     35.079  19.734785     5.4900     5.4808     0.2130     1.0575 6.7187e+01     5.7239      0.337      0.489     3.1330 0.0000e+00
      0.354      0.041     9.5356     70.990     35.057  19.722376     5.4900     5.4922     0.2130     1.0575 6.5103e+01     5.7690      0.347      0.504     3.1318 0.0000e+00
      0.365      0.042     9.5288     71.012     35.022  19.702562     5.4900     6.0644     0.2130     1.0575 6.3153e+01     5.8442      0.357      0.519     3.1303 0.0000e+00
      0.375      0.044     9.5240     71.062     34.993  19.685889     5.4900     6.0453     0.2130     1.0575 6.1795e+01     5.8141      0.368      0.534     3.1289 0.0000e+00
      0.387      0.045     9.5218     71.132     34.969  19.671871     5.4900     6.0491     0.2130     1.0575 6.0126e+01     5.7390      0.379      0.550     3.1282 0.0000e+00
      0.398      0.047     9.5221     71.206     34.949  19.660726     5.5800     6.0530     0.2130     1.0575 5.8604e+01     5.7540      0.391      0.567     3.1280 0.0000e+00
      0.410      0.048     9.5250     71.272     34.937  19.653442     5.5800     6.1865     0.2130     1.0575 5.7220e+01     5.7239      0.402      0.584     3.1278 0.0000e+00
      0.423      0.050     9.5318     71.324     34.921  19.644118     5.5800     6.1712     0.2130     1.0575 5.5614e+01     5.7690      0.415      0.602     3.1275 0.0000e+00
      0.436      0.051     9.5414     71.358     34.897  19.630268     5.5800     6.1865     0.2130     1.0575 5.5073e+01     5.8141      0.427      0.620     3.1271 0.0000e+00
      0.449      0.053     9.5514     71.374     34.879  19.620072     5.5800     6.1560     0.2130     1.0575 5.4656e+01     5.8893      0.440      0.638     3.1267 0.0000e+00
      0.462      0.056     9.5604     71.371     34.875  19.618728     5.5800     6.8655     0.2130     1.0575 5.4088e+01     5.7089      0.453      0.657     3.1263 0.0000e+00
      0.477      0.059     9.5675     71.348     34.872  19.617961     5.5800     6.8579     0.2130     1.0575 5.2822e+01     5.8292      0.467      0.678     3.1257 0.0000e+00
      0.492      0.062     9.5721     71.318     34.856  19.609650     5.5800     6.8579     0.2130     1.0575 5.1946e+01     5.8292      0.482      0.699     3.1253 0.0000e+00
      0.508      0.066     9.5743     71.284     34.837  19.599495     5.5800     6.8426     0.2130     1.2690 5.0106e+01     5.7841      0.498      0.723     3.1253 0.0000e+00
      0.525      0.069     9.5737     71.245     34.824  19.592704     5.5800     8.3800     0.2130     1.2690 4.8372e+01     5.7991      0.515      0.747     3.1260 0.0000e+00
      0.544      0.072     9.5703     71.204     34.814  19.587467     5.5800     8.3800     0.2130     1.2690 4.7025e+01     5.8292      0.533      0.773     3.1274 0.0000e+00
      0.563      0.074     9.5659     71.172     34.805  19.582388     5.5800     8.4029     0.2130     1.2690 4.5231e+01     5.9193      0.552      0.800     3.1288 0.0000e+00
      0.582      0.076     9.5611     71.149     34.793  19.576110     5.5800     8.3838     0.2130     1.2690 4.4115e+01     5.7390      0.571      0.828     3.1298 0.0000e+00
      0.602      0.078     9.5556     71.140     34.783  19.570920     5.5800     8.1320     0.2130     1.2690 4.2979e+01     6.0546      0.590      0.856     3.1304 0.0000e+00
      0.622      0.080     9.5501     71.149     34.780  19.569390     5.5800     8.1549     0.2130     1.2690 4.1882e+01     6.0095      0.610      0.885     3.1307 0.0000e+00
      0.643      0.083     9.5457     71.181     34.776  19.567156     5.5800     8.1320     0.2130     1.2690 4.0680e+01     6.0396      0.630      0.914     3.1309 0.0000e+00
      0.664      0.085     9.5426     71.225     34.763  19.559662     5.5800     8.1473     0.2130     1.2690 3.9513e+01     6.1147      0.651      0.944     3.1313 0.0000e+00
      0.686      0.087     9.5412     71.272     34.751  19.552827     5.5800     5.3091     0.2130     1.3113 3.8354e+01     5.8141      0.672      0.975     3.1319 0.0000e+00
      0.708      0.089     9.5423     71.319     34.752  19.552743     5.5800     5.3205     0.2130     1.3113 3.7237e+01     5.8141      0.694      1.007     3.1325 0.0000e+00
      0.731      0.091     9.5464     71.371     34.750  19.551474     5.5800     5.3053     0.2130     1.3113 3.6239e+01     5.8141      0.717      1.040     3.1327 0.0000e+00
      0.755      0.092     9.5525     71.435     34.732  19.540763     5.5800     5.3243     0.2130     1.3113 3.4487e+01     5.8141      0.740      1.074     3.1326 0.0000e+00
      0.779      0.092     9.5589     71.516     34.706  19.525672     5.5800     4.7064     0.2130     1.0575 3.3121e+01     5.7841      0.764      1.108     3.1321 0.0000e+00
      0.803      0.091     9.5653     71.618     34.685  19.514049     5.5800     4.7254     0.2130     1.0575 3.2073e+01     5.7239      0.787      1.142     3.1313 0.0000e+00
      0.826      0.090     9.5725     71.745     34.671  19.506754     5.5800     4.7216     0.2130     1.0575 3.1200e+01     5.7841      0.810      1.175     3.1307 0.0000e+00
      0.849      0.088     9.5813     71.901     34.660  19.501840     5.5800     4.6911     0.2130     1.0575 3.0563e+01     5.8141      0.832      1.207     3.1301 0.0000e+00
      0.871      0.087     9.5923     72.077     34.654  19.499978     5.5800     4.5309     0.1704     0.8883 3.0101e+01     5.9043      0.853      1.238     3.1297 0.0000e+00
      0.892      0.086     9.6059     72.261     34.656  19.502649     5.5800     4.5385     0.1704     0.8883 2.9640e+01     5.8292      0.874      1.269     3.1296 0.0000e+00
      0.913      0.085     9.6229     72.432     34.664  19.508586     5.5800     4.5690     0.1704     0.8883 2.8921e+01     5.7239      0.895      1.299     3.1304 0.0000e+00
      0.935      0.086     9.6432     72.580     34.681  19.519374     5.5800     4.5232     0.1704     0.8883 2.8497e+01     5.7991      0.916      1.329     3.1321 0.0000e+00
      0.956      0.086     9.6663     72.709     34.708  19.535909     5.5800     3.9014     0.1704     0.8883 2.7891e+01     5.8742      0.937      1.360     3.1344 0.0000e+00
      0.978      0.087     9.6903     72.827     34.727  19.548748     5.5800     3.9358     0.2130     0.7614 2.7434e+01     5.7841      0.959      1.391     3.1367 0.0000e+00
      1.001      0.088     9.7127     72.941     34.728  19.551419     5.5800     3.9167     0.2130     0.7614 2.6502e+01     5.8592      0.981      1.423     3.1387 0.0000e+00
      1.024      0.088     9.7322     73.051     34.730  19.554530     5.5800     3.9510     0.2130     0.7614 2.5742e+01     5.8893      1.003      1.455     3.1406 0.0000e+00
      1.046      0.088     9.7488     73.148     34.750  19.568805     5.5800     3.5657     0.2130     0.7614 2.5150e+01     5.7991      1.026      1.488     3.1429 0.0000e+00
      1.069      0.088     9.7639     73.227     34.772  19.584199     5.5800     3.5467     0.2130     0.6345 2.4981e+01     5.9193      1.048      1.520     3.1455 0.0000e+00
      1.091      0.088     9.7785     73.283     34.765  19.583045     5.5800     3.5734     0.2130     0.6345 2.4112e+01     5.7540      1.069      1.551     3.1483 0.0000e+00
      1.113      0.088     9.7924     73.306     34.729  19.565038     5.5800     3.5772     0.2130     0.6345 2.3640e+01     5.8742      1.091      1.583     3.1515 0.0000e+00
      1.135      0.087     9.8044     73.279     34.691  19.545165     5.5800     3.3674     0.2130     0.6345 2.2976e+01     5.8442      1.113      1.614     3.1555 0.0000e+00
      1.157      0.087     9.8138     73.196     34.668  19.533960     5.5800     3.3636     0.2130     0.7191 2.2507e+01     5.9344      1.135      1.646     3.1598 0.0000e+00
      1.180      0.087     9.8203     73.071     34.655  19.528433     5.5800     3.3636     0.2130     0.7191 2.2162e+01     5.8442      1.157      1.678     3.1637 0.0000e+00
      1.201      0.088     9.8225     72.922     34.642  19.523155     5.5800     3.3597     0.2130     0.7191 2.1870e+01     5.7841      1.178      1.709     3.1671 0.0000e+00
      1.223      0.088     9.8180     72.772     34.627  19.516717     5.5800     3.7489     0.2130     0.7191 2.1564e+01     5.7841      1.200      1.740     3.1700 0.0000e+00
      1.246      0.089     9.8063     72.636     34.611  19.509382     5.5800     3.7260     0.2130     0.5922 2.1022e+01     5.8292      1.222      1.772     3.1726 0.0000e+00
      1.269      0.089     9.7889     72.519     34.601  19.505130     5.5800     3.7565     0.2130     0.5922 2.0481e+01     5.7841      1.244      1.805     3.1751 0.0000e+00
      1.292      0.090     9.7683     72.432     34.597  19.504807     5.5800     3.7374     0.2130     0.5922 1.9954e+01     5.7239      1.267      1.838     3.1777 0.0000e+00
      1.315      0.090     9.7475     72.391     34.596  19.506349     5.5800     3.4513     0.2130     0.5922 1.9585e+01     5.8893      1.290      1.871     3.1804 0.0000e+00
      1.338      0.090     9.7285     72.398     34.600  19.510165     5.5800     3.4360     0.2130     0.5922 1.9147e+01     5.7540      1.312      1.903     3.1831 0.0000e+00
      1.361      0.090     9.7122     72.450     34.601  19.513315     5.5800     3.4399     0.2130     0.4230 1.8842e+01     5.8592      1.335      1.936     3.1856 0.0000e+00
      1.384      0.090     9.7000     72.547     34.594  19.512682     5.5800     3.4437     0.2130     0.4230 1.8529e+01     5.8292      1.357      1.968     3.1880 0.0000e+00
      1.406      0.090     9.6938     72.689     34.585  19.512055     5.5800     3.3521     0.2130     0.4230 1.8060e+01     5.7991      1.379      2.000     3.1906 0.0000e+00
      1.429      0.091     9.6939     72.877     34.581  19.515224     5.5800     3.3712     0.2130     0.4230 1.7950e+01     5.8292      1.402      2.033     3.1935 0.0000e+00
      1.452      0.093     9.6999     73.108     34.578  19.519078     5.5800     3.3597     0.2130     0.5076 1.7484e+01     5.8893      1.424      2.066     3.1972 0.0000e+00
      1.476      0.094     9.7117     73.373     34.570  19.520684     5.5800     3.3826     0.2130     0.5076 1.7127e+01     5.8141      1.448      2.100     3.2020 0.0000e+00
      1.501      0.095     9.7290     73.662     34.559  19.520473     5.5800     3.1995     0.2130     0.5076 1.6556e+01     5.8292      1.472      2.135     3.2082 0.0000e+00
      1.526      0.096     9.7522     73.962     34.544  19.518388     5.5800     3.2072     0.2130     0.5076 1.6158e+01     5.7540      1.497      2.171     3.2158 0.0000e+00
      1.551      0.095     9.7809     74.253     34.526  19.513873     5.5800     3.2072     0.1704     0.5922 1.5749e+01     5.7540      1.521      2.206     3.2243 0.0000e+00
      1.576      0.094     9.8140     74.510     34.506  19.507704     5.5800     3.1805     0.1704     0.5922 1.5371e+01     5.8292      1.546      2.242     3.2332 0.0000e+00
      1.600      0.092     9.8503     74.711     34.494  19.506152     5.5800     3.2949     0.1704     0.5922 1.5053e+01     5.7540      1.569      2.276     3.2421 0.0000e+00
      1.623      0.090     9.8882     74.845     34.497  19.512761     5.5800     3.3216     0.1704     0.5922 1.4813e+01     5.7841      1.592      2.308     3.2508 0.0000e+00
      1.645      0.089     9.9249     74.913     34.505  19.521377     5.5800     3.3025     0.2556     0.5922 1.4829e+01     5.8141      1.613      2.340     3.2590 0.0000e+00
      1.667      0.089     9.9571     74.923     34.504  19.524402     5.5800     3.2911     0.2556     0.5922 1.4609e+01     5.8141      1.634      2.371     3.2668 0.0000e+00
      1.688      0.090     9.9821     74.890     34.498  19.524623     5.5800     3.3597     0.2556     0.5922 1.4501e+01     5.8592      1.656      2.402     3.2740 0.0000e+00
      1.711      0.092     9.9982     74.825     34.496  19.528035     5.5800     3.3750     0.2556     0.5922 1.4168e+01     5.7239      1.678      2.433     3.2808 0.0000e+00
      1.734      0.095    10.0058     74.734     34.499  19.533570     5.5800     3.3597     0.2556     0.5922 1.3981e+01     5.7841      1.701      2.467     3.2866 0.0000e+00
      1.759      0.098    10.0057     74.622     34.504  19.540724     5.5800     3.4017     0.2130     0.5076 1.3480e+01     5.8592      1.725      2.502     3.2919 0.0000e+00
      1.785      0.100     9.9997     74.495     34.508  19.547447     5.5800     3.3102     0.2130     0.5076 1.3144e+01     5.8592      1.751      2.539     3.2975 0.0000e+00
      1.812      0.101     9.9895     74.360     34.502  19.547615     5.5800     3.3025     0.2130     0.5076 1.2673e+01     5.7540      1.777      2.577     3.3036 0.0000e+00
      1.839      0.100     9.9757     74.222     34.485  19.541275     5.5800     3.3025     0.2130     0.5076 1.2294e+01     5.8292      1.803      2.615     3.3099 0.0000e+00
      1.865      0.098     9.9591     74.085     34.468  19.534651     5.4900     3.3025     0.2130     0.5499 1.2179e+01     5.7991      1.829      2.652     3.3162 0.0000e+00
      1.890      0.097     9.9405     73.954     34.455  19.529936     5.4900     3.4894     0.2130     0.5499 1.1915e+01     5.8141      1.853      2.688     3.3222 0.0000e+00
      1.913      0.095     9.9211     73.830     34.451  19.529829     5.4900     3.4818     0.2130     0.5499 1.1766e+01     5.6939      1.876      2.722     3.3276 0.0000e+00
      1.937      0.094     9.9014     73.718     34.455  19.534304     5.4900     3.4933     0.2130     0.5499 1.1722e+01     5.7841      1.899      2.754     3.3323 0.0000e+00
      1.960      0.095     9.8822     73.612     34.449  19.532677     5.5800     3.5009     0.2130     0.5076 1.1618e+01     5.8141      1.922      2.787     3.3364 0.0000e+00
      1.983      0.097     9.8636     73.504     34.427  19.522538     5.5800     3.2567     0.2130     0.5076 1.1354e+01     5.9043      1.945      2.821     3.3403 0.0000e+00
      2.008      0.098     9.8462     73.396     34.413  19.517013     5.5800     3.2606     0.2130     0.5076 1.1129e+01     5.8292      1.969      2.856     3.3438 0.0000e+00
      2.034      0.100     9.8304     73.291     34.411  19.518589     5.5800     3.2682     0.2130     0.5076 1.0749e+01     5.8592      1.995      2.893     3.3468 0.0000e+00
      2.061      0.101     9.8155     73.190     34.408  19.519769     5.5800     3.2491     0.2130     0.5076 1.0361e+01     5.8742      2.021      2.931     3.3497 0.0000e+00
      2.088      0.100     9.8004     73.096     34.409  19.522846     5.5800     3.9854     0.2130     0.5076 9.9853e+00     5.8893      2.047      2.969     3.3529 0.0000e+00
      2.114      0.098     9.7850     73.015     34.414  19.528643     5.5800     3.9854     0.2130     0.5076 9.8324e+00     5.6939      2.073      3.006     3.3565 0.0000e+00
      2.138      0.096     9.7699     72.956     34.413  19.530788     5.5800     3.9777     0.2130     0.5076 9.6672e+00     5.8592      2.097      3.042     3.3604 0.0000e+00
      2.162      0.093     9.7554     72.929     34.400  19.525895     5.5800     3.9816     0.2130     0.5076 9.5731e+00     5.8292      2.121      3.075     3.3644 0.0000e+00
      2.185      0.091     9.7419     72.936     34.384  19.518598     5.5800     3.8557     0.2130     0.4230 9.4143e+00     5.7540      2.143      3.108     3.3685 0.0000e+00
      2.207      0.090     9.7301     72.980     34.377  19.516844     5.5800     3.8747     0.2130     0.4230 9.3572e+00     5.7540      2.165      3.139     3.3724 0.0000e+00
      2.229      0.091     9.7212     73.059     34.384  19.522146     5.5800     3.8633     0.2130     0.4230 9.1262e+00     5.9043      2.186      3.171     3.3761 0.0000e+00
      2.252      0.092     9.7167     73.166     34.402  19.533939     5.5800     3.8747     0.2130     0.4230 8.9670e+00     5.8742      2.209      3.203     3.3795 0.0000e+00
      2.276      0.094     9.7168     73.294     34.424  19.547450     5.5800     3.3445     0.1704     0.5499 8.8182e+00     5.8592      2.232      3.237     3.3827 0.0000e+00
      2.300      0.097     9.7220     73.433     34.436  19.554409     5.5800     3.3712     0.1704     0.5499 8.6193e+00     5.7690      2.256      3.271     3.3854 0.0000e+00
      2.325      0.100     9.7320     73.567     34.442  19.556671     5.5800     3.3597     0.1704     0.5499 8.4175e+00     5.7239      2.280      3.307     3.3877 0.0000e+00
      2.351      0.102     9.7457     73.688     34.441  19.554841     5.5800     3.3597     0.1704     0.5499 8.1742e+00     5.9193      2.306      3.344     3.3897 0.0000e+00
      2.378      0.103     9.7624     73.794     34.437  19.550407     5.5800     3.7374     0.2130     0.5076 7.9310e+00     5.9494      2.332      3.382     3.3911 0.0000e+00
      2.405      0.104     9.7809     73.875     34.443  19.552084     5.5800     3.7489     0.2130     0.5076 7.7639e+00     6.0546      2.358      3.421     3.3912 0.0000e+00
      2.432      0.105     9.7991     73.928     34.450  19.554382     5.5800     3.7489     0.2130     0.5076 7.5838e+00     6.0396      2.385      3.459     3.3899 0.0000e+00
      2.459      0.105     9.8158     73.957     34.440  19.548017     5.5800     3.7374     0.2130     0.5076 7.5133e+00     6.0396      2.411      3.497     3.3877 0.0000e+00
      2.485      0.105     9.8304     73.970     34.423  19.539209     5.5800     3.6268     0.1704     0.6768 7.2739e+00     5.7089      2.437      3.534     3.3852 0.0000e+00
      2.512      0.106     9.8420     73.983     34.417  19.537483     5.5800     3.6306     0.1704     0.6768 7.1937e+00     5.8742      2.463      3.572     3.3826 0.0000e+00
      2.539      0.107     9.8496     74.018     34.428  19.546336     5.5800     3.6382     0.1704     0.6768 6.9842e+00     5.8742      2.489      3.610     3.3804 0.0000e+00
      2.566      0.109     9.8537     74.092     34.448  19.560215     5.5800     3.6306     0.1704     0.6768 6.8624e+00     5.7540      2.516      3.649     3.3796 0.0000e+00
      2.594      0.111     9.8552     74.222     34.455  19.566986     5.5800     3.2720     0.1704     0.6768 6.7163e+00     5.8592      2.543      3.689     3.3805 0.0000e+00
      2.622      0.112     9.8564     74.420     34.453  19.568457     5.5800     3.2567     0.2556     0.5922 6.4925e+00     5.7540      2.571      3.730     3.3829 0.0000e+00
      2.652      0.112     9.8600     74.685     34.463  19.576893     5.5800     3.2453     0.2556     0.5922 6.2164e+00     5.6939      2.600      3.772     3.3863 0.0000e+00
      2.682      0.111     9.8688     75.009     34.473  19.586628     5.5800     3.2453     0.2556     0.5922 6.0131e+00     5.7239      2.629      3.814     3.3903 0.0000e+00
      2.711      0.109     9.8851     75.384     34.463  19.584426     5.5800     3.7450     0.2556     0.5922 5.9056e+00     6.1448      2.658      3.855     3.3941 0.0000e+00
      2.738      0.107     9.9105     75.791     34.441  19.573658     5.5800     3.7374     0.2130     0.5076 5.7900e+00     6.0847      2.685      3.895     3.3978 0.0000e+00
      2.765      0.104     9.9446     76.196     34.421  19.563326     5.5800     3.7221     0.2130     0.5076 5.7212e+00     6.0997      2.711      3.932     3.4023 0.0000e+00
      2.790      0.101     9.9864     76.566     34.411  19.558591     5.5800     3.7336     0.2130     0.5076 5.4958e+00     5.9945      2.736      3.969     3.4078 0.0000e+00
      2.815      0.099    10.0350     76.860     34.414  19.562150     5.5800     3.7221     0.2130     0.5076 5.4874e+00     5.7841      2.761      4.004     3.4127 0.0000e+00
      2.840      0.098    10.0883     77.050     34.418  19.567035     5.5800     3.7336     0.2130     0.5499 5.3999e+00     5.7991      2.785      4.039     3.4154 0.0000e+00
      2.864      0.098    10.1420     77.133     34.410  19.566632     5.5800     3.7412     0.2130     0.5499 5.3288e+00     5.7089      2.809      4.073     3.4168 0.0000e+00
      2.888      0.099    10.1908     77.131     34.397  19.564792     5.5800     3.7336     0.2130     0.5499 5.2278e+00     5.8893      2.832      4.108     3.4183 0.0000e+00
      2.913      0.100    10.2293     77.077     34.384  19.564982     5.5800     3.2567     0.2130     0.5499 5.1299e+00     5.9193      2.857      4.143     3.4207 0.0000e+00
      2.939      0.101    10.2535     77.014     34.365  19.563296     5.5800     3.2300     0.2130     0.5076 4.9022e+00     5.8893      2.882      4.180     3.4246 0.0000e+00
      2.966      0.102    10.2629     76.981     34.334  19.555326     5.5800     3.2567     0.2130     0.5076 4.7336e+00     5.8442      2.909      4.218     3.4304 0.0000e+00
      2.993      0.101    10.2603     77.001     34.303  19.546864     5.5800     3.2644     0.2130     0.5076 4.6278e+00     5.8742      2.935      4.257     3.4390 0.0000e+00
      3.019      0.100    10.2501     77.082     34.289  19.547526     5.5800     3.9816     0.2130     0.5076 4.4960e+00     5.7690      2.961      4.294     3.4502 0.0000e+00
      3.045      0.099    10.2382     77.212     34.293  19.557490     5.5800     3.9663     0.2130     0.5076 4.3803e+00     5.8592      2.986      4.331     3.4632 0.0000e+00
      3.069      0.097    10.2301     77.357     34.299  19.567540     5.5800     3.9777     0.2130     0.5499 4.3348e+00     5.7841      3.010      4.366     3.4772 0.0000e+00
      3.094      0.096    10.2289     77.482     34.298  19.572437     5.5800     3.9663     0.2130     0.5499 4.2114e+00     5.8893      3.034      4.400     3.4908 0.0000e+00
      3.117      0.095    10.2364     77.555     34.292  19.573490     5.5800     3.7946     0.2130     0.5499 4.1794e+00     5.7841      3.057      4.434     3.5032 0.0000e+00
      3.141      0.096    10.2506     77.552     34.282  19.570978     5.5800     3.7717     0.2130     0.5499 4.1217e+00     5.7690      3.080      4.468     3.5142 0.0000e+00
      3.165      0.097    10.2672     77.465     34.274  19.568190     5.5800     3.7794     0.2130     0.5922 4.0419e+00     5.8141      3.104      4.502     3.5240 0.0000e+00
      3.190      0.099    10.2816     77.303     34.272  19.568341     5.5800     3.7946     0.2130     0.5922 3.9748e+00     5.7690      3.128      4.537     3.5323 0.0000e+00
      3.216      0.101    10.2895     77.083     34.278  19.571472     5.5800     3.4399     0.2130     0.5922 3.8515e+00     5.9193      3.154      4.574     3.5385 0.0000e+00
      3.242      0.103    10.2879     76.821     34.299  19.582374     5.5800     3.4246     0.2130     0.5922 3.7353e+00     5.8742      3.180      4.612     3.5429 0.0000e+00
      3.269      0.103    10.2755     76.535     34.330  19.599997     5.5800     3.4322     0.2556     0.4653 3.5928e+00     5.7690      3.206      4.650     3.5459 0.0000e+00
      3.296      0.103    10.2536     76.243     34.352  19.613207     5.5800     3.4322     0.2556     0.4653 3.5080e+00     5.7540      3.233      4.688     3.5473 0.0000e+00
      3.323      0.102    10.2245     75.957     34.355  19.617611     5.5800     3.7870     0.2556     0.4653 3.4095e+00     5.7239      3.259      4.726     3.5470 0.0000e+00
      3.349      0.101    10.1901     75.687     34.344  19.614385     5.5800     3.7984     0.2556     0.4653 3.3559e+00     5.8893      3.284      4.763     3.5459 0.0000e+00
      3.374      0.099    10.1523     75.430     34.324  19.606625     5.5800     3.8061     0.2556     0.4653 3.2980e+00     5.7540      3.309      4.799     3.5454 0.0000e+00
      3.399      0.098    10.1131     75.175     34.307  19.600178     5.5800     3.7946     0.2130     0.5922 3.2055e+00     5.7841      3.334      4.835     3.5468 0.0000e+00
      3.423      0.097    10.0743     74.924     34.304  19.601242     5.5800     3.8213     0.2130     0.5922 3.1646e+00     5.7991      3.358      4.870     3.5503 0.0000e+00
      3.447      0.098    10.0373     74.689     34.308  19.606143     5.5800     3.8099     0.2130     0.5922 3.1359e+00     5.8893      3.381      4.904     3.5552 0.0000e+00
      3.472      0.100    10.0018     74.477     34.309  19.608272     5.5800     3.7984     0.2130     0.5922 3.0665e+00     5.7540      3.405      4.938     3.5603 0.0000e+00
      3.497      0.102     9.9667     74.295     34.320  19.616111     5.5800     3.8023     0.2130     0.4653 3.0379e+00     5.8141      3.430      4.974     3.5651 0.0000e+00
      3.523      0.106     9.9323     74.149     34.346  19.631752     5.5800     3.4360     0.2130     0.4653 2.9540e+00     5.7841      3.455      5.011     3.5692 0.0000e+00
      3.551      0.109     9.9003     74.039     34.358  19.639576     5.5800     3.4132     0.2130     0.4653 2.8848e+00     5.8592      3.483      5.051     3.5725 0.0000e+00
      3.580      0.111     9.8715     73.973     34.340  19.629793     5.5800     3.3979     0.2130     0.4653 2.7514e+00     5.7991      3.511      5.092     3.5751 0.0000e+00
      3.609      0.112     9.8468     73.961     34.307  19.611669     5.5800     3.4055     0.2130     0.5922 2.6829e+00     5.8442      3.540      5.134     3.5771 0.0000e+00
      3.639      0.113     9.8272     73.995     34.295  19.604120     5.5800     3.5924     0.2130     0.5922 2.5895e+00     5.7540      3.569      5.175     3.5785 0.0000e+00
      3.668      0.112     9.8123     74.072     34.306  19.609091     5.5800     3.6420     0.2130     0.5922 2.5196e+00     5.8442      3.597      5.217     3.5796 0.0000e+00
      3.696      0.111     9.8033     74.197     34.314  19.612076     5.5800     3.6192     0.2130     0.5922 2.4837e+00     5.7239      3.625      5.257     3.5808 0.0000e+00
      3.725      0.110     9.8015     74.352     34.312  19.609913     5.5800     3.6039     0.2130     0.5922 2.4082e+00     5.8592      3.653      5.297     3.5815 0.0000e+00
      3.752      0.110     9.8062     74.505     34.312  19.609939     5.5800     3.5543     0.2130     0.5922 2.3503e+00     5.8893      3.680      5.337     3.5809 0.0000e+00
      3.780      0.110     9.8169     74.645     34.321  19.616121     5.5800     3.5772     0.2130     0.5922 2.3269e+00     5.7390      3.707      5.376     3.5789 0.0000e+00
      3.807      0.112     9.8341     74.764     34.328  19.622191     5.5800     3.5657     0.2130     0.5922 2.2754e+00     5.9494      3.734      5.415     3.5766 0.0000e+00
      3.836      0.113     9.8549     74.860     34.324  19.621851     5.5800     3.5505     0.2130     0.5922 2.2063e+00     5.8292      3.761      5.456     3.5752 0.0000e+00
      3.865      0.115     9.8752     74.945     34.314  19.618968     5.4900     3.3712     0.1704     0.4653 2.1444e+00     6.0396      3.790      5.497     3.5752 0.0000e+00
      3.895      0.116     9.8934     75.031     34.306  19.616733     5.4900     3.3903     0.1704     0.4653 2.0901e+00     5.9945      3.819      5.540     3.5765 0.0000e+00
      3.925      0.117     9.9085     75.135     34.298  19.614550     5.4900     3.3979     0.1704     0.4653 1.9999e+00     5.9644      3.849      5.583     3.5792 0.0000e+00
      3.956      0.116     9.9202     75.281     34.289  19.611835     5.4900     3.3597     0.1704     0.4653 1.9450e+00     6.0245      3.879      5.627     3.5827 0.0000e+00
      3.985      0.115     9.9306     75.464     34.286  19.611824     5.5800     3.7221     0.2130     0.4653 1.9161e+00     6.0546      3.908      5.669     3.5864 0.0000e+00
      4.015      0.114     9.9410     75.653     34.287  19.614514     5.5800     3.7260     0.2130     0.4653 1.8502e+00     6.0546      3.937      5.711     3.5902 0.0000e+00
      4.043      0.112     9.9538     75.829     34.281  19.612706     5.5800     3.7374     0.2130     0.4653 1.8306e+00     5.9795      3.965      5.751     3.5937 0.0000e+00
      4.071      0.112     9.9723     75.983     34.273  19.609875     5.5800     3.7298     0.2130     0.4653 1.7773e+00     6.0396      3.993      5.791     3.5968 0.0000e+00
      4.099      0.112     9.9958     76.099     34.277  19.613183     5.5800     3.4246     0.2130     0.5922 1.7361e+00     5.9344      4.020      5.831     3.5996 0.0000e+00
      4.127      0.112    10.0201     76.174     34.286  19.619553     5.5800     3.4093     0.2130     0.5922 1.6995e+00     6.0396      4.047      5.871     3.6024 0.0000e+00
      4.155      0.113    10.0428     76.212     34.290  19.622770     5.5800     3.4513     0.2130     0.5922 1.6590e+00     6.0396      4.075      5.911     3.6050 0.0000e+00
      4.185      0.115    10.0625     76.216     34.283  19.619731     5.5800     3.4589     0.2130     0.5922 1.6361e+00     5.9945      4.104      5.953     3.6073 0.0000e+00
      4.215      0.115    10.0773     76.199     34.270  19.613586     5.5800     3.2377     0.2130     0.5922 1.5737e+00     5.7690      4.133      5.995     3.6093 0.0000e+00
      4.245      0.116    10.0869     76.166     34.263  19.610610     5.5800     3.2682     0.2130     0.5922 1.5110e+00     5.8292      4.163      6.038     3.6110 0.0000e+00
      4.275      0.116    10.0914     76.112     34.268  19.613970     5.5800     3.2377     0.2130     0.5922 1.5005e+00     5.7991      4.192      6.080     3.6124 0.0000e+00
      4.304      0.115    10.0917     76.041     34.278  19.620602     5.5800     3.2567     0.2130     0.5922 1.4597e+00     5.8742      4.221      6.122     3.6138 0.0000e+00
      4.333      0.114    10.0891     75.959     34.283  19.624359     5.5800     3.5047     0.2130     0.5922 1.4427e+00     5.9043      4.249      6.163     3.6152 0.0000e+00
      4.362      0.114    10.0843     75.873     34.278  19.622285     5.5800     3.4933     0.2130     0.4653 1.3393e+00     5.7540      4.278      6.204     3.6165 0.0000e+00
      4.391      0.113    10.0769     75.793     34.262  19.613827     5.5800     3.4742     0.2130     0.4653 1.3332e+00     5.7540      4.306      6.246     3.6177 0.0000e+00
      4.420      0.113    10.0671     75.725     34.238  19.600688     5.5800     3.4894     0.2130     0.4653 1.2998e+00     5.7841      4.334      6.287     3.6188 0.0000e+00
      4.448      0.113    10.0560     75.670     34.227  19.595196     5.5800     3.2720     0.2130     0.4653 1.2565e+00     5.7540      4.362      6.327     3.6199 0.0000e+00
      4.477      0.113    10.0444     75.636     34.241  19.603802     5.4900     3.2529     0.2130     0.5076 1.2480e+00     5.8742      4.390      6.367     3.6211 0.0000e+00
      4.505      0.114    10.0335     75.623     34.263  19.616929     5.4900     3.2453     0.2130     0.5076 1.2193e+00     5.8893      4.418      6.408     3.6223 0.0000e+00
      4.534      0.115    10.0241     75.626     34.279  19.626201     5.4900     3.2835     0.2130     0.5076 1.1846e+00     5.8442      4.447      6.450     3.6235 0.0000e+00
      4.565      0.116    10.0166     75.638     34.285  19.630132     5.4900     3.6878     0.2130     0.5076 1.1531e+00     5.7540      4.476      6.493     3.6246 0.0000e+00
      4.595      0.116    10.0118     75.646     34.297  19.637689     5.5800     3.6916     0.2130     0.4653 1.0682e+00     5.7239      4.506      6.536     3.6255 0.0000e+00
      4.625      0.115    10.0099     75.643     34.320  19.650884     5.5800     3.6916     0.2130     0.4653 1.0698e+00     5.8292      4.536      6.579     3.6262 0.0000e+00
      4.655      0.113    10.0102     75.624     34.337  19.661364     5.5800     3.6840     0.2130     0.4653 1.0248e+00     5.7841      4.565      6.621     3.6267 0.0000e+00
      4.683      0.111    10.0116     75.586     34.347  19.667965     5.5800     3.5162     0.2130     0.4653 1.0281e+00     5.8442      4.593      6.661     3.6272 0.0000e+00
      4.711      0.109    10.0126     75.524     34.347  19.668488     5.5800     3.4933     0.2130     0.4653 9.6260e-01     5.8893      4.620      6.701     3.6277 0.0000e+00
      4.738      0.108    10.0119     75.444     34.337  19.663073     5.5800     3.4971     0.2130     0.4653 9.5137e-01     5.8592      4.647      6.740     3.6284 0.0000e+00
      4.765      0.107    10.0092     75.360     34.327  19.658192     5.5800     3.5047     0.2130     0.4653 9.2709e-01     5.8592      4.673      6.778     3.6292 0.0000e+00
      4.792      0.108    10.0039     75.288     34.323  19.656503     5.5800     3.1995     0.2130     0.4653 9.3416e-01     5.8141      4.699      6.816     3.6300 0.0000e+00
      4.819      0.109     9.9955     75.235     34.324  19.657554     5.5800     3.2262     0.2130     0.4653 9.1607e-01     5.9344      4.726      6.854     3.6309 0.0000e+00
      4.847      0.111     9.9846     75.198     34.330  19.661625     5.5800     3.1614     0.2130     0.5499 8.1624e-01     5.7841      4.753      6.894     3.6319 0.0000e+00
      4.876      0.113     9.9733     75.171     34.336  19.665845     5.5800     3.1995     0.2130     0.5499 8.3963e-01     5.9043      4.781      6.935     3.6328 0.0000e+00
      4.905      0.114     9.9636     75.147     34.331  19.663423     5.5800     3.4894     0.2130     0.5499 7.8238e-01     5.7540      4.810      6.977     3.6336 0.0000e+00
      4.935      0.115     9.9563     75.126     34.313  19.653712     5.5800     3.4971     0.2130     0.5499 7.8221e-01     5.7540      4.839      7.019     3.6345 0.0000e+00
      4.965      0.115     9.9512     75.097     34.307  19.649956     5.5800     3.4704     0.2130     0.4653 7.3412e-01     5.8893      4.869      7.061     3.6354 0.0000e+00
      4.994      0.114     9.9473     75.048     34.324  19.659068     5.5800     3.5047     0.2130     0.4653 7.3699e-01     5.9193      4.898      7.104     3.6364 0.0000e+00
      5.024      0.113     9.9440     74.975     34.339  19.667648     5.5800     3.4399     0.2130     0.4653 6.7388e-01     5.7540      4.926      7.145     3.6371 0.0000e+00
      5.052      0.112     9.9411     74.879     34.343  19.670065     5.5800     3.4437     0.2130     0.4653 6.5241e-01     5.7991      4.955      7.186     3.6374 0.0000e+00
      5.080      0.111     9.9374     74.769     34.344  19.670924     5.5800     3.4360     0.2130     0.5499 6.6068e-01     5.8141      4.982      7.226     3.6373 0.0000e+00
      5.108      0.111     9.9310     74.652     34.335  19.666494     5.5800     3.4284     0.2130     0.5499 6.2101e-01     5.7540      5.009      7.265     3.6369 0.0000e+00
      5.135      0.111     9.9213     74.523     34.321  19.659553     5.5800     3.2606     0.2130     0.5499 6.4019e-01     6.0546      5.036      7.304     3.6366 0.0000e+00
      5.164      0.111     9.9086     74.391     34.314  19.656165     5.5800     3.2758     0.2130     0.5499 6.1336e-01     6.1147      5.064      7.344     3.6368 0.0000e+00
      5.192      0.112     9.8940     74.280     34.312  19.655428     5.5800     3.2567     0.2130     0.5076 5.9163e-01     6.0847      5.092      7.385     3.6374 0.0000e+00
      5.221      0.113     9.8782     74.194     34.321  19.661102     5.5800     3.2796     0.2130     0.5076 5.8018e-01     6.0245      5.121      7.427     3.6384 0.0000e+00
      5.251      0.113     9.8608     74.134     34.337  19.670744     5.5800     3.3826     0.2130     0.5076 5.4700e-01     6.0396      5.149      7.468     3.6396 0.0000e+00
      5.279      0.113     9.8431     74.110     34.344  19.675049     5.5800     3.3712     0.2130     0.5076 5.4321e-01     6.0245      5.177      7.509     3.6406 0.0000e+00
      5.308      0.114     9.8282     74.116     34.338  19.671208     5.5800     3.3597     0.2130     0.5076 5.0452e-01     6.0546      5.205      7.550     3.6415 0.0000e+00
      5.337      0.114     9.8166     74.134     34.323  19.662154     5.5800     3.3712     0.2130     0.5499 4.9335e-01     6.0396      5.234      7.591     3.6423 0.0000e+00
      5.366      0.114     9.8085     74.146     34.315  19.657348     5.5800     3.2758     0.2130     0.5499 5.0190e-01     5.7540      5.262      7.632     3.6429 0.0000e+00
      5.395      0.115     9.8053     74.135     34.319  19.659466     5.5800     3.2567     0.2130     0.5499 4.8149e-01     5.8592      5.291      7.674     3.6431 0.0000e+00
      5.424      0.116     9.8061     74.089     34.321  19.661156     5.5800     3.2300     0.2130     0.5499 4.5475e-01     5.7841      5.320      7.715     3.6428 0.0000e+00
      5.454      0.117     9.8086     74.012     34.324  19.662869     5.5800     3.2453     0.2130     0.5076 4.4876e-01     5.7390      5.348      7.757     3.6422 0.0000e+00
      5.483      0.118     9.8104     73.909     34.334  19.669020     5.5800     3.0508     0.2130     0.5076 4.8107e-01     5.6638      5.377      7.799     3.6416 0.0000e+00
      5.514      0.119     9.8089     73.778     34.347  19.677292     5.5800     3.0584     0.2130     0.5076 4.2484e-01     5.7991      5.407      7.843     3.6415 0.0000e+00
      5.545      0.119     9.8027     73.624     34.361  19.685931     5.5800     3.0660     0.2130     0.5076 4.1870e-01     5.8592      5.438      7.887     3.6420 0.0000e+00
      5.576      0.120     9.7924     73.463     34.373  19.693284     5.5800     3.0584     0.2130     0.5076 3.9959e-01     5.7390      5.468      7.930     3.6426 0.0000e+00
      5.606      0.120     9.7787     73.307     34.372  19.693395     5.5800     3.2644     0.2130     0.5076 3.9717e-01     6.0847      5.497      7.973     3.6431 0.0000e+00
      5.636      0.120     9.7610     73.165     34.358  19.686293     5.5800     3.2606     0.2130     0.5076 3.7986e-01     6.0847      5.527      8.016     3.6438 0.0000e+00
      5.666      0.121     9.7404     73.038     34.349  19.681960     5.5800     3.2720     0.2130     0.5076 3.7226e-01     5.9795      5.556      8.059     3.6449 0.0000e+00
      5.697      0.122     9.7188     72.926     34.357  19.687157     5.5800     3.2758     0.2130     0.5076 3.6680e-01     6.0396      5.587      8.103     3.6460 0.0000e+00
      5.729      0.123     9.6980     72.832     34.377  19.699309     5.5800     3.1309     0.2130     0.4653 3.7920e-01     5.7841      5.618      8.148     3.6469 0.0000e+00
      5.760      0.125     9.6789     72.763     34.393  19.709785     5.5800     3.1270     0.2130     0.4653 3.4313e-01     5.9193      5.649      8.193     3.6478 0.0000e+00
      5.792      0.126     9.6619     72.729     34.385  19.705544     5.5800     3.1347     0.2130     0.4653 3.3408e-01     5.8592      5.680      8.238     3.6487 0.0000e+00
      5.824      0.127     9.6469     72.731     34.358  19.689414     5.5800     3.1270     0.2130     0.4653 3.2804e-01     5.8442      5.711      8.283     3.6497 0.0000e+00
      5.857      0.127     9.6340     72.763     34.337  19.676884     5.6700     3.0736     0.2130     0.4653 3.0827e-01     6.1748      5.743      8.330     3.6511 0.0000e+00
      5.890      0.127     9.6246     72.811     34.338  19.676488     5.6700     3.0660     0.2130     0.4653 3.1320e-01     6.0245      5.776      8.377     3.6525 0.0000e+00
      5.923      0.126     9.6199     72.872     34.360  19.688119     5.6700     3.0813     0.2130     0.4653 2.6345e-01     6.0847      5.808      8.424     3.6531 0.0000e+00
      5.955      0.124     9.6203     72.943     34.380  19.699048     5.6700     3.0813     0.2130     0.4653 2.4501e-01     6.0847      5.840      8.470     3.6527 0.0000e+00
      5.986      0.123     9.6248     73.021     34.389  19.704271     5.5800     2.9325     0.2130     0.3384 2.5550e-01     5.7841      5.870      8.514     3.6515 0.0000e+00
      6.017      0.121     9.6316     73.105     34.389  19.705182     5.5800     2.9439     0.2130     0.3384 2.6512e-01     5.7841      5.901      8.558     3.6500 0.0000e+00
      6.047      0.120     9.6399     73.195     34.375  19.698065     5.5800     2.9249     0.2130     0.3384 2.4780e-01     5.9043      5.930      8.601     3.6487 0.0000e+00
      6.077      0.120     9.6494     73.299     34.363  19.692897     5.5800     2.9439     0.2130     0.3384 2.5001e-01     5.8442      5.960      8.644     3.6481 0.0000e+00
      6.108      0.120     9.6597     73.426     34.366  19.696217     5.5800     3.0279     0.2556     0.5076 2.4437e-01     6.0396      5.990      8.687     3.6485 0.0000e+00
      6.139      0.120     9.6705     73.584     34.365  19.697034     5.5800     2.9783     0.2556     0.5076 2.3261e-01     6.0396      6.020      8.731     3.6497 0.0000e+00
      6.169      0.120     9.6821     73.774     34.352  19.691609     5.5800     2.9897     0.2556     0.5076 1.9914e-01     6.0546      6.050      8.775     3.6513 0.0000e+00
      6.200      0.119     9.6952     73.994     34.347  19.690371     5.5800     3.0088     0.2556     0.5076 2.0821e-01     6.0847      6.080      8.819     3.6533 0.0000e+00
      6.230      0.119     9.7115     74.238     34.355  19.696946     5.5800     3.0736     0.2556     0.5076 2.5357e-01     6.0245      6.110      8.862     3.6555 0.0000e+00
      6.260      0.119     9.7318     74.504     34.360  19.701214     5.5800     3.0660     0.1704     0.5499 1.7253e-01     6.0546      6.140      8.905     3.6579 0.0000e+00
      6.291      0.118     9.7562     74.786     34.356  19.700355     5.5800     3.0469     0.1704     0.5499 1.8407e-01     6.1748      6.169      8.947     3.6605 0.0000e+00
      6.321      0.118     9.7846     75.070     34.350  19.698097     5.5800     3.0660     0.1704     0.5499 1.7283e-01     5.9945      6.199      8.990     3.6633 0.0000e+00
      6.351      0.119     9.8163     75.345     34.341  19.693839     5.5800     2.9401     0.1704     0.5499 1.7033e-01     6.0396      6.228      9.033     3.6659 0.0000e+00
      6.381      0.119     9.8508     75.602     34.336  19.690404     5.5800     2.9363     0.2130     0.5922 1.6077e-01     6.0245      6.258      9.076     3.6681 0.0000e+00
      6.411      0.120     9.8875     75.828     34.338  19.690834     5.5800     2.9363     0.2130     0.5922 1.7291e-01     6.0245      6.287      9.119     3.6701 0.0000e+00
      6.442      0.120     9.9246     76.008     34.341  19.691285     5.5800     2.9210     0.2130     0.5922 1.7609e-01     6.0245      6.317      9.162     3.6719 0.0000e+00
      6.473      0.119     9.9606     76.129     34.336  19.687918     5.5800     3.2567     0.2130     0.5922 1.6722e-01     6.0847      6.348      9.207     3.6729 0.0000e+00
      6.504      0.119     9.9947     76.181     34.328  19.683795     5.5800     3.2453     0.2130     0.5499 1.2642e-01     6.0396      6.378      9.251     3.6727 0.0000e+00
      6.534      0.118    10.0251     76.163     34.323  19.681773     5.5800     3.2262     0.2130     0.5499 1.3464e-01     6.0847      6.408      9.294     3.6712 0.0000e+00
      6.564      0.118    10.0493     76.078     34.334  19.689230     5.5800     3.2224     0.2130     0.5499 1.4078e-01     6.0847      6.437      9.336     3.6696 0.0000e+00
      6.594      0.117    10.0654     75.930     34.365  19.708155     5.5800     3.1805     0.2130     0.5499 1.2330e-01     5.9945      6.466      9.378     3.6689 0.0000e+00
      6.623      0.117    10.0722     75.740     34.390  19.723803     5.5800     3.2033     0.2130     0.5076 1.2979e-01     6.0396      6.495      9.420     3.6693 0.0000e+00
      6.653      0.118    10.0695     75.533     34.397  19.728473     5.5800     3.1843     0.2130     0.5076 1.2645e-01     5.9945      6.524      9.462     3.6704 0.0000e+00
      6.683      0.119    10.0578     75.336     34.387  19.723411     5.5800     3.1919     0.2130     0.5076 1.3207e-01     6.0696      6.553      9.505     3.6720 0.0000e+00
      6.713      0.120    10.0378     75.172     34.367  19.711224     5.5800     3.1766     0.2130     0.5076 1.2656e-01     6.0546      6.583      9.548     3.6738 0.0000e+00
      6.743      0.120    10.0122     75.046     34.344  19.696579     5.5800     3.1957     0.2130     0.5076 1.2596e-01     6.0847      6.613      9.592     3.6756 0.0000e+00
      6.775      0.120     9.9844     74.943     34.330  19.687444     5.5800     3.1881     0.2130     0.5076 1.1617e-01     6.0095      6.644      9.636     3.6769 0.0000e+00
      6.806      0.120     9.9584     74.848     34.341  19.693260     5.5800     3.1576     0.2130     0.5076 1.1628e-01     5.9644      6.675      9.681     3.6772 0.0000e+00
      6.837      0.118     9.9371     74.747     34.372  19.711617     5.5800     3.2567     0.2130     0.5076 1.1630e-01     5.9494      6.705      9.725     3.6761 0.0000e+00
      6.867      0.116     9.9208     74.630     34.397  19.727621     5.5800     3.2567     0.2130     0.5076 1.2047e-01     5.8592      6.734      9.767     3.6743 0.0000e+00
      6.896      0.114     9.9076     74.491     34.404  19.733665     5.5800     3.2224     0.2130     0.5499 1.1617e-01     5.8592      6.763      9.809     3.6728 0.0000e+00
      6.925      0.113     9.8952     74.333     34.404  19.735319     5.5800     3.2796     0.2130     0.5499 1.1623e-01     5.8893      6.791      9.850     3.6724 0.0000e+00
      6.953      0.112     9.8816     74.173     34.395  19.733023     5.5800     3.1995     0.2130     0.5499 1.1610e-01     5.9043      6.819      9.889     3.6735 0.0000e+00
      6.981      0.112     9.8656     74.033     34.372  19.722209     5.5800     3.2072     0.2130     0.5499 1.1612e-01     5.7540      6.846      9.929     3.6755 0.0000e+00
      7.009      0.112     9.8465     73.932     34.349  19.711865     5.5800     3.1766     0.2130     0.5499 1.1612e-01     5.8141      6.873      9.969     3.6782 0.0000e+00
      7.037      0.113     9.8248     73.884     34.343  19.711109     5.5800     3.1919     0.2130     0.5499 1.1610e-01     5.8893      6.901     10.010     3.6812 0.0000e+00
      7.067      0.114     9.8028     73.892     34.346  19.715780     5.5800     3.1385     0.2130     0.5499 1.1607e-01     6.0847      6.930     10.051     3.6847 0.0000e+00
      7.096      0.114     9.7832     73.961     34.353  19.723167     5.5800     3.0088     0.2130     0.5499 1.1620e-01     6.0245      6.959     10.094     3.6885 0.0000e+00
      7.126      0.114     9.7688     74.095     34.362  19.731280     5.5800     2.9859     0.2130     0.5076 1.1623e-01     6.0245      6.988     10.136     3.6925 0.0000e+00
      7.155      0.113     9.7615     74.294     34.375  19.742284     5.5800     3.0126     0.2130     0.5076 1.1615e-01     6.0847      7.017     10.177     3.6965 0.0000e+00
      7.184      0.112     9.7615     74.557     34.392  19.755155     5.5800     3.0240     0.2130     0.5076 1.1623e-01     6.0095      7.045     10.217     3.7008 0.0000e+00
      7.212      0.112     9.7694     74.878     34.390  19.757493     5.5800     3.0012     0.2130     0.5076 1.1625e-01     5.7690      7.072     10.258     3.7054 0.0000e+00
      7.240      0.112     9.7858     75.252     34.378  19.753879     5.5800     2.9935     0.2130     0.5076 1.1628e-01     5.7841      7.100     10.298     3.7103 0.0000e+00
      7.268      0.112     9.8108     75.675     34.383  19.759182     5.5800     3.0164     0.2130     0.5076 1.1605e-01     5.7841      7.128     10.338     3.7154 0.0000e+00
      7.296      0.112     9.8442     76.146     34.399  19.770859     5.5800     2.9935     0.2130     0.5076 1.1633e-01     5.6939      7.155     10.378     3.7203 0.0000e+00
      7.325      0.113     9.8853     76.663     34.411  19.780148     5.5800     3.1805     0.2130     0.5076 1.1633e-01     6.0396      7.183     10.418     3.7251 0.0000e+00
      7.354      0.113     9.9335     77.226     34.416  19.785569     5.5800     3.1805     0.2130     0.5076 1.1607e-01     6.0245      7.212     10.460     3.7296 0.0000e+00
      7.383      0.113     9.9884     77.847     34.424  19.792525     5.5800     3.1805     0.2130     0.5499 1.1633e-01     6.0245      7.241     10.502     3.7335 0.0000e+00
      7.413      0.113    10.0496     78.521     34.437  19.802872     5.5800     3.1881     0.2130     0.5499 1.1625e-01     6.0546      7.269     10.544     3.7369 0.0000e+00
      7.442      0.112    10.1169     79.234     34.441  19.807494     5.5800     3.0393     0.2130     0.5499 1.1617e-01     6.0997      7.298     10.585     3.7402 0.0000e+00
      7.470      0.111    10.1903     79.971     34.444  19.811582     5.5800     3.0698     0.2130     0.5499 1.1640e-01     6.0245      7.326     10.625     3.7435 0.0000e+00
      7.498      0.109    10.2712     80.714     34.462  19.824143     5.6700     3.0355     0.2130     0.5922 1.1623e-01     5.9494      7.353     10.665     3.7471 0.0000e+00
      7.526      0.108    10.3592     81.438     34.474  19.832694     5.6700     3.0813     0.2130     0.5922 1.1610e-01     6.0546      7.380     10.704     3.7509 0.0000e+00
      7.553      0.108    10.4521     82.129     34.476  19.835556     5.6700     3.5085     0.2130     0.5922 1.1607e-01     6.0847      7.407     10.743     3.7548 0.0000e+00
      7.580      0.109    10.5484     82.773     34.485  19.841409     5.6700     3.4856     0.2130     0.5922 1.1617e-01     6.0396      7.433     10.781     3.7584 0.0000e+00
      7.607      0.110    10.6454     83.362     34.495  19.847856     5.6700     3.4933     0.2130     0.5499 1.1610e-01     6.0847      7.460     10.819     3.7616 0.0000e+00
      7.634      0.111    10.7402     83.903     34.502  19.852657     5.6700     3.4627     0.2130     0.5499 1.1615e-01     6.0546      7.487     10.859     3.7643 0.0000e+00
      7.663      0.114    10.8307     84.394     34.501  19.853136     5.6700     3.1995     0.2130     0.5499 1.1615e-01     6.2350      7.515     10.900     3.7663 0.0000e+00
      7.693      0.116    10.9152     84.828     34.494  19.849420     5.6700     3.2033     0.2130     0.5499 1.1633e-01     6.2049      7.544     10.942     3.7677 0.0000e+00
      7.723      0.118    10.9926     85.207     34.498  19.852391     5.6700     3.1881     0.2130     0.5499 1.1628e-01     6.2801      7.574     10.985     3.7688 0.0000e+00
      7.753      0.118    11.0637     85.533     34.515  19.862843     5.5800     3.1652     0.2130     0.5922 1.1638e-01     6.1899      7.603     11.028     3.7698 0.0000e+00
      7.784      0.118    11.1282     85.808     34.523  19.867730     5.5800     3.1347     0.2130     0.5922 1.1628e-01     6.0245      7.634     11.072     3.7707 0.0000e+00
      7.815      0.118    11.1851     86.046     34.516  19.864398     5.5800     3.1080     0.2130     0.5922 1.1633e-01     5.9494      7.664     11.115     3.7715 0.0000e+00
      7.845      0.117    11.2348     86.265     34.507  19.859873     5.5800     3.1232     0.2130     0.5922 1.1620e-01     6.0396      7.693     11.158     3.7723 0.0000e+00
      7.874      0.117    11.2776     86.487     34.502  19.856907     5.5800     3.1003     0.2130     0.5499 1.1623e-01     5.9494      7.722     11.200     3.7731 0.0000e+00
      7.903      0.118    11.3136     86.736     34.504  19.858668     5.5800     3.4284     0.2130     0.5499 1.1615e-01     6.0546      7.750     11.241     3.7739 0.0000e+00
      7.933      0.118    11.3448     87.036     34.516  19.865626     5.5800     3.4093     0.2130     0.5499 1.1610e-01     6.0696      7.779     11.283     3.7746 0.0000e+00
      7.963      0.119    11.3735     87.414     34.527  19.871719     5.5800     3.4589     0.2130     0.5499 1.1630e-01     6.0245      7.809     11.326     3.7752 0.0000e+00
      7.994      0.120    11.4027     87.883     34.531  19.874614     5.5800     3.4093     0.1704     0.4230 1.1605e-01     6.0546      7.839     11.370     3.7757 0.0000e+00
      8.025      0.120    11.4354     88.438     34.531  19.875082     5.5800     3.0813     0.1704     0.4230 1.1635e-01     6.0396      7.870     11.415     3.7760 0.0000e+00
      8.057      0.120    11.4749     89.051     34.534  19.877207     5.5800     3.1080     0.1704     0.4230 1.1630e-01     6.0546      7.900     11.459     3.7763 0.0000e+00
      8.087      0.119    11.5246     89.695     34.541  19.881556     5.5800     3.0775     0.1704     0.4230 1.1612e-01     5.9494      7.931     11.503     3.7767 0.0000e+00
      8.117      0.119    11.5863     90.343     34.546  19.885330     5.5800     3.0469     0.2130     0.5922 1.1612e-01     6.0396      7.960     11.545     3.7772 0.0000e+00
      8.147      0.118    11.6592     90.966     34.553  19.889535     5.5800     3.0088     0.2130     0.5922 1.1617e-01     6.1298      7.989     11.588     3.7778 0.0000e+00
      8.177      0.117    11.7399     91.515     34.554  19.891336     5.5800     3.0164     0.2130     0.5922 1.1615e-01     6.0696      8.019     11.630     3.7784 0.0000e+00
      8.207      0.117    11.8246     91.939     34.553  19.891211     5.5800     3.0050     0.2130     0.5922 1.1617e-01     6.1448      8.048     11.672     3.7791 0.0000e+00
      8.237      0.116    11.9098     92.236     34.562  19.897044     5.5800     2.9821     0.2130     0.5922 1.1623e-01     5.9795      8.077     11.715     3.7798 0.0000e+00
      8.267      0.114    11.9917     92.431     34.577  19.906432     5.5800     2.9325     0.2556     0.5922 1.1610e-01     6.5506      8.107     11.758     3.7807 0.0000e+00
      8.296      0.111    12.0637     92.540     34.583  19.910005     5.5800     2.9287     0.2556     0.5922 1.1628e-01     6.5055      8.136     11.800     3.7818 0.0000e+00
      8.325      0.107    12.1192     92.574     34.587  19.912673     5.5800     2.9020     0.2556     0.5922 1.1615e-01     6.5506      8.164     11.841     3.7830 0.0000e+00
      8.353      0.101    12.1580     92.549     34.599  19.919105     5.5800     2.9210     0.2556     0.5922 1.1617e-01     6.5356      8.191     11.880     3.7841 0.0000e+00
      8.378      0.094    12.1835     92.487     34.599  19.919143     5.6700     3.0698     0.2130     0.6345 1.1625e-01     7.9484      8.216     11.916     3.7849 0.0000e+00
      8.401      0.086    12.1978     92.411     34.588  19.912796     5.6700     3.0736     0.2130     0.6345 1.1625e-01     7.9484      8.239     11.949     3.7852 0.0000e+00
      8.422      0.078    12.2022     92.337     34.576  19.906289     5.6700     3.0813     0.2130     0.6345 1.1612e-01     8.0085      8.259     11.978     3.7853 0.0000e+00
      8.440      0.070    12.1988     92.273     34.561  19.897885     5.6700     3.0698     0.2130     0.6345 1.1630e-01     7.9183      8.277     12.005     3.7853 0.0000e+00
      8.457      0.062    12.1907     92.232     34.553  19.893261     5.5800     3.7984     0.2556     0.5076 1.1623e-01    13.6599      8.294     12.028     3.7853 0.0000e+00
      8.471      0.054    12.1807     92.224     34.563  19.899100     5.5800     3.8175     0.2556     0.5076 1.1623e-01    13.7049      8.308     12.049     3.7852 0.0000e+00
      8.484      0.047    12.1710     92.257     34.580  19.909042     5.5800     3.7908     0.2556     0.5076 1.1612e-01    13.5847      8.321     12.067     3.7852 0.0000e+00
      8.495      0.040    12.1625     92.323     34.595  19.917823     5.5800     3.7984     0.2556     0.5076 1.1612e-01    13.7500      8.331     12.083     3.7853 0.0000e+00
      8.504      0.032    12.1569     92.399     34.612  19.927783     5.5800     6.2437     0.2556     0.5076 1.1620e-01    34.3864      8.340     12.096     3.7855 0.0000e+00
      8.512      0.023    12.1558     92.469     34.622  19.933663     5.5800     6.2094     0.3834     0.6768 1.1612e-01    34.3263      8.347     12.106     3.7859 0.0000e+00
      8.517      0.014    12.1600     92.516     34.620  19.933073     5.5800     6.2323     0.3834     0.6768 1.1630e-01    34.3263      8.353     12.114     3.7863 0.0000e+00
      8.520      0.003    12.1685     92.515     34.615  19.929813     5.5800     6.2551     0.3834     0.6768 1.1612e-01    34.3564      8.356     12.119     3.7867 0.0000e+00
      8.520     -0.009    12.1785     92.445     34.603  19.923013     5.5800     9.3413     0.3834     0.6768 1.1615e-01    55.1130      8.356     12.119     3.7870 0.0000e+00
      8.517     -0.023    12.1877     92.298     34.589  19.914820     6.4800     9.3527     2.9394    10.7865 1.1635e-01    55.0829      8.353     12.114     3.7872 0.0000e+00
      8.510     -0.039    12.1938     92.077     34.575  19.907005     6.4800     9.3527     2.9394    10.7865 1.1628e-01    55.0829      8.345     12.104     3.7873 0.0000e+00
      8.498     -0.055    12.1937     91.793     34.565  19.901445     6.4800     9.3108     2.9394    10.7865 1.1610e-01    55.0529      8.334     12.088     3.7873 0.0000e+00
      8.482     -0.072    12.1845     91.452     34.557  19.896654     6.4800     3.8099     2.9394    10.7865 1.1615e-01    14.8021      8.318     12.065     3.7872 0.0000e+00
      8.462     -0.089    12.1651     91.063     34.547  19.891357     6.4800     3.8023     3.4932    14.2128 1.1620e-01    14.8021      8.298     12.036     3.7872 0.0000e+00
      8.437     -0.106    12.1360     90.650     34.555  19.896015     6.4800     3.7984     3.4932    14.2128 1.1617e-01    14.8322      8.274     12.000     3.7873 0.0000e+00
      8.407     -0.121    12.0984     90.254     34.575  19.907913     6.4800     3.7756     3.4932    14.2128 1.1617e-01    14.8472      8.245     11.958     3.7874 0.0000e+00
      8.373     -0.131    12.0535     89.913     34.586  19.914389     6.4800     2.7646     3.4932    14.2128 1.1617e-01     6.1448      8.211     11.909     3.7876 0.0000e+00
      8.335     -0.137    12.0021     89.654     34.591  19.917171     5.5800     2.7608     0.2982     0.6345 1.1623e-01     6.2199      8.174     11.855     3.7878 0.0000e+00
      8.295     -0.138    11.9476     89.494     34.597  19.920960     5.5800     2.7570     0.2982     0.6345 1.1607e-01     6.3402      8.135     11.799     3.7880 0.0000e+00
      8.257     -0.132    11.8954     89.432     34.598  19.920828     5.5800     2.7646     0.2982     0.6345 1.1623e-01     6.2951      8.098     11.745     3.7883 0.0000e+00
      8.223     -0.123    11.8503     89.445     34.589  19.914761     5.5800     2.8600     0.2982     0.6345 1.1628e-01     5.9945      8.064     11.696     3.7887 0.0000e+00
      8.192     -0.111    11.8161     89.500     34.584  19.911037     5.5800     2.8524     0.2982     0.6345 1.1612e-01     6.0546      8.034     11.652     3.7890 0.0000e+00
      8.167     -0.100    11.7951     89.564     34.585  19.910642     5.5800     2.8715     0.2130     0.5076 1.1612e-01     5.9795      8.009     11.616     3.7889 0.0000e+00
      8.145     -0.090    11.7871     89.618     34.585  19.909511     5.5800     2.8676     0.2130     0.5076 1.1607e-01     6.1448      7.987     11.585     3.7882 0.0000e+00
      8.125     -0.084    11.7892     89.650     34.590  19.911302     5.5800     2.9287     0.2130     0.5076 1.1630e-01     6.0245      7.968     11.557     3.7870 0.0000e+00
      8.106     -0.081    11.7969     89.652     34.600  19.916492     5.5800     2.9516     0.2130     0.5076 1.1633e-01     5.9644      7.949     11.530     3.7855 0.0000e+00
      8.087     -0.083    11.8058     89.632     34.605  19.918550     5.6700     2.9363     0.4260     0.7191 1.1612e-01     6.0095      7.931     11.502     3.7838 0.0000e+00
      8.067     -0.090    11.8135     89.603     34.605  19.918022     5.6700     2.9096     0.4260     0.7191 1.1633e-01     5.9644      7.911     11.474     3.7822 0.0000e+00
      8.045     -0.100    11.8181     89.576     34.606  19.918728     5.6700     2.8867     0.4260     0.7191 1.1615e-01     5.9494      7.889     11.443     3.7809 0.0000e+00
      8.020     -0.116    11.8187     89.557     34.603  19.916898     5.6700     2.8753     0.4260     0.7191 1.1605e-01     5.8893      7.865     11.407     3.7799 0.0000e+00
      7.990     -0.136    11.8163     89.540     34.588  19.908084     5.8500     2.8715     0.5112     0.9306 1.1620e-01     5.7690      7.836     11.365     3.7791 0.0000e+00
      7.956     -0.163    11.8126     89.516     34.564  19.893895     5.8500     2.9020     0.5112     0.9306 1.1625e-01     5.8893      7.802     11.316     3.7785 0.0000e+00
      7.914     -0.194    11.8092     89.483     34.545  19.882421     5.8500     2.7456     0.5112     0.9306 1.1615e-01     5.8292      7.761     11.256     3.7780 0.0000e+00
      7.863     -0.230    11.8068     89.434     34.538  19.878520     5.8500     2.7532     0.5112     0.9306 1.1623e-01     5.8592      7.711     11.184     3.7776 0.0000e+00
      7.800     -0.268    11.8046     89.365     34.535  19.877193     5.6700     2.7494     0.6390     0.5499 1.1623e-01     5.9193      7.650     11.095     3.7774 0.0000e+00
      7.726     -0.306    11.8016     89.274     34.530  19.874128     5.6700     2.7685     0.6390     0.5499 1.1615e-01     5.8442      7.577     10.989     3.7773 0.0000e+00
      7.641     -0.342    11.7972     89.154     34.527  19.872466     5.6700     2.7494     0.6390     0.5499 1.1620e-01     6.0245      7.493     10.868     3.7772 0.0000e+00
      7.546     -0.375    11.7907     88.986     34.534  19.875722     5.6700     2.7456     0.6390     0.5499 1.1605e-01     6.0546      7.401     10.734     3.7771 0.0000e+00
      7.444     -0.404    11.7817     88.749     34.537  19.876848     5.6700     2.7570     0.6390     0.5499 1.1607e-01     6.0546      7.301     10.589     3.7772 0.0000e+00
      7.337     -0.429    11.7697     88.428     34.530  19.872186     5.6700     2.7723     0.3834     0.5922 1.1617e-01     6.0396      7.195     10.436     3.7772 0.0000e+00
      7.223     -0.449    11.7538     88.013     34.526  19.868409     5.6700     2.8104     0.3834     0.5922 1.1623e-01     5.9945      7.084     10.275     3.7771 0.0000e+00
      7.105     -0.467    11.7318     87.505     34.528  19.868469     5.6700     2.8257     0.3834     0.5922 1.1623e-01     5.9795      6.968     10.106     3.7766 0.0000e+00
      6.983     -0.480    11.7009     86.922     34.531  19.868423     5.6700     2.8486     0.3834     0.5922 1.1612e-01     6.0245      6.848      9.932     3.7757 0.0000e+00
      6.856     -0.491    11.6591     86.304     34.526  19.864300     5.5800     2.8448     0.2556     0.5076 1.1590e-01     6.0396      6.724      9.752     3.7743 0.0000e+00
      6.729     -0.498    11.6049     85.699     34.519  19.858959     5.5800     2.9249     0.2556     0.5076 1.2954e-01     5.8592      6.599      9.571     3.7725 0.0000e+00
      6.600     -0.503    11.5384     85.150     34.514  19.854935     5.5800     2.9516     0.2556     0.5076 1.5210e-01     5.8442      6.472      9.388     3.7705 0.0000e+00
      6.471     -0.505    11.4622     84.696     34.516  19.855113     5.5800     2.9554     0.2556     0.5076 1.6978e-01     5.8742      6.346      9.204     3.7684 0.0000e+00
      6.341     -0.506    11.3814     84.354     34.531  19.863497     5.5800     2.9630     0.2130     0.5076 1.8463e-01     5.8893      6.219      9.019     3.7665 0.0000e+00
      6.211     -0.507    11.3021     84.126     34.558  19.878367     5.5800     2.8295     0.2130     0.5076 2.4089e-01     5.8292      6.092      8.835     3.7646 0.0000e+00
      6.083     -0.507    11.2302     83.996     34.581  19.891812     5.5800     2.8028     0.2130     0.5076 2.8669e-01     5.8292      5.965      8.652     3.7629 0.0000e+00
      5.954     -0.508    11.1707     83.928     34.581  19.891585     5.5800     2.8219     0.2130     0.5076 3.1690e-01     5.7390      5.839      8.469     3.7616 0.0000e+00
      5.825     -0.509    11.1259     83.883     34.556  19.877626     5.5800     2.8181     0.2556     0.5499 3.4968e-01     5.8292      5.713      8.286     3.7607 0.0000e+00
      5.696     -0.510    11.0959     83.835     34.536  19.866004     5.5800     2.8257     0.2556     0.5499 4.0448e-01     5.7540      5.585      8.101     3.7602 0.0000e+00
      5.565     -0.511    11.0788     83.766     34.535  19.865493     5.5800     2.8257     0.2556     0.5499 4.7002e-01     5.8292      5.457      7.915     3.7600 0.0000e+00
      5.434     -0.513    11.0698     83.655     34.546  19.872000     5.5800     2.8448     0.2556     0.5499 5.4700e-01     5.8893      5.329      7.729     3.7600 0.0000e+00
      5.304     -0.514    11.0639     83.493     34.559  19.879343     5.5800     2.8257     0.2556     0.5499 5.9189e-01     5.8442      5.201      7.544     3.7601 0.0000e+00
      5.173     -0.516    11.0576     83.279     34.562  19.881565     5.5800     3.1194     0.2130     0.5499 6.9848e-01     5.8292      5.073      7.358     3.7602 0.0000e+00
      5.041     -0.518    11.0484     83.024     34.551  19.875299     5.5800     3.1194     0.2130     0.5499 8.3853e-01     5.7690      4.944      7.171     3.7604 0.0000e+00
      4.909     -0.520    11.0338     82.750     34.536  19.866790     5.5800     3.1232     0.2130     0.5499 9.2729e-01     5.7991      4.814      6.982     3.7605 0.0000e+00
      4.776     -0.523    11.0123     82.475     34.534  19.865645     5.5800     3.1080     0.2130     0.5499 1.0423e+00     5.8893      4.684      6.793     3.7607 0.0000e+00
      4.643     -0.526    10.9841     82.207     34.545  19.871559     5.5800     3.0660     0.2130     0.5499 1.1779e+00     5.8292      4.553      6.603     3.7608 0.0000e+00
      4.508     -0.529    10.9504     81.948     34.563  19.882150     5.5800     3.0317     0.2130     0.5499 1.3370e+00     5.8292      4.421      6.412     3.7609 0.0000e+00
      4.373     -0.531    10.9142     81.695     34.588  19.896284     5.5800     3.0927     0.2130     0.5499 1.5540e+00     5.7540      4.288      6.220     3.7609 0.0000e+00
      4.237     -0.532    10.8779     81.450     34.605  19.905857     5.5800     3.0660     0.2130     0.5499 1.7267e+00     5.7991      4.155      6.026     3.7610 0.0000e+00
      4.100     -0.533    10.8426     81.213     34.611  19.909463     5.6700     3.1881     0.2130     0.5076 1.9766e+00     5.7841      4.021      5.832     3.7610 0.0000e+00
      3.964     -0.533    10.8084     80.983     34.622  19.915979     5.6700     3.1728     0.2130     0.5076 2.2125e+00     5.7239      3.888      5.638     3.7609 0.0000e+00
      3.829     -0.533    10.7751     80.770     34.635  19.923186     5.6700     3.1805     0.2130     0.5076 2.4740e+00     5.7540      3.755      5.446     3.7609 0.0000e+00
      3.694     -0.534    10.7428     80.589     34.638  19.925088     5.6700     3.1957     0.2130     0.5076 2.8087e+00     5.7390      3.622      5.253     3.7609 0.0000e+00
      3.558     -0.534    10.7115     80.461     34.646  19.930111     5.6700     3.0088     0.2130     0.5076 3.1564e+00     5.7239      3.489      5.060     3.7609 0.0000e+00
      3.421     -0.535    10.6812     80.397     34.676  19.947508     5.5800     3.0088     0.2130     0.5499 3.5517e+00     5.8893      3.355      4.866     3.7610 0.0000e+00
      3.285     -0.536    10.6530     80.407     34.718  19.972025     5.5800     2.9859     0.2130     0.5499 4.0728e+00     5.8442      3.221      4.672     3.7611 0.0000e+00
      3.147     -0.535    10.6292     80.488     34.750  19.990408     5.5800     3.0012     0.2130     0.5499 4.6088e+00     5.9043      3.087      4.477     3.7612 0.0000e+00
      3.010     -0.534    10.6122     80.617     34.762  19.997665     5.5800     3.2682     0.2130     0.5499 5.2907e+00     5.8292      2.952      4.282     3.7614 0.0000e+00
      2.874     -0.531    10.6037     80.759     34.769  20.001666     5.6700     3.2720     0.2130     0.5076 5.9326e+00     5.8292      2.818      4.087     3.7616 0.0000e+00
      2.738     -0.527    10.6050     80.878     34.781  20.009417     5.6700     3.2720     0.2130     0.5076 6.8297e+00     5.7089      2.685      3.895     3.7619 0.0000e+00
      2.604     -0.523    10.6156     80.948     34.800  20.021006     5.6700     3.2758     0.2130     0.5076 7.5838e+00     5.7841      2.554      3.704     3.7622 0.0000e+00
      2.472     -0.518    10.6324     80.962     34.828  20.037544     5.6700     3.2377     0.2130     0.5076 8.3157e+00     5.7089      2.424      3.516     3.7627 0.0000e+00
      2.341     -0.513    10.6509     80.927     34.865  20.059484     5.6700     3.2606     0.2130     0.5499 9.4081e+00     5.7991      2.296      3.329     3.7632 0.0000e+00
      2.211     -0.509    10.6664     80.859     34.908  20.084758     5.6700     3.2567     0.2130     0.5499 1.0370e+01     5.8442      2.168      3.145     3.7640 0.0000e+00
      2.082     -0.506    10.6754     80.777     34.955  20.112191     5.6700     3.2453     0.2130     0.5499 1.1618e+01     5.8292      2.042      2.961     3.7649 0.0000e+00
      1.954     -0.502    10.6770     80.709     35.004  20.141183     5.6700     3.4894     0.2130     0.5499 1.2980e+01     5.8292      1.916      2.779     3.7657 0.0000e+00
      1.826     -0.499    10.6723     80.667     35.042  20.163631     5.6700     3.5085     0.2130     0.5076 1.4270e+01     5.8442      1.791      2.598     3.7664 0.0000e+00
      1.699     -0.495    10.6630     80.638     35.059  20.173646     5.6700     3.4742     0.2130     0.5076 1.6229e+01     5.7690      1.667      2.417     3.7671 0.0000e+00
      1.573     -0.490    10.6521     80.598     35.072  20.181815     5.6700     3.5085     0.2130     0.5076 1.8190e+01     5.8442      1.543      2.237     3.7677 0.0000e+00
      1.448     -0.483    10.6429     80.515     35.085  20.190319     5.6700     4.0960     0.2130     0.5076 2.0768e+01     5.7540      1.420      2.059     3.7685 0.0000e+00
      1.324     -0.475    10.6371     80.375     35.096  20.197465     5.6700     4.0998     0.2130     0.5076 2.3369e+01     5.8292      1.299      1.884     3.7693 0.0000e+00
      1.204     -0.464    10.6331     80.183     35.115  20.209118     5.5800     4.1151     0.2130     0.6768 2.5591e+01     5.8592      1.180      1.712     3.7703 0.0000e+00
      1.086     -0.452    10.6274     79.962     35.141  20.224428     5.5800     4.0998     0.2130     0.6768 2.8232e+01     5.8592      1.065      1.545     3.7714 0.0000e+00
      0.972     -0.437    10.6162     79.750     35.173  20.243518     5.5800     4.1799     0.2130     0.6768 3.2480e+01     5.7841      0.953      1.383     3.7726 0.0000e+00
      0.861     -0.420    10.5974     79.584     35.207  20.263564     5.5800     4.1799     0.2130     0.6768 3.5622e+01     5.7841      0.845      1.225     3.7738 0.0000e+00
      0.755     -0.399    10.5717     79.492     35.225  20.274077     5.5800     4.1837     0.2130     0.5499 4.1232e+01     5.8592      0.740      1.074     3.7749 0.0000e+00
      0.654     -0.375    10.5424     79.484     35.231  20.277861     5.5800     4.1647     0.2130     0.5499 4.6255e+01     5.7540      0.641      0.930     3.7757 0.0000e+00
      0.559     -0.347    10.5143     79.548     35.247  20.287800     5.5800     5.0382     0.2130     0.5499 5.1980e+01     5.8442      0.549      0.795     3.7763 0.0000e+00
      0.473     -0.316    10.4923     79.655     35.266  20.298628     5.5800     4.9963     0.2130     0.5499 5.8046e+01     5.8592      0.464      0.672     3.7768 0.0000e+00
      0.395     -0.283    10.4800     79.772     35.263  20.297399     5.6700     5.0001     0.2130     0.5922 6.3649e+01     5.8592      0.388      0.562     3.7774 0.0000e+00
      0.328     -0.249    10.4788     79.873     35.238  20.283785     5.6700     4.9925     0.2130     0.5922 6.8010e+01     5.7540      0.322      0.466     3.7780 0.0000e+00
      0.270     -0.215    10.4871     79.945     35.214  20.269991     5.6700     4.9543     0.2130     0.5922 6.7774e+01     5.7991      0.265      0.384     3.7785 0.0000e+00
      0.221     -0.183    10.5010     79.988     35.210  20.268169     5.6700     4.9696     0.2130     0.5922 7.0831e+01     5.9043      0.217      0.314     3.7789 0.0000e+00
      0.179     -0.154    10.5163     80.003     35.220  20.273876     5.6700     4.9619     0.2130     0.6768 8.4627e+01     5.8292      0.175      0.254     3.7794 0.0000e+00
      0.144     -0.128    10.5295     79.981     35.233  20.280717     5.6700     4.9314     0.2130     0.6768 9.1097e+01     5.9043      0.142      0.205     3.7800 0.0000e+00
      0.117     -0.104    10.5388     79.915     35.251  20.290517     5.6700     5.1451     0.2130     0.6768 9.8061e+01     5.8893      0.114      0.166     3.7804 0.0000e+00
      0.095     -0.084    10.5445     79.794     35.258  20.294014     5.6700     5.1603     0.2130     0.6768 1.0639e+02     5.8292      0.093      0.135     3.7806 0.0000e+00
      0.077     -0.068    10.5464     79.609     35.243  20.284224     5.6700     5.1145     0.2130     0.6768 1.1519e+02     5.7690      0.076      0.110     3.7804 0.0000e+00
      0.064     -0.055    10.5436     79.349     35.228  20.274369     5.6700     5.1183     0.2130     0.7614 1.2242e+02     5.8592      0.062      0.091     3.7800 0.0000e+00
      0.052     -0.045    10.5351     79.012     35.229  20.273696     5.6700     5.0764     0.2130     0.7614 1.3354e+02     5.8592      0.051      0.075     3.7794 0.0000e+00
      0.043     -0.038    10.5194     78.619     35.234  20.274109     5.6700     5.0459     0.2130     0.7614 1.4754e+02     5.9193      0.042      0.061     3.7785 0.0000e+00
      0.034     -0.033    10.4953     78.205     35.227  20.267801     5.6700     5.0840     0.2130     0.7614 1.5420e+02     5.7841      0.034      0.049     3.7772 0.0000e+00
      0.028     -0.032    10.4616     77.798     35.218  20.261007     5.6700     5.0726     0.2130     0.9729 1.5042e+02     5.7841      0.027      0.039     3.7755 0.0000e+00
      0.021     -0.033    10.4178     77.420     35.218  20.259833     5.6700     4.8437     0.2130     0.9729 1.4484e+02     5.6789      0.021      0.030     3.7729 0.0000e+00
      0.014     -0.038    10.3670     77.086     35.221  20.260006     5.6700     4.8437     0.2130     0.9729 1.4835e+02     5.8292      0.014      0.020     3.7697 0.0000e+00
      0.005     -0.046    10.3131     76.797     35.220  20.257613     5.6700     4.8246     0.2130     0.9729 1.4661e+02     5.7841      0.005      0.007     3.7666 0.0000e+00
     -0.006     -0.059    10.2601     76.542     35.218  20.255976     5.6700     4.8284     0.2130     0.9729 1.3865e+02     5.8292     -0.006     -0.009     3.7643 0.0000e+00
     -0.021     -0.076    10.2108     76.296     35.214  20.254657     5.6700     5.2252     0.2130     0.9729 1.3497e+02     5.8442     -0.020     -0.030     3.7623 0.0000e+00
     -0.040     -0.096    10.1673     76.036     35.195  20.245389     5.6700     5.2519     0.2130     0.9729 1.3030e+02     5.8742     -0.039     -0.057     3.7601 0.0000e+00
     -0.065     -0.120    10.1298     75.756     35.150  20.221742     5.6700     5.2709     0.2130     0.9729 1.3104e+02     5.9193     -0.064     -0.092     3.7582 0.0000e+00
     -0.098     -0.145    10.0964     75.458     35.063  20.173452     5.6700     5.2099     0.2130     0.8037 1.5233e+02     5.7841     -0.096     -0.139     3.7575 0.0000e+00
     -0.139     -0.169    10.0636     75.156     34.911  20.087642     5.6700     4.5690     0.2130     0.8037 1.9204e+02     5.7841     -0.137     -0.198     3.7587 0.0000e+00
     -0.188     -0.189    10.0287     74.882     34.662  19.945386     5.6700     4.5385     0.2130     0.8037 2.7313e+02     5.8742     -0.184     -0.268     3.7611 0.0000e+00
     -0.243     -0.203     9.9910     74.689     34.234  19.700835     5.6700     4.5347     0.2130     0.8037 2.9651e+02     5.8292     -0.238     -0.345     3.7640 0.0000e+00
     -0.299     -0.210     9.9511     74.640     33.463  19.259086     5.6700     4.5194     0.2130     0.8037 3.1504e+02     5.8292     -0.293     -0.426     3.7667 0.0000e+00
     -0.356     -0.210     9.9106     74.810     31.978  18.407341     5.6700     2.2764     0.1704     0.9306 2.8150e+02     5.5135     -0.349     -0.507     3.7692 0.0000e+00
     -0.412     -0.202     9.8736     75.313     29.121  16.766067     5.6700     2.2649     0.1704     0.9306 2.6259e+02     5.5286     -0.404     -0.586     3.7718 0.0000e+00
     -0.464     -0.189     9.8474     76.242     24.226  13.951027     5.6700     2.2649     0.1704     0.9306 2.5712e+02     5.5887     -0.455     -0.660     3.7750 0.0000e+00
     -0.511     -0.172     9.8397     77.616     18.147  10.452088     5.6700     2.2649     0.1704     0.9306 2.5661e+02     5.5586     -0.501     -0.726     3.7795 0.0000e+00
     -0.551     -0.152     9.8604     79.362     13.068   7.528228     5.6700     0.4949     0.2130     1.0575 2.4549e+02     6.2500     -0.541     -0.784     3.7860 0.0000e+00
     -0.586     -0.132     9.9246     81.338      9.782   5.636102     5.6700     0.4911     0.2130     1.0575 2.3669e+02     6.3251     -0.575     -0.833     3.7943 0.0000e+00
     -0.614     -0.112    10.0447     83.372      7.717   4.447144     5.6700     0.5025     0.2130     1.0575 2.1496e+02     6.2650     -0.602     -0.873     3.8034 0.0000e+00
     -0.635     -0.095    10.2235     85.292      6.402   3.689780     5.6700     0.4796     0.2130     1.0575 1.8556e+02     6.3552     -0.623     -0.904     3.8120 0.0000e+00
     -0.652     -0.081    10.4519     86.924      5.554   3.201595    13.0500    -0.1002     0.3834     1.2267 1.5806e+02    -0.4084     -0.640     -0.928     3.8187 0.0000e+00
     -0.665     -0.071    10.7110     88.132      5.013   2.889976    13.0500    -0.1422     0.3834     1.2267 1.2844e+02    -0.3783     -0.652     -0.946     3.8227 0.0000e+00
     -0.675     -0.065    10.9785     88.856      4.707   2.713349    13.0500    -0.1155     0.3834     1.2267 8.1825e+01    -0.2581     -0.662     -0.960     3.8247 0.0000e+00
     -0.682     -0.063    11.2311     89.094      4.608   2.656253    13.0500    -0.1079     0.3834     1.2267 7.0508e+01    -0.3783     -0.669     -0.970     3.8255 0.0000e+00
     -0.687 -9.990e-29    11.4460 -9.990e-29 -9.990e-29 -9.990e-29     5.8500 -9.990e-29     0.0426     0.8883 4.8583e+01 -9.990e-29     -0.674     -0.977     3.8259 0.0000e+00
     -0.690 -9.990e-29    11.6051 -9.990e-29 -9.990e-29 -9.990e-29     5.8500 -9.990e-29     0.0426     0.8883 3.7205e+01 -9.990e-29     -0.677     -0.982     3.8260 0.0000e+00
     -0.692 -9.990e-29    11.7004 -9.990e-29 -9.990e-29 -9.990e-29     5.8500 -9.990e-29     0.0426     0.8883 3.5886e+01 -9.990e-29     -0.679     -0.985     3.8260 0.0000e+00
     -0.693 -9.990e-29    11.7318 -9.990e-29 -9.990e-29 -9.990e-29     5.8500 -9.990e-29     0.0426     0.8883 3.6579e+01 -9.990e-29     -0.680     -0.986     3.8260 0.0000e+00
