* Sea-Bird SBE19plus  Data File:
* FileName = C:\R\Reservoirs\Data\DataNotYetUploadedToEDI\Raw_CTD\RawDownloads\011123_fcr50_S8188_0006.hex
* Software version 2.8.0.119
* Temperature SN = 8188
* Conductivity SN = 8188
* System UpLoad Time = Mar 20 2023 14:56:38
* <ApplicationData>
* <Seaterm232>
* <SoftwareVersion>2.8.0.119</SoftwareVersion>
* <BuildDate>07-Nov-2018</BuildDate>
* </Seaterm232>
* </ApplicationData>
* <InstrumentState>
* <HardwareData DeviceType='SBE19plus' SerialNumber='01908188'>
*
*    <Manufacturer>Sea-Bird Electronics, Inc.</Manufacturer>
*
*    <FirmwareVersion>3.1.8</FirmwareVersion>
*
*    <FirmwareDate>Mar  9 2016 16:22:29</FirmwareDate>
*
*    <CommandSetVersion>1.4</CommandSetVersion>
*
*    <PCBAssembly PCBSerialNum='260079' AssemblyNum='41054K'/>
*
*    <PCBAssembly PCBSerialNum='260083' AssemblyNum='41059E'/>
*
*    <PCBAssembly PCBSerialNum='260085' AssemblyNum='41606B'/>
*
*    <PCBAssembly PCBSerialNum='260081' AssemblyNum='41967C'/>
*
*    <MfgDate>30 Mar 2022</MfgDate>
*
*    <InternalSensors>
*
*       <Sensor id='Main Temperature'>
*
*          <type>temperature0</type>
*
*          <SerialNumber>01908188</SerialNumber>
*
*       </Sensor>
*
*       <Sensor id='Main Conductivity'>
*
*          <type>conductivity-0</type>
*
*          <SerialNumber>01908188</SerialNumber>
*
*       </Sensor>
*
*       <Sensor id='Main Pressure'>
*
*          <type>strain-0</type>
*
*          <SerialNumber>12220741</SerialNumber>
*
*       </Sensor>
*
*    </InternalSensors>
*
*    <ExternalSensors>
*
*       <Sensor id='volt 0'>
*
*          <type>CHL</type>
*
*          <SerialNumber>FLNTURT-7096</SerialNumber>
*
*       </Sensor>
*
*       <Sensor id='volt 1'>
*
*          <type>NTU</type>
*
*          <SerialNumber>FLNTURT-7096</SerialNumber>
*
*       </Sensor>
*
*       <Sensor id='volt 2'>
*
*          <type>OXY</type>
*
*          <SerialNumber>43-4269</SerialNumber>
*
*       </Sensor>
*
*       <Sensor id='volt 3'>
*
*          <type>not assigned</type>
*
*          <SerialNumber>not assigned</SerialNumber>
*
*       </Sensor>
*
*       <Sensor id='volt 4'>
*
*          <type>PAR</type>
*
*          <SerialNumber>PARLOGICSW-2209</SerialNumber>
*
*       </Sensor>
*
*       <Sensor id='volt 5'>
*
*          <type>not assigned</type>
*
*          <SerialNumber>not assigned</SerialNumber>
*
*       </Sensor>
*
*       <Sensor id='serial'>
*
*          <type>WETLABS</type>
*
*          <SerialNumber>FL3-7350</SerialNumber>
*
*       </Sensor>
*
*    </ExternalSensors>
*
* </HardwareData>
* <StatusData DeviceType='SBE19plus' SerialNumber='01908188'>
*
*    <DateTime>2023-03-20T11:53:43</DateTime>
*
*    <LoggingState>not logging</LoggingState>
*
*    <EventSummary numEvents='0'/>
*
*    <Power>
*
*       <vMain>12.8</vMain>
*
*       <vLith>8.5</vLith>
*
*       <iMain>61.8</iMain>
*
*       <iPump>56.3</iPump>
*
*       <iExt01>21.3</iExt01>
*
*       <iExt2345>20.0</iExt2345>
*
*       <iSerial>44.3</iSerial>
*
*    </Power>
*
*    <MemorySummary>
*
*       <Bytes>275075</Bytes>
*
*       <Samples>11003</Samples>
*
*       <SamplesFree>2620922</SamplesFree>
*
*       <SampleLength>25</SampleLength>
*
*       <Profiles>7</Profiles>
*
*    </MemorySummary>
*
* </StatusData>
* <ConfigurationData DeviceType='SBE19plus' SerialNumber='01908188'>
*
*    <ProfileMode>
*
*       <ScansToAverage>1</ScansToAverage>
*
*       <MinimumCondFreq>5</MinimumCondFreq>
*
*       <PumpDelay>40</PumpDelay>
*
*       <AutoRun>no</AutoRun>
*
*       <IgnoreSwitch>no</IgnoreSwitch>
*
*    </ProfileMode>
*
*    <Battery>
*
*       <Type>alkaline</Type>
*
*       <CutOff>7.5</CutOff>
*
*    </Battery>
*
*    <DataChannels>
*
*       <ExtVolt0>yes</ExtVolt0>
*
*       <ExtVolt1>yes</ExtVolt1>
*
*       <ExtVolt2>yes</ExtVolt2>
*
*       <ExtVolt3>no</ExtVolt3>
*
*       <ExtVolt4>yes</ExtVolt4>
*
*       <ExtVolt5>no</ExtVolt5>
*
*       <SBE38>no</SBE38>
*
*       <WETLABS>yes</WETLABS>
*
*       <OPTODE>no</OPTODE>
*
*       <SBE63>no</SBE63>
*
*       <SeaFET>no</SeaFET>
*
*       <GTD>no</GTD>
*
*    </DataChannels>
*
*    <EchoCharacters>yes</EchoCharacters>
*
*    <OutputExecutedTag>yes</OutputExecutedTag>
*
*    <OutputFormat>raw HEX</OutputFormat>
*
* </ConfigurationData>
* <CalibrationCoefficients DeviceType='SBE19plus' SerialNumber='01908188'>
*
*    <Calibration format='TEMP1' id='Main Temperature'>
*
*       <SerialNum>01908188</SerialNum>
*
*       <CalDate>21-Aug-22</CalDate>
*
*       <TA0>1.265284e-03</TA0>
*
*       <TA1>2.691806e-04</TA1>
*
*       <TA2>-5.655711e-07</TA2>
*
*       <TA3>1.602369e-07</TA3>
*
*       <TOFFSET>0.000000e+00</TOFFSET>
*
*    </Calibration>
*
*    <Calibration format='WBCOND0' id='Main Conductivity'>
*
*       <SerialNum>01908188</SerialNum>
*
*       <CalDate>21-Aug-22</CalDate>
*
*       <G>-1.009562e+00</G>
*
*       <H>1.439229e-01</H>
*
*       <I>-4.343583e-04</I>
*
*       <J>5.328694e-05</J>
*
*       <CPCOR>-9.570000e-08</CPCOR>
*
*       <CTCOR>3.250000e-06</CTCOR>
*
*       <CSLOPE>1.000000e+00</CSLOPE>
*
*    </Calibration>
*
*    <Calibration format='STRAIN0' id='Main Pressure'>
*
*       <SerialNum>12220741</SerialNum>
*
*       <CalDate>11-Aug-22</CalDate>
*
*       <PA0>1.627942e-01</PA0>
*
*       <PA1>4.835849e-04</PA1>
*
*       <PA2>-3.975488e-12</PA2>
*
*       <PTCA0>5.244803e+05</PTCA0>
*
*       <PTCA1>2.817194e+01</PTCA1>
*
*       <PTCA2>-5.842684e-01</PTCA2>
*
*       <PTCB0>2.522087e+01</PTCB0>
*
*       <PTCB1>5.750000e-04</PTCB1>
*
*       <PTCB2>0.000000e+00</PTCB2>
*
*       <PTEMPA0>-5.709556e+01</PTEMPA0>
*
*       <PTEMPA1>5.248567e+01</PTEMPA1>
*
*       <PTEMPA2>-2.281498e-01</PTEMPA2>
*
*       <POFFSET>-4.700000e-02</POFFSET>
*
*       <PRANGE>1.600000e+02</PRANGE>
*
*    </Calibration>
*
*    <Calibration format='VOLT0' id='Volt 0'>
*
*       <OFFSET>-4.657200e-02</OFFSET>
*
*       <SLOPE>1.248989e+00</SLOPE>
*
*    </Calibration>
*
*    <Calibration format='VOLT0' id='Volt 1'>
*
*       <OFFSET>-4.600800e-02</OFFSET>
*
*       <SLOPE>1.249849e+00</SLOPE>
*
*    </Calibration>
*
*    <Calibration format='VOLT0' id='Volt 2'>
*
*       <OFFSET>-4.668000e-02</OFFSET>
*
*       <SLOPE>1.250379e+00</SLOPE>
*
*    </Calibration>
*
*    <Calibration format='VOLT0' id='Volt 3'>
*
*       <OFFSET>-4.643200e-02</OFFSET>
*
*       <SLOPE>1.251002e+00</SLOPE>
*
*    </Calibration>
*
*    <Calibration format='VOLT0' id='Volt 4'>
*
*       <OFFSET>-4.606100e-02</OFFSET>
*
*       <SLOPE>1.249962e+00</SLOPE>
*
*    </Calibration>
*
*    <Calibration format='VOLT0' id='Volt 5'>
*
*       <OFFSET>-4.642700e-02</OFFSET>
*
*       <SLOPE>1.248530e+00</SLOPE>
*
*    </Calibration>
*
*    <Calibration format='FREQ0' id='external frequency channel'>
*
*       <EXTFREQSF>1.000018e+00</EXTFREQSF>
*
*    </Calibration>
*
* </CalibrationCoefficients>
* <EventCounters DeviceType='SBE19plus' SerialNumber='01908188'>
*
*    <EventSummary numEvents='0'/>
*
* </EventCounters></InstrumentState>
* <Headers>
*
* cast   6 06 Mar 2023 13:33:53 samples 8302 to 9319, avg = 1, stop = mag switch
*
# nquan = 16
# nvalues = 1018                        
# units = specified
# name 0 = depFM: Depth [fresh water, m]
# name 1 = dz/dtM: Descent Rate [m/s]
# name 2 = sbeox0Mg/L: Oxygen, SBE 43 [mg/l]
# name 3 = sbeox0PS: Oxygen, SBE 43 [% saturation]
# name 4 = specc: Specific Conductance [uS/cm]
# name 5 = c0uS/cm: Conductivity [uS/cm]
# name 6 = wetCDOM: Fluorescence, WET Labs CDOM [mg/m^3]
# name 7 = flECO-AFL: Fluorescence, WET Labs ECO-AFL/FL [mg/m^3]
# name 8 = flECO-AFL1: Fluorescence, WET Labs ECO-AFL/FL, 2 [mg/m^3]
# name 9 = flECO-AFL2: Fluorescence, WET Labs ECO-AFL/FL, 3 [mg/m^3]
# name 10 = par/sat/log: PAR/Logarithmic, Satlantic
# name 11 = turbWETntu0: Turbidity, WET Labs ECO [NTU]
# name 12 = prdM: Pressure, Strain Gauge [db]
# name 13 = prdE: Pressure, Strain Gauge [psi]
# name 14 = tv290C: Temperature [ITS-90, deg C]
# name 15 = flag:  0.000e+00
# span 0 =     -0.664,      9.560       
# span 1 =     -0.452,      0.201       
# span 2 =    -1.3348,    12.4827       
# span 3 =    -10.932,    109.313       
# span 4 =      1.143,    302.097       
# span 5 =   0.771693, 191.875103       
# span 6 =    -4.5000,     4.8600       
# span 7 =    -2.8507,   245.2229       
# span 8 =    -7.1142,     3.4932       
# span 9 =   -11.2095,     7.6563       
# span 10 = 1.1617e-01, 1.6677e+03      
# span 11 =    -4.8573,   966.4352      
# span 12 =     -0.651,      9.375      
# span 13 =     -0.944,     13.597      
# span 14 =     6.6619,    17.5363      
# span 15 = 0.0000e+00, 0.0000e+00      
# interval = seconds: 0.25
# start_time = Mar 06 2023 13:33:53 [Instrument's time stamp, header]
# bad_flag = -9.990e-29
# <Sensors count="10" >
#   <sensor Channel="1" >
#     <!-- Count, Temperature -->
#     <TemperatureSensor SensorID="58" >
#       <SerialNumber>8188</SerialNumber>
#       <CalibrationDate>21-Aug-22</CalibrationDate>
#       <A0>1.26528397e-003</A0>
#       <A1>2.69180636e-004</A1>
#       <A2>-5.65571102e-007</A2>
#       <A3>1.60236871e-007</A3>
#       <Slope>1.00000000</Slope>
#       <Offset>0.0000</Offset>
#     </TemperatureSensor>
#   </sensor>
#   <sensor Channel="2" >
#     <!-- Frequency 0, Conductivity -->
#     <ConductivitySensor SensorID="3" >
#       <SerialNumber>8188</SerialNumber>
#       <CalibrationDate>21-Aug-22</CalibrationDate>
#       <UseG_J>1</UseG_J>
#       <!-- Cell const and series R are applicable only for wide range sensors. -->
#       <SeriesR>0.0000</SeriesR>
#       <CellConst>2000.0000</CellConst>
#       <ConductivityType>0</ConductivityType>
#       <Coefficients equation="0" >
#         <A>0.00000000e+000</A>
#         <B>0.00000000e+000</B>
#         <C>0.00000000e+000</C>
#         <D>0.00000000e+000</D>
#         <M>0.0</M>
#         <CPcor>-9.57000000e-008</CPcor>
#       </Coefficients>
#       <Coefficients equation="1" >
#         <G>-1.00956200e+000</G>
#         <H>1.43922862e-001</H>
#         <I>-4.34358337e-004</I>
#         <J>5.32869425e-005</J>
#         <CPcor>-9.57000000e-008</CPcor>
#         <CTcor>3.2500e-006</CTcor>
#         <!-- WBOTC not applicable unless ConductivityType = 1. -->
#         <WBOTC>0.00000000e+000</WBOTC>
#       </Coefficients>
#       <Slope>1.00000000</Slope>
#       <Offset>0.00000</Offset>
#     </ConductivitySensor>
#   </sensor>
#   <sensor Channel="3" >
#     <!-- Count, Pressure, Strain Gauge -->
#     <PressureSensor SensorID="46" >
#       <SerialNumber>8188</SerialNumber>
#       <CalibrationDate>11-Aug-22</CalibrationDate>
#       <PA0>1.62794185e-001</PA0>
#       <PA1>4.83584930e-004</PA1>
#       <PA2>-3.97548787e-012</PA2>
#       <PTEMPA0>-5.70955636e+001</PTEMPA0>
#       <PTEMPA1>5.24856726e+001</PTEMPA1>
#       <PTEMPA2>-2.28149804e-001</PTEMPA2>
#       <PTCA0>5.24480263e+005</PTCA0>
#       <PTCA1>2.81719406e+001</PTCA1>
#       <PTCA2>-5.84268386e-001</PTCA2>
#       <PTCB0>2.52208750e+001</PTCB0>
#       <PTCB1>5.75000000e-004</PTCB1>
#       <PTCB2>0.00000000e+000</PTCB2>
#       <Offset>0.000000</Offset>
#     </PressureSensor>
#   </sensor>
#   <sensor Channel="4" >
#     <!-- A/D voltage 0, Fluorometer, WET Labs ECO-AFL/FL -->
#     <FluoroWetlabECO_AFL_FL_Sensor SensorID="20" >
#       <SerialNumber>FLNTURT-7096</SerialNumber>
#       <CalibrationDate>01-Sep-2022</CalibrationDate>
#       <ScaleFactor>5.00000000e+001</ScaleFactor>
#       <!-- Dark output -->
#       <Vblank>0.0680</Vblank>
#     </FluoroWetlabECO_AFL_FL_Sensor>
#   </sensor>
#   <sensor Channel="5" >
#     <!-- A/D voltage 1, Turbidity Meter, WET Labs, ECO-NTU -->
#     <TurbidityMeter SensorID="67" >
#       <SerialNumber>FLNTURT-7096</SerialNumber>
#       <CalibrationDate>01-Sep-2022</CalibrationDate>
#       <ScaleFactor>197.000000</ScaleFactor>
#       <!-- Dark output -->
#       <DarkVoltage>0.067000</DarkVoltage>
#     </TurbidityMeter>
#   </sensor>
#   <sensor Channel="6" >
#     <!-- A/D voltage 2, Oxygen, SBE 43 -->
#     <OxygenSensor SensorID="38" >
#       <SerialNumber>4269</SerialNumber>
#       <CalibrationDate>16-Aug-22</CalibrationDate>
#       <Use2007Equation>1</Use2007Equation>
#       <CalibrationCoefficients equation="0" >
#         <!-- Coefficients for Owens-Millard equation. -->
#         <Boc>0.0000</Boc>
#         <Soc>0.0000e+000</Soc>
#         <offset>0.0000</offset>
#         <Pcor>0.00e+000</Pcor>
#         <Tcor>0.0000</Tcor>
#         <Tau>0.0</Tau>
#       </CalibrationCoefficients>
#       <CalibrationCoefficients equation="1" >
#         <!-- Coefficients for Sea-Bird equation - SBE calibration in 2007 and later. -->
#         <Soc>4.2506e-001</Soc>
#         <offset>-0.4922</offset>
#         <A>-4.5893e-003</A>
#         <B> 1.8653e-004</B>
#         <C>-2.0781e-006</C>
#         <D0> 2.5826e+000</D0>
#         <D1> 1.92634e-004</D1>
#         <D2>-4.64803e-002</D2>
#         <E> 3.6000e-002</E>
#         <Tau20> 2.3100</Tau20>
#         <H1>-3.3000e-002</H1>
#         <H2> 5.0000e+003</H2>
#         <H3> 1.4500e+003</H3>
#       </CalibrationCoefficients>
#     </OxygenSensor>
#   </sensor>
#   <sensor Channel="7" >
#     <!-- A/D voltage 3, PAR/Logarithmic, Satlantic -->
#     <PARLog_SatlanticSensor SensorID="76" >
#       <SerialNumber>2209</SerialNumber>
#       <CalibrationDate>14-Jan-2022</CalibrationDate>
#       <a0>9.8861e-001</a0>
#       <a1>8.0845e-001</a1>
#       <Im>1.3589e+000</Im>
#       <Multiplier>1.0000e+000</Multiplier>
#     </PARLog_SatlanticSensor>
#   </sensor>
#   <sensor Channel="8" >
#     <!-- Serial RS-232, Fluorometer, WET Labs ECO-AFL/FL, 2 -->
#     <FluoroWetlabECO_AFL_FL_Sensor SensorID="20" >
#       <SerialNumber>FL3-7350</SerialNumber>
#       <CalibrationDate>10-Mar-2022</CalibrationDate>
#       <ScaleFactor>4.26000000e-002</ScaleFactor>
#       <!-- Dark output -->
#       <Vblank>50.0000</Vblank>
#     </FluoroWetlabECO_AFL_FL_Sensor>
#   </sensor>
#   <sensor Channel="9" >
#     <!-- Serial RS-232, Fluorometer, WET Labs ECO-AFL/FL, 3 -->
#     <FluoroWetlabECO_AFL_FL_Sensor SensorID="20" >
#       <SerialNumber>FL3-7350</SerialNumber>
#       <CalibrationDate>10-Mar-2022</CalibrationDate>
#       <ScaleFactor>4.23000000e-002</ScaleFactor>
#       <!-- Dark output -->
#       <Vblank>48.0000</Vblank>
#     </FluoroWetlabECO_AFL_FL_Sensor>
#   </sensor>
#   <sensor Channel="10" >
#     <!-- Serial RS-232, Fluorometer, WET Labs ECO CDOM -->
#     <FluoroWetlabCDOM_Sensor SensorID="19" >
#       <SerialNumber>FL3-7350</SerialNumber>
#       <CalibrationDate>10-Mar-2022</CalibrationDate>
#       <ScaleFactor>0.090</ScaleFactor>
#       <!-- Dark output -->
#       <Vblank>50.000</Vblank>
#     </FluoroWetlabCDOM_Sensor>
#   </sensor>
# </Sensors>
# datcnv_date = Mar 20 2023 15:37:33, 7.26.7.129 [datcnv_vars = 15]
# datcnv_in = C:\R\Reservoirs\Data\DataNotYetUploadedToEDI\Raw_CTD\RawDownloads\030623_fcr50_S8188006.hex C:\R\Reservoirs\Data\DataNotYetUploadedToEDI\Raw_CTD\RawDownloads\SBE19plusV2_8188_start20221003.xmlcon
# datcnv_skipover = 0
# datcnv_ox_hysteresis_correction = yes
# datcnv_ox_tau_correction = yes
# filter_date = Mar 20 2023 15:44:42, 7.26.7.129
# filter_in = C:\R\Reservoirs\Data\DataNotYetUploadedToEDI\Raw_CTD\RawDownloads\030623_fcr50_S8188006.cnv
# filter_low_pass_tc_A = 0.500
# filter_low_pass_tc_B = 1.000
# filter_low_pass_A_vars = sbeox0Mg/L sbeox0PS specc c0uS/cm tv290C
# filter_low_pass_B_vars = depFM dz/dtM prdM prdE
# alignctd_date = Mar 20 2023 15:45:28, 7.26.7.129
# alignctd_in = C:\R\Reservoirs\Data\DataNotYetUploadedToEDI\Raw_CTD\RawDownloads\030623_fcr50_S8188006.cnv
# alignctd_adv = dz/dtM 1.000, sbeox0PS 1.000, specc 1.000, c0uS/cm 1.000, flECO-AFL 1.000, turbWETntu0 1.000                                                                                                                        
# file_type = ascii
*END*
     -0.663 4.5605e-09     8.7021     88.514      3.011   2.477769    -4.5000    -0.1308    -2.1300    -2.0304 1.6834e+02    -0.0326     -0.650     -0.943    16.1050 0.0000e+00
     -0.663 5.8635e-09     8.7038     88.548      3.049   2.509627    -4.5000    -0.1231    -2.1300    -2.0304 1.5724e+02    -0.1078     -0.650     -0.943    16.1116 0.0000e+00
     -0.663 7.5388e-09     8.7059     88.570      3.110   2.561236    -4.5000    -0.1002    -2.1300    -2.0304 1.4831e+02    -0.0927     -0.650     -0.943    16.1199 0.0000e+00
     -0.663 9.6927e-09     8.7083     88.581      3.131   2.579128     0.0000    -0.1079     0.0000     0.1692 1.1548e+03    -0.3933     -0.650     -0.943    16.1298 0.0000e+00
     -0.663 1.2462e-08     8.7102     88.580      3.010   2.481072     0.0000    -0.1041     0.0000     0.1692 1.2402e+03    -0.3482     -0.650     -0.943    16.1416 0.0000e+00
     -0.663 1.6023e-08     8.7108     88.571      2.791   2.302217     0.0000    -0.1041     0.0000     0.1692 1.3177e+03    -0.3182     -0.650     -0.943    16.1565 0.0000e+00
     -0.663 2.0601e-08     8.7095     88.563      2.569   2.121416     0.0000    -0.0850     0.0000     0.1692 5.5057e+02    -0.4084     -0.650     -0.943    16.1756 0.0000e+00
     -0.663 2.6486e-08     8.7061     88.559      2.377   1.965595     0.0000    -0.0773     0.0000     0.1692 2.0884e+02    -0.4384     -0.650     -0.943    16.2001 0.0000e+00
     -0.663 3.4054e-08     8.7001     88.564      2.213   1.832745     0.0000    -0.0888    -0.0426    -0.4230 2.2036e+02    -0.4084     -0.650     -0.943    16.2318 0.0000e+00
     -0.663 4.3784e-08     8.6918     88.579      2.060   1.709189     0.0000    -0.1269    -0.0426    -0.4230 2.5818e+02    -0.4084     -0.650     -0.943    16.2725 0.0000e+00
     -0.663 5.6293e-08     8.6817     88.605      1.918   1.593616     0.0000    -0.1002    -0.0426    -0.4230 8.9695e+02    -0.4234     -0.650     -0.943    16.3231 0.0000e+00
     -0.663 7.2377e-08     8.6707     88.643      1.792   1.490795     0.0000    -0.1002    -0.0426    -0.4230 1.3522e+03    -0.3933     -0.650     -0.943    16.3815 0.0000e+00
     -0.663 9.3056e-08     8.6596     88.689      1.679   1.399013     0.0000    -0.0926    -0.6390     1.0152 1.3540e+03    -0.3031     -0.650     -0.943    16.4444 0.0000e+00
     -0.663 1.1964e-07     8.6494     88.735      1.584   1.321473     0.0000    -0.0926    -0.6390     1.0152 1.3584e+03    -0.4084     -0.650     -0.943    16.5086 0.0000e+00
     -0.663 1.5383e-07     8.6404     88.775      1.512   1.263203     0.0000    -0.0850    -0.6390     1.0152 1.3495e+03    -0.3783     -0.650     -0.943    16.5721 0.0000e+00
     -0.664 1.9778e-07     8.6330     88.807      1.450   1.212619     0.0000    -0.1117    -0.6390     1.0152 1.3607e+03    -0.4084     -0.651     -0.944    16.6333 0.0000e+00
     -0.664 2.5429e-07     8.6270     88.832      1.381   1.156231     0.1800    -0.0850    -0.2982     2.4957 1.3643e+03    -0.3933     -0.651     -0.944    16.6916 0.0000e+00
     -0.664 3.2694e-07     8.6215     88.850      1.315   1.102729     0.1800    -0.1002    -0.2982     2.4957 1.3575e+03    -0.3482     -0.651     -0.944    16.7464 0.0000e+00
     -0.664 4.2035e-07     8.6162     88.860      1.281   1.075411     0.1800    -0.1002    -0.2982     2.4957 1.3682e+03    -0.4084     -0.651     -0.944    16.7976 0.0000e+00
     -0.664 5.4045e-07     8.6107     88.859      1.291   1.084787     0.1800    -0.1079    -0.2982     2.4957 1.3177e+03    -0.3783     -0.651     -0.944    16.8452 0.0000e+00
     -0.664 6.9487e-07     8.6051     88.848      1.341   1.127426    -0.2700    -0.1002    -0.6390     0.1269 2.2569e+02    -0.3332     -0.651     -0.944    16.8893 0.0000e+00
     -0.664 8.9340e-07     8.5995     88.833      1.422   1.196905    -0.2700    -0.1117    -0.6390     0.1269 1.6344e+02    -0.3783     -0.651     -0.944    16.9302 0.0000e+00
     -0.664      0.000     8.5937     88.817      1.544   1.299888    -0.2700    -0.1346    -0.6390     0.1269 1.9797e+02    -0.4534     -0.651     -0.944    16.9679 0.0000e+00
     -0.664      0.000     8.5874     88.801      1.714   1.444065    -0.2700    -0.0964    -0.6390     0.1269 3.1463e+02    -0.4384     -0.651     -0.944    17.0025 0.0000e+00
     -0.664      0.000     8.5807     88.779      1.896   1.598681    -0.2700    -0.0773    -0.6390     0.1269 1.8820e+02    -0.3482     -0.651     -0.944    17.0341 0.0000e+00
     -0.664      0.000     8.5740     88.756      2.056   1.733790     0.0000    -0.1155    -0.1704    -0.0846 1.6548e+02    -0.4234     -0.651     -0.944    17.0630 0.0000e+00
     -0.664      0.000     8.5679     88.742      2.188   1.845875     0.0000    -0.0964    -0.1704    -0.0846 1.6234e+02    -0.4384     -0.651     -0.944    17.0892 0.0000e+00
     -0.664      0.000     8.5620     88.742      2.277   1.921326     0.0000    -0.0926    -0.1704    -0.0846 1.6941e+02    -0.0777     -0.651     -0.944    17.1127 0.0000e+00
     -0.664      0.000     8.5562     88.747      2.316   1.954559     0.0000    -0.1041    -0.1704    -0.0846 1.6860e+02    -0.1078     -0.651     -0.944    17.1338 0.0000e+00
     -0.664      0.000     8.5506     88.750      2.329   1.966300     0.0000    -0.0850     0.5538     0.4653 1.5680e+02    -0.1679     -0.651     -0.944    17.1527 0.0000e+00
     -0.664      0.000     8.5463     88.754      2.344   1.979452     0.0000    -0.1079     0.5538     0.4653 1.5467e+02    -0.2430     -0.651     -0.944    17.1696 0.0000e+00
     -0.664      0.000     8.5435     88.762      2.381   2.011364     0.0000    -0.1079     0.5538     0.4653 1.5246e+02    -0.4084     -0.651     -0.944    17.1850 0.0000e+00
     -0.664      0.000     8.5414     88.777      2.443   2.064612     0.0000    -0.1269     0.5538     0.4653 1.9158e+02    -0.4084     -0.651     -0.944    17.1993 0.0000e+00
     -0.664      0.000     8.5393     88.795      2.503   2.115830     0.0000    -0.1041    -0.4686     0.0000 1.8367e+02    -0.3933     -0.651     -0.944    17.2132 0.0000e+00
     -0.664      0.000     8.5371     88.813      2.527   2.137153     0.0000    -0.0926    -0.4686     0.0000 1.6677e+03    -0.3482     -0.651     -0.944    17.2271 0.0000e+00
     -0.664      0.000     8.5354     88.830      2.509   2.122403     0.0000    -0.1002    -0.4686     0.0000 1.5225e+03    -0.0927     -0.651     -0.944    17.2415 0.0000e+00
     -0.664      0.000     8.5341     88.851      2.476   2.095328     0.0000    -0.1002    -0.4686     0.0000 6.2901e+02    -0.1679     -0.651     -0.944    17.2567 0.0000e+00
     -0.664      0.000     8.5331     88.872      2.462   2.084300     0.0000    -0.1193    -0.6390    -1.2690 7.0595e+02    -0.1979     -0.651     -0.944    17.2724 0.0000e+00
     -0.664      0.000     8.5320     88.886      2.473   2.094286     0.0000    -0.1002    -0.6390    -1.2690 4.5632e+02    -0.1378     -0.651     -0.944    17.2882 0.0000e+00
     -0.664      0.000     8.5309     88.893      2.493   2.112132     0.0000    -0.0392    -0.6390    -1.2690 3.4869e+02    -0.3633     -0.651     -0.944    17.3035 0.0000e+00
     -0.664      0.000     8.5304     88.894      2.491   2.110961     0.0000    -0.0278    -0.6390    -1.2690 2.3917e+02    -0.3182     -0.651     -0.944    17.3177 0.0000e+00
     -0.664      0.000     8.5302     88.892      2.438   2.066733     0.0000    -0.0506    -0.6390    -1.2690 2.4152e+02    -0.3783     -0.651     -0.944    17.3309 0.0000e+00
     -0.663      0.000     8.5293     88.892      2.344   1.987426     0.0000    -0.0354    -0.2982     0.2538 1.8620e+02    -0.3482     -0.651     -0.944    17.3433 0.0000e+00
     -0.663      0.000     8.5277     88.894      2.239   1.899346     0.0000     0.0867    -0.2982     0.2538 1.9067e+02     0.0426     -0.651     -0.944    17.3556 0.0000e+00
     -0.663      0.000     8.5256     88.897      2.132   1.808664     0.0000     0.0905    -0.2982     0.2538 1.8877e+02     0.1177     -0.650     -0.943    17.3682 0.0000e+00
     -0.663      0.000     8.5232     88.909      2.011   1.707017     0.0000     0.0752    -0.2982     0.2538 1.6157e+02     0.0426     -0.650     -0.943    17.3812 0.0000e+00
     -0.663      0.000     8.5208     88.928      1.881   1.596956     0.0000     0.0333    -0.5964    -1.1844 1.2378e+02     0.1327     -0.650     -0.943    17.3946 0.0000e+00
     -0.662      0.001     8.5186     88.953      1.753   1.488677     0.0000    -0.3139    -0.5964    -1.1844 9.0132e+01    -0.7390     -0.650     -0.943    17.4082 0.0000e+00
     -0.662      0.001     8.5165     88.979      1.637   1.390872     0.0000    -0.2948    -0.5964    -1.1844 8.3079e+01    -0.5737     -0.650     -0.942    17.4220 0.0000e+00
     -0.662      0.001     8.5151     89.004      1.545   1.313048     0.0000    -0.2795    -0.5964    -1.1844 9.0466e+01    -0.6488     -0.649     -0.942    17.4359 0.0000e+00
     -0.662      0.001     8.5146     89.023      1.483   1.260158     0.0000    -0.3139    -0.8520     0.0846 9.3605e+01    -0.5587     -0.649     -0.941    17.4496 0.0000e+00
     -0.661      0.002     8.5146     89.036      1.438   1.222050     0.0000    -0.0278    -0.8520     0.0846 9.4402e+01     0.6137     -0.649     -0.941    17.4628 0.0000e+00
     -0.661      0.002     8.5149     89.044      1.394   1.184608     0.0000    -0.0430    -0.8520     0.0846 9.7912e+01     0.5836     -0.648     -0.940    17.4754 0.0000e+00
     -0.660      0.003     8.5151     89.047      1.353   1.149710     0.0000    -0.0735    -0.8520     0.0846 1.1502e+02     0.5235     -0.648     -0.939    17.4873 0.0000e+00
     -0.660      0.004     8.5150     89.049      1.333   1.131778     0.0000    -0.0430    -1.9596     1.1421 1.2819e+02     0.5987     -0.647     -0.938    17.4983 0.0000e+00
     -0.659      0.005     8.5145     89.052      1.346   1.141845     0.0000    -0.1002    -1.9596     1.1421 1.2948e+02     3.1989     -0.646     -0.937    17.5084 0.0000e+00
     -0.658      0.006     8.5137     89.054      1.402   1.186551     0.0000    -0.1308    -1.9596     1.1421 1.3141e+02     3.1388     -0.645     -0.935    17.5175 0.0000e+00
     -0.656      0.008     8.5126     89.058      1.514   1.277818     0.0000    -0.1422    -1.9596     1.1421 1.3787e+02     3.1388     -0.643     -0.933    17.5254 0.0000e+00
     -0.654      0.010     8.5117     89.058      1.708   1.436029     0.0000    -0.1117    -1.9596     1.1421 1.4068e+02     3.2440     -0.641     -0.930    17.5315 0.0000e+00
     -0.652      0.013     8.5112     89.050      2.031   1.699420     0.0000     1.1205    -2.1300    -4.1031 1.4415e+02     0.0426     -0.639     -0.927    17.5354 0.0000e+00
     -0.648      0.016     8.5113     89.037      2.569   2.138227     0.0000     1.0785    -2.1300    -4.1031 1.5436e+02     0.1478     -0.636     -0.922    17.5363 0.0000e+00
     -0.644      0.021     8.5123     89.025      3.462   2.865512     0.0000     1.0900    -2.1300    -4.1031 1.8467e+02     0.1027     -0.632     -0.916    17.5330 0.0000e+00
     -0.639      0.027     8.5142     89.014      4.947   4.075218     0.0000     1.1014    -2.1300    -4.1031 1.4110e+03     0.1177     -0.626     -0.909    17.5234 0.0000e+00
     -0.632      0.034     8.5169     89.005      7.447   6.111682     0.0000     2.6349    -2.6412    -0.8037 1.4508e+03    16.6358     -0.620     -0.899    17.5040 0.0000e+00
     -0.623      0.043     8.5223     88.999     11.339   9.274745     0.0000     2.6426    -2.6412    -0.8037 1.4442e+03    16.6809     -0.611     -0.886    17.4687 0.0000e+00
     -0.611      0.052     8.5324     89.000     16.328  13.290507     0.0000     2.6616    -2.6412    -0.8037 1.4327e+03    16.7410     -0.600     -0.870    17.4074 0.0000e+00
     -0.597      0.062     8.5503     89.010     21.520  17.394223     0.0000     2.6159    -2.6412    -0.8037 1.4464e+03    16.7711     -0.586     -0.849    17.3033 0.0000e+00
     -0.580      0.071     8.5812     89.026     25.973  20.814355     0.3600     1.8262     1.9596     4.5261 1.4546e+03     1.5305     -0.568     -0.824    17.1297 0.0000e+00
     -0.559      0.079     8.6304     89.051     29.097  23.091374     0.3600     1.8682     1.9596     4.5261 1.4830e+03     1.4854     -0.548     -0.795    16.8581 0.0000e+00
     -0.537      0.085     8.6999     89.086     31.049  24.377229     0.3600     1.8148     1.9596     4.5261 1.4846e+03     1.5606     -0.527     -0.764    16.4823 0.0000e+00
     -0.514      0.090     8.7860     89.130     32.311  25.080131     0.3600     1.8377     1.9596     4.5261 1.4895e+03     1.6057     -0.504     -0.730    16.0268 0.0000e+00
     -0.490      0.093     8.8823     89.188     33.180  25.452838     3.4200     1.9521     0.0426     0.3384 1.4811e+03     1.3652     -0.480     -0.696    15.5276 0.0000e+00
     -0.465      0.094     8.9840     89.269     33.838  25.656094     3.4200     1.9674     0.0426     0.3384 1.4747e+03     1.3351     -0.456     -0.662    15.0131 0.0000e+00
     -0.441      0.095     9.0887     89.390     34.390  25.789621     3.4200     1.9445     0.0426     0.3384 1.4670e+03     1.4103     -0.433     -0.628    14.4974 0.0000e+00
     -0.417      0.096     9.1957     89.579     34.884  25.902873     3.4200     1.9635     0.0426     0.3384 1.4603e+03     1.2750     -0.409     -0.593    13.9847 0.0000e+00
     -0.393      0.096     9.3040     89.852     35.335  26.016143     3.4200     2.0780     0.0426     0.3384 1.4549e+03     1.6207     -0.385     -0.558    13.4820 0.0000e+00
     -0.368      0.096     9.4115     90.196     35.752  26.137851     3.2400     2.0856     0.0000     0.4653 1.4508e+03     1.5907     -0.360     -0.522    13.0038 0.0000e+00
     -0.342      0.095     9.5167     90.585     36.156  26.280653     3.2400     2.0971     0.0000     0.4653 1.4098e+03     1.5005     -0.336     -0.486    12.5655 0.0000e+00
     -0.318      0.093     9.6197     90.996     36.536  26.433133     3.2400     2.0894     0.0000     0.4653 1.3344e+03     1.5305     -0.312     -0.451    12.1790 0.0000e+00
     -0.294      0.090     9.7203     91.402     36.835  26.548842     3.2400     2.0932     0.0000     0.4653 1.1723e+03     1.5305     -0.289     -0.418    11.8511 0.0000e+00
     -0.271      0.086     9.8169     91.754     37.026  26.603202     3.1500     2.1047     0.0426     0.4653 9.2566e+02     1.6357     -0.266     -0.386    11.5817 0.0000e+00
     -0.249      0.082     9.9078     91.993     37.121  26.600810     3.1500     2.0704     0.0426     0.4653 6.5311e+02     1.5305     -0.245     -0.355    11.3639 0.0000e+00
     -0.228      0.077     9.9923     92.056     37.129  26.546963     3.1500     2.0780     0.0426     0.4653 4.2006e+02     1.5756     -0.224     -0.325    11.1883 0.0000e+00
     -0.209      0.072    10.0691     91.882     37.063  26.449079     3.1500     2.1505     0.0426     0.4653 2.6009e+02     1.5456     -0.206     -0.298    11.0464 0.0000e+00
     -0.192      0.066    10.1346     91.376     36.948  26.322627     3.3300     2.1543     0.0000     0.7614 2.7242e+02     1.5907     -0.189     -0.273    10.9300 0.0000e+00
     -0.176      0.060    10.1834     90.378     36.819  26.189316     3.3300     2.1581     0.0000     0.7614 4.3229e+02     1.6207     -0.173     -0.250    10.8323 0.0000e+00
     -0.161      0.054    10.2095     88.612     36.710  26.071008     3.3300     2.1276     0.0000     0.7614 6.4732e+02     1.6207     -0.158     -0.229    10.7498 0.0000e+00
     -0.147      0.047    10.2062     85.663     36.644  25.981683     3.3300     2.1581     0.0000     0.7614 8.7863e+02     1.5606     -0.145     -0.209    10.6798 0.0000e+00
     -0.136      0.040    10.1639     81.556     36.621  25.921276     3.3300     2.1581     0.0000     0.7614 1.0883e+03     1.5606     -0.134     -0.193    10.6189 0.0000e+00
     -0.127      0.032    10.0654     77.353     36.627  25.879617     3.4200     2.1505     0.0426     0.3384 1.2472e+03     1.6207     -0.125     -0.180    10.5627 0.0000e+00
     -0.120      0.026     9.8807     74.386     36.648  25.849553     3.4200     2.1581     0.0426     0.3384 1.3463e+03     1.6508     -0.118     -0.171    10.5070 0.0000e+00
     -0.115      0.019     9.5641     73.281     36.683  25.830985     3.4200     2.2039     0.0426     0.3384 1.3891e+03     1.5756     -0.113     -0.163    10.4491 0.0000e+00
     -0.111      0.014     9.1181     73.972     36.728  25.822919     3.4200     2.2153     0.0426     0.3384 1.3924e+03     1.5305     -0.109     -0.158    10.3883 0.0000e+00
     -0.109      0.010     8.6611     76.014     36.780  25.823203     3.3300     2.2001     0.0426     0.3807 1.3961e+03     1.5907     -0.107     -0.154    10.3260 0.0000e+00
     -0.107      0.006     8.3417     78.787     36.839  25.831912     3.3300     2.1886     0.0426     0.3807 1.3979e+03     1.5305     -0.105     -0.152    10.2646 0.0000e+00
     -0.106      0.004     8.2302     81.639     36.909  25.851366     3.3300     2.2191     0.0426     0.3807 1.3943e+03     1.6207     -0.104     -0.151    10.2063 0.0000e+00
     -0.106      0.002     8.3195     83.922     36.991  25.882794     3.3300     2.2001     0.0426     0.3807 1.3897e+03     1.6057     -0.104     -0.151    10.1522 0.0000e+00
     -0.106      0.001     8.5597     85.128     37.082  25.924677     3.3300     2.2001     0.0426     0.3807 1.3897e+03     1.5907     -0.104     -0.150    10.1028 0.0000e+00
     -0.106      0.001     8.8816     85.238     37.177  25.972346     3.3300     2.2001     0.0426     0.3807 1.3852e+03     1.6207     -0.104     -0.150    10.0582 0.0000e+00
     -0.106      0.000     9.2118     84.744     37.263  26.016736     3.3300     2.2153     0.0426     0.3807 1.3753e+03     1.6207     -0.104     -0.150    10.0183 0.0000e+00
     -0.106      0.000     9.4769     84.234     37.324  26.045930     3.3300     2.1924     0.0426     0.3807 1.3684e+03     1.5756     -0.104     -0.150     9.9833 0.0000e+00
     -0.106      0.000     9.6194     84.074     37.349  26.051873     3.3300     2.2115     0.0426     0.5499 1.3652e+03     1.5907     -0.104     -0.150     9.9535 0.0000e+00
     -0.106      0.000     9.6372     84.307     37.353  26.044069     3.3300     2.2115     0.0426     0.5499 1.3593e+03     1.5456     -0.104     -0.150     9.9285 0.0000e+00
     -0.106      0.000     9.5859     84.731     37.355  26.036274     3.3300     2.2001     0.0426     0.5499 1.3599e+03     1.5606     -0.104     -0.150     9.9076 0.0000e+00
     -0.105      0.001     9.5322     85.048     37.352  26.026410     3.3300     2.2077     0.0426     0.5499 1.3504e+03     1.6508     -0.103     -0.149     9.8896 0.0000e+00
     -0.105      0.001     9.5175     85.039     37.341  26.011845     3.3300     2.2153     0.0426     0.5499 1.3481e+03     1.6057     -0.103     -0.149     9.8739 0.0000e+00
     -0.105      0.001     9.5471     84.638     37.334  26.000573     3.4200     2.2077     0.0426     0.5076 1.3481e+03     1.4404     -0.103     -0.149     9.8600 0.0000e+00
     -0.105      0.001     9.5978     83.867     37.337  25.997507     3.4200     2.1543     0.0426     0.5076 1.3440e+03     1.6207     -0.103     -0.149     9.8479 0.0000e+00
     -0.104      0.001     9.6361     82.784     37.344  25.997870     3.4200     2.1390     0.0426     0.5076 1.3434e+03     1.6357     -0.102     -0.148     9.8372 0.0000e+00
     -0.104      0.001     9.6373     81.486     37.349  25.997799     3.4200     2.1428     0.0426     0.5076 1.3396e+03     1.6057     -0.102     -0.148     9.8278 0.0000e+00
     -0.104      0.001     9.5937     80.120     37.352  25.997275     3.4200     2.1276     0.0426     0.5076 1.3393e+03     1.5907     -0.102     -0.147     9.8195 0.0000e+00
     -0.103      0.001     9.5079     78.872     37.353  25.996158     3.4200     2.2229     0.0426     0.5076 1.3385e+03     1.5456     -0.101     -0.147     9.8124 0.0000e+00
     -0.103      0.001     9.3863     77.916     37.358  25.998109     3.4200     2.2115     0.0426     0.5076 1.3329e+03     1.5756     -0.101     -0.146     9.8063 0.0000e+00
     -0.103      0.001     9.2402     77.358     37.366  26.003649     3.4200     2.2039     0.0426     0.5076 1.3263e+03     1.5606     -0.101     -0.146     9.8015 0.0000e+00
     -0.103      0.001     9.0861     77.228     37.376  26.010296     3.4200     2.2077     0.0426     0.4230 1.3324e+03     1.5305     -0.101     -0.146     9.7979 0.0000e+00
     -0.102      0.000     8.9451     77.502     37.395  26.023781     3.4200     2.2497     0.0426     0.4230 6.3423e+02     1.5155     -0.100     -0.145     9.7955 0.0000e+00
     -0.102      0.000     8.8371     78.103     37.422  26.043742     3.4200     2.2725     0.0426     0.4230 7.1304e+02     1.5155     -0.100     -0.145     9.7939 0.0000e+00
     -0.102      0.000     8.7739     78.918     37.449  26.063624     3.4200     2.2497     0.0426     0.4230 4.0766e+02     1.6057     -0.100     -0.145     9.7932 0.0000e+00
     -0.102     -0.001     8.7592     79.812     37.477  26.084769     3.4200     2.2535     0.0000     0.4653 1.2902e+03     1.5155     -0.100     -0.145     9.7931 0.0000e+00
     -0.102     -0.001     8.7901     80.656     37.502  26.104897     3.4200     2.4022     0.0000     0.4653 1.2902e+03     1.5305     -0.100     -0.145     9.7937 0.0000e+00
     -0.103     -0.002     8.8580     81.359     37.511  26.113538     3.4200     2.4022     0.0000     0.4653 1.3326e+03     1.6057     -0.101     -0.145     9.7948 0.0000e+00
     -0.103     -0.003     8.9501     81.870     37.495  26.105078     3.4200     2.4061     0.0000     0.4653 1.3425e+03     1.5756     -0.101     -0.146     9.7966 0.0000e+00
     -0.103     -0.004     9.0510     82.164     37.456  26.081221     3.4200     2.3908     0.0000     0.4653 1.3257e+03     1.5606     -0.101     -0.146     9.7989 0.0000e+00
     -0.104     -0.005     9.1462     82.257     37.414  26.055402     3.4200     2.3870     0.0000     0.3384 1.3203e+03     1.6057     -0.102     -0.148     9.8018 0.0000e+00
     -0.106     -0.006     9.2250     82.203     37.394  26.044492     3.4200     2.3794     0.0000     0.3384 1.3507e+03     1.5456     -0.104     -0.150     9.8054 0.0000e+00
     -0.108     -0.006     9.2820     82.056     37.392  26.045581     3.4200     2.3794     0.0000     0.3384 1.3504e+03     1.4854     -0.106     -0.153     9.8096 0.0000e+00
     -0.110     -0.006     9.3144     81.841     37.390  26.047081     3.4200     2.3717     0.0000     0.3384 1.3625e+03     1.4253     -0.108     -0.157     9.8140 0.0000e+00
     -0.112     -0.005     9.3240     81.559     37.385  26.045433     3.4200     2.4518     0.0000     0.5076 1.3646e+03     1.4854     -0.110     -0.159     9.8183 0.0000e+00
     -0.113     -0.003     9.3170     81.217     37.380  26.044159     3.4200     2.4480     0.0000     0.5076 1.3649e+03     1.5005     -0.111     -0.160     9.8223 0.0000e+00
     -0.113     -0.001     9.2996     80.842     37.382  26.046876     3.4200     2.4480     0.0000     0.5076 1.3792e+03     1.5756     -0.111     -0.161     9.8259 0.0000e+00
     -0.113      0.001     9.2745     80.468     37.385  26.050351     3.4200     2.4785     0.0000     0.5076 1.3750e+03     1.6207     -0.111     -0.161     9.8291 0.0000e+00
     -0.112      0.003     9.2419     80.119     37.384  26.051551     3.4200     2.5052     0.0000     0.5499 1.3813e+03     1.5155     -0.110     -0.160     9.8319 0.0000e+00
     -0.111      0.004     9.2027     79.806     37.375  26.046836     3.4200     2.5091     0.0000     0.5499 1.3786e+03     1.5907     -0.109     -0.158     9.8344 0.0000e+00
     -0.110      0.004     9.1597     79.539     37.356  26.034949     3.4200     2.5129     0.0000     0.5499 1.3676e+03     1.6808     -0.108     -0.156     9.8365 0.0000e+00
     -0.108      0.004     9.1169     79.322     37.344  26.028557     3.4200     2.4938     0.0000     0.5499 1.3762e+03     1.5305     -0.106     -0.154     9.8386 0.0000e+00
     -0.107      0.004     9.0769     79.151     37.349  26.033874     3.3300     2.3794     0.0000     0.5076 1.3673e+03     1.6057     -0.105     -0.153     9.8407 0.0000e+00
     -0.106      0.004     9.0410     78.996     37.356  26.040442     3.3300     2.4022     0.0000     0.5076 1.3729e+03     1.4554     -0.104     -0.151     9.8430 0.0000e+00
     -0.105      0.004     9.0102     78.814     37.355  26.042092     3.3300     2.3984     0.0000     0.5076 1.3431e+03     1.6808     -0.103     -0.150     9.8452 0.0000e+00
     -0.104      0.004     8.9852     78.572     37.354  26.043224     3.3300     2.4061     0.0000     0.5076 3.7920e+02     1.6207     -0.102     -0.148     9.8475 0.0000e+00
     -0.104      0.003     8.9653     78.255     37.358  26.048099     3.3300     2.3298     0.0000     0.5076 1.1812e+03     1.5005     -0.101     -0.147     9.8499 0.0000e+00
     -0.103      0.003     8.9472     77.865     37.364  26.054058     3.4200     2.3450     0.0426     0.4653 1.3584e+03     1.6357     -0.101     -0.146     9.8525 0.0000e+00
     -0.102      0.003     8.9260     77.419     37.368  26.058731     3.4200     2.3336     0.0426     0.4653 1.3631e+03     1.5756     -0.100     -0.145     9.8551 0.0000e+00
     -0.101      0.003     8.8980     76.953     37.378  26.067322     3.4200     2.3565     0.0426     0.4653 1.3628e+03     1.5456     -0.099     -0.144     9.8579 0.0000e+00
     -0.101      0.002     8.8616     76.506     37.402  26.086083     3.4200     2.5129     0.0426     0.4653 1.3658e+03     1.5756     -0.099     -0.143     9.8606 0.0000e+00
     -0.100      0.002     8.8169     76.110     37.437  26.112099     3.4200     2.4900     0.0426     0.4653 1.3667e+03     1.6057     -0.098     -0.143     9.8632 0.0000e+00
     -0.100      0.003     8.7659     75.780     37.475  26.140427     3.4200     2.5014     0.0426     0.4653 1.3744e+03     1.5606     -0.098     -0.142     9.8657 0.0000e+00
     -0.099      0.003     8.7126     75.505     37.521  26.174665     3.4200     2.5396     0.0426     0.4653 1.3801e+03     1.6508     -0.097     -0.141     9.8681 0.0000e+00
     -0.098      0.002     8.6615     75.266     37.578  26.216022     3.4200     2.5663     0.0426     0.4653 1.3900e+03     1.5456     -0.096     -0.140     9.8704 0.0000e+00
     -0.098      0.002     8.6163     75.040     37.631  26.255731     3.4200     2.5701     0.0000     0.4653 1.3852e+03     1.5907     -0.096     -0.139     9.8725 0.0000e+00
     -0.097      0.002     8.5784     74.795     37.674  26.288543     3.4200     2.5777     0.0000     0.4653 1.3876e+03     1.6207     -0.095     -0.138     9.8748 0.0000e+00
     -0.097      0.002     8.5468     74.499     37.709  26.315291     3.4200     2.5548     0.0000     0.4653 1.3864e+03     1.5005     -0.095     -0.138     9.8772 0.0000e+00
     -0.096      0.001     8.5192     74.129     37.730  26.333208     3.4200     2.5854     0.0000     0.4653 1.3798e+03     1.6207     -0.094     -0.137     9.8799 0.0000e+00
     -0.096      0.001     8.4930     73.679     37.735  26.339153     3.4200     2.5854     0.0852     0.5076 1.3834e+03     1.5005     -0.094     -0.137     9.8829 0.0000e+00
     -0.096      0.001     8.4646     73.152     37.711  26.324814     3.4200     2.5701     0.0852     0.5076 1.3831e+03     1.5756     -0.094     -0.136     9.8864 0.0000e+00
     -0.096      0.001     8.4303     72.559     37.632  26.270530     3.4200     2.5586     0.0852     0.5076 1.3789e+03     1.6508     -0.094     -0.136     9.8901 0.0000e+00
     -0.095      0.001     8.3877     71.895     37.461  26.149946     3.4200     2.3183     0.0852     0.5076 1.3729e+03     1.5907     -0.093     -0.136     9.8939 0.0000e+00
     -0.095      0.001     8.3361     71.143     37.186  25.952684     3.4200     2.3450     0.0852     0.5076 1.3484e+03     1.6057     -0.093     -0.135     9.8976 0.0000e+00
     -0.095      0.001     8.2760     70.344     36.885  25.731062     3.4200     2.3107     0.0000     0.5076 1.3460e+03     1.5907     -0.093     -0.135     9.9005 0.0000e+00
     -0.094      0.001     8.2086     69.741     36.675  25.564556     3.4200     2.3069     0.0000     0.5076 1.3498e+03     1.6057     -0.092     -0.134     9.9019 0.0000e+00
     -0.094      0.001     8.1338     69.828     36.580  25.470130     3.4200     2.5663     0.0000     0.5076 1.3513e+03     1.5756     -0.092     -0.134     9.9002 0.0000e+00
     -0.094      0.001     8.0501     71.162     36.546  25.414686     3.4200     2.5968     0.0000     0.5076 1.3495e+03     1.5155     -0.092     -0.134     9.8932 0.0000e+00
     -0.094      0.001     7.9629     74.069     36.534  25.373538     3.4200     2.5968     0.0426     0.5076 1.3607e+03     1.5305     -0.092     -0.133     9.8775 0.0000e+00
     -0.094      0.000     7.9002     78.505     36.531  25.341652     3.4200     2.5663     0.0426     0.5076 1.3762e+03     1.6057     -0.092     -0.133     9.8500 0.0000e+00
     -0.094      0.000     7.9178     84.102     36.545  25.324381     3.4200     2.6121     0.0426     0.5076 1.3840e+03     1.5305     -0.092     -0.133     9.8118 0.0000e+00
     -0.093      0.000     8.0780     90.285     36.573  25.321077     3.4200     2.6197     0.0426     0.5076 1.3891e+03     1.6508     -0.091     -0.133     9.7679 0.0000e+00
     -0.093 -9.014e-10     8.4174     96.371     36.598  25.318980     3.4200     2.6426     0.0426     0.6345 1.3819e+03     1.6508     -0.091     -0.133     9.7236 0.0000e+00
     -0.093 -1.159e-09     8.9306    101.680     36.614  25.313573     3.4200     2.6235     0.0426     0.6345 1.3867e+03     1.5456     -0.091     -0.133     9.6824 0.0000e+00
     -0.093 -1.490e-09     9.5754    105.691     36.625  25.307371     3.4200     2.3870     0.0426     0.6345 1.3828e+03     1.5606     -0.091     -0.133     9.6459 0.0000e+00
     -0.093 -1.916e-09    10.2867    108.186     36.629  25.298722     3.4200     2.3946     0.0426     0.6345 1.3765e+03     1.5305     -0.091     -0.133     9.6146 0.0000e+00
     -0.093 -2.463e-09    10.9864    109.283     36.629  25.289277     3.4200     2.4366     0.0426     0.5499 1.3795e+03     1.5606     -0.091     -0.133     9.5882 0.0000e+00
     -0.093 -3.167e-09    11.5971    109.313     36.633  25.284436     3.4200     2.4022     0.0426     0.5499 1.3756e+03     1.6658     -0.091     -0.133     9.5659 0.0000e+00
     -0.093 -4.072e-09    12.0593    108.632     36.639  25.282907     3.4200     2.4785     0.0426     0.5499 1.3795e+03     1.5606     -0.091     -0.133     9.5472 0.0000e+00
     -0.093 -5.235e-09    12.3480    107.526     36.643  25.280324     3.4200     2.4480     0.0426     0.5499 1.3822e+03     1.5907     -0.091     -0.133     9.5316 0.0000e+00
     -0.094 -6.731e-09    12.4765    106.216     36.648  25.279956     3.4200     2.4518     0.0426     0.5499 1.3750e+03     1.5456     -0.092     -0.133     9.5188 0.0000e+00
     -0.094 -8.654e-09    12.4827    104.848     36.654  25.281706     3.4200     2.4671     0.0852     0.6345 1.3783e+03     1.5907     -0.092     -0.133     9.5084 0.0000e+00
     -0.094 -1.113e-08    12.4072    103.503     36.656  25.282080     3.4200     2.5129     0.0852     0.6345 1.3831e+03     1.7860     -0.092     -0.133     9.5000 0.0000e+00
     -0.094 -1.431e-08    12.2827    102.232     36.654  25.281179     3.4200     2.5129     0.0852     0.6345 1.3807e+03     1.8762     -0.092     -0.133     9.4933 0.0000e+00
     -0.094 -1.839e-08    12.1345    101.071     36.648  25.278762     3.4200     2.5091     0.0852     0.6345 1.3861e+03     1.8311     -0.092     -0.133     9.4882 0.0000e+00
     -0.094 -2.365e-08    11.9792    100.053     36.644  25.278144     3.4200     2.5129     0.0000     0.5922 1.3795e+03     1.8462     -0.092     -0.133     9.4850 0.0000e+00
     -0.094 -3.040e-08    11.8258     99.203     36.648  25.283119     3.4200     2.4938     0.0000     0.5922 1.3810e+03     1.4704     -0.092     -0.133     9.4838 0.0000e+00
     -0.094 -3.909e-08    11.6804     98.519     36.656  25.291055     3.4200     2.5167     0.0000     0.5922 1.3705e+03     1.5606     -0.092     -0.133     9.4844 0.0000e+00
     -0.094 -5.026e-08    11.5472     97.983     36.665  25.300109     3.4200     2.5052     0.0000     0.5922 1.3584e+03     1.5305     -0.092     -0.133     9.4863 0.0000e+00
     -0.094 -6.462e-08    11.4302     97.583     36.674  25.308738     3.4200     2.5167     0.0000     0.6345 1.3507e+03     1.6357     -0.092     -0.133     9.4889 0.0000e+00
     -0.094 -8.308e-08    11.3323     97.303     36.673  25.311322     3.4200     2.5396     0.0000     0.6345 1.3487e+03     1.5155     -0.092     -0.133     9.4920 0.0000e+00
     -0.094 -1.068e-07    11.2532     97.115     36.664  25.308552     3.4200     2.5243     0.0000     0.6345 1.3498e+03     1.6057     -0.092     -0.133     9.4953 0.0000e+00
     -0.094 -1.373e-07    11.1911     96.983     36.658  25.307607     3.4200     2.5014     0.0000     0.6345 1.3472e+03     1.4854     -0.092     -0.133     9.4991 0.0000e+00
     -0.094 -1.766e-07    11.1443     96.867     36.655  25.308236     3.4200     2.5281     0.0000     0.5499 1.3425e+03     1.5305     -0.092     -0.133     9.5032 0.0000e+00
     -0.094 -2.270e-07    11.1111     96.737     36.649  25.306647     3.4200     2.5129     0.0000     0.5499 1.3460e+03     1.5907     -0.092     -0.133     9.5076 0.0000e+00
     -0.094 -2.919e-07    11.0885     96.572     36.647  25.306375     3.4200     2.5243     0.0000     0.5499 1.3495e+03     1.6057     -0.092     -0.133     9.5121 0.0000e+00
     -0.094 -3.753e-07    11.0722     96.365     36.654  25.311308     3.4200     2.5358     0.0000     0.5499 1.3534e+03     1.6508     -0.092     -0.133     9.5165 0.0000e+00
     -0.094 -4.825e-07    11.0579     96.126     36.667  25.318802     3.4200     2.5243     0.0000     0.5499 1.3634e+03     1.6057     -0.092     -0.133     9.5205 0.0000e+00
     -0.094 -4.825e-07    11.0422     95.877     36.681  25.326896     3.4200     2.5243     0.0426     0.5499 1.3801e+03     1.6508     -0.092     -0.133     9.5235 0.0000e+00
     -0.094 -3.753e-07    11.0230     95.642     36.697  25.335768     3.4200     2.6235     0.0426     0.5499 1.3858e+03     1.7860     -0.092     -0.133     9.5250 0.0000e+00
     -0.093 -2.919e-07    10.9995     95.452     36.708  25.341846     3.4200     2.6464     0.0426     0.5499 1.3888e+03     1.8462     -0.091     -0.133     9.5246 0.0000e+00
     -0.093 -2.270e-07    10.9727     95.333     36.711  25.342791     3.4200     2.6235     0.0426     0.5499 1.3897e+03     1.7860     -0.091     -0.133     9.5229 0.0000e+00
     -0.093 -1.766e-07    10.9449     95.293     36.704  25.338855     3.4200     2.6159     0.0852     0.5922 1.3891e+03     1.6808     -0.091     -0.133     9.5204 0.0000e+00
     -0.093 -1.373e-07    10.9188     95.315     36.690  25.330968     3.4200     2.5815     0.0852     0.5922 1.3882e+03     1.7560     -0.091     -0.133     9.5178 0.0000e+00
     -0.093 -1.068e-07    10.8975     95.374     36.667  25.319007     3.4200     2.5663     0.0852     0.5922 1.3873e+03     1.8462     -0.091     -0.133     9.5158 0.0000e+00
     -0.093 -8.307e-08    10.8843     95.446     36.644  25.307699     3.4200     2.5777     0.0852     0.5922 1.3909e+03     1.7860     -0.091     -0.133     9.5147 0.0000e+00
     -0.093 -6.461e-08    10.8796     95.509     36.627  25.301950     3.4200     2.5739     0.0000     0.4230 1.3870e+03     1.8161     -0.091     -0.133     9.5153 0.0000e+00
     -0.093 -5.026e-08    10.8814     95.544     36.611  25.296266     3.4200     2.5167     0.0000     0.4230 1.3864e+03     1.5606     -0.091     -0.133     9.5181 0.0000e+00
     -0.093 -3.909e-08    10.8869     95.534     36.594  25.289131     3.4200     2.5091     0.0000     0.4230 1.3831e+03     1.5907     -0.091     -0.133     9.5232 0.0000e+00
     -0.093 -3.040e-08    10.8933     95.470     36.581  25.282603     3.4200     2.5243     0.0000     0.4230 1.3813e+03     1.5155     -0.091     -0.133     9.5301 0.0000e+00
     -0.093 -2.365e-08    10.8986     95.356     36.570  25.274941     3.4200     2.5319     0.0000     0.4230 1.3816e+03     1.4704     -0.091     -0.133     9.5377 0.0000e+00
     -0.093 -1.839e-08    10.9006     95.203     36.563  25.268061     3.4200     2.5281     0.0000     0.5499 1.3792e+03     1.7710     -0.091     -0.133     9.5449 0.0000e+00
     -0.093 -1.430e-08    10.8979     95.021     36.564  25.264088     3.4200     2.5281     0.0000     0.5499 1.3858e+03     1.8913     -0.091     -0.133     9.5508 0.0000e+00
     -0.093 -1.113e-08    10.8897     94.826     36.565  25.258002     3.4200     2.5167     0.0000     0.5499 1.3813e+03     1.7860     -0.091     -0.133     9.5543 0.0000e+00
     -0.093 -8.654e-09    10.8766     94.639     36.560  25.248180     3.4200     2.5358     0.0000     0.5499 1.3789e+03     1.8462     -0.091     -0.133     9.5548 0.0000e+00
     -0.093 -6.731e-09    10.8599     94.480     36.561  25.243880     3.4200     2.6426     0.0426     0.5076 1.3813e+03     1.5305     -0.091     -0.132     9.5517 0.0000e+00
     -0.093 -5.235e-09    10.8409     94.362     36.573  25.247915     3.4200     2.6311     0.0426     0.5076 1.3804e+03     1.5606     -0.091     -0.132     9.5451 0.0000e+00
     -0.093 -4.072e-09    10.8208     94.294     36.580  25.249484     3.4200     2.6082     0.0426     0.5076 1.3831e+03     1.5456     -0.091     -0.132     9.5365 0.0000e+00
     -0.093 -3.167e-09    10.8017     94.273     36.582  25.249003     3.4200     2.6426     0.0426     0.5076 1.3843e+03     1.6207     -0.091     -0.132     9.5279 0.0000e+00
     -0.093 -2.463e-09    10.7854     94.291     36.592  25.254264     3.4200     2.7227     0.0000     0.5922 1.3819e+03     1.7710     -0.091     -0.132     9.5207 0.0000e+00
     -0.093 -1.916e-09    10.7733     94.341     36.605  25.262710     3.4200     2.6922     0.0000     0.5922 1.3858e+03     1.8011     -0.091     -0.132     9.5152 0.0000e+00
     -0.093 -1.490e-09    10.7667     94.412     36.619  25.272634     3.4200     2.7036     0.0000     0.5922 1.3879e+03     1.7259     -0.091     -0.132     9.5110 0.0000e+00
     -0.093 -1.159e-09    10.7651     94.493     36.632  25.282724     3.4200     2.6998     0.0000     0.5922 1.3801e+03     1.8311     -0.091     -0.132     9.5077 0.0000e+00
     -0.093 -9.014e-10    10.7677     94.578     36.637  25.287751     3.4200     2.6464     0.0426     0.6768 1.3864e+03     1.8011     -0.091     -0.132     9.5056 0.0000e+00
     -0.093 -7.011e-10    10.7737     94.670     36.637  25.289057     3.4200     2.6578     0.0426     0.6768 1.3822e+03     1.7560     -0.091     -0.132     9.5047 0.0000e+00
     -0.093 -5.453e-10    10.7816     94.774     36.640  25.290948     3.4200     2.6578     0.0426     0.6768 1.3807e+03     1.8011     -0.091     -0.132     9.5051 0.0000e+00
     -0.093 -4.241e-10    10.7904     94.891     36.636  25.286011     3.4200     2.6311     0.0426     0.6768 1.3840e+03     1.7860     -0.091     -0.132     9.5066 0.0000e+00
     -0.093 -3.299e-10    10.7996     95.023     36.624  25.272930     3.4200     2.5510     0.0426     0.6768 1.3789e+03     1.7560     -0.091     -0.132     9.5088 0.0000e+00
     -0.093 -2.566e-10    10.8097     95.171     36.616  25.260094     3.4200     2.5586     0.0000     0.5922 1.3768e+03     1.8462     -0.091     -0.132     9.5105 0.0000e+00
     -0.093 -1.995e-10    10.8215     95.322     36.616  25.251997     3.4200     2.5968     0.0000     0.5922 1.3777e+03     1.8161     -0.091     -0.132     9.5106 0.0000e+00
     -0.093 -1.552e-10    10.8357     95.451     36.632  25.254398     3.4200     2.5663     0.0000     0.5922 1.3822e+03     1.7259     -0.091     -0.132     9.5077 0.0000e+00
     -0.093 -1.207e-10    10.8524     95.540     36.658  25.263977     3.4200     2.6159     0.0000     0.5922 1.3792e+03     1.6658     -0.091     -0.132     9.5012 0.0000e+00
     -0.093 -9.388e-11    10.8719     95.579     36.680  25.271413     3.4200     2.6388     0.0426     0.6768 1.3831e+03     1.4854     -0.091     -0.132     9.4914 0.0000e+00
     -0.093 -7.302e-11    10.8922     95.564     36.695  25.274727     3.4200     2.6388     0.0426     0.6768 1.3801e+03     1.5606     -0.091     -0.132     9.4797 0.0000e+00
     -0.093 -5.680e-11    10.9100     95.496     36.704  25.274805     3.4200     2.6349     0.0426     0.6768 1.3813e+03     1.5606     -0.091     -0.132     9.4679 0.0000e+00
     -0.093 -4.418e-11    10.9230     95.374     36.708  25.271666     3.4200     2.7646     0.0426     0.6768 1.3840e+03     1.8011     -0.091     -0.132     9.4567 0.0000e+00
     -0.093 -3.436e-11    10.9302     95.205     36.705  25.264473     3.4200     2.7608     0.0426     0.6768 1.3864e+03     1.8612     -0.091     -0.132     9.4463 0.0000e+00
     -0.093 -2.672e-11    10.9310     95.014     36.697  25.255267     3.4200     2.7608     0.0426     0.6768 1.3909e+03     1.7560     -0.091     -0.132     9.4368 0.0000e+00
     -0.093 -2.078e-11    10.9254     94.841     36.691  25.249511     3.4200     2.7570     0.0426     0.6768 1.3828e+03     1.8612     -0.091     -0.132     9.4281 0.0000e+00
     -0.093 -1.616e-11    10.9134     94.711     36.692  25.249630     3.4200     2.6388     0.0426     0.6768 1.3825e+03     1.7860     -0.091     -0.132     9.4203 0.0000e+00
     -0.093 -1.257e-11    10.8958     94.637     36.695  25.251696     3.4200     2.6578     0.0426     0.6768 1.3852e+03     1.8011     -0.091     -0.132     9.4138 0.0000e+00
     -0.093 -9.773e-12    10.8752     94.628     36.694  25.252300     3.4200     2.6502     0.0426     0.6768 1.3813e+03     1.7259     -0.091     -0.132     9.4090 0.0000e+00
     -0.093 -7.598e-12    10.8562     94.680     36.691  25.251605     3.4200     2.6273     0.0426     0.6768 1.3828e+03     1.7860     -0.091     -0.132     9.4061 0.0000e+00
     -0.093 -5.907e-12    10.8416     94.780     36.685  25.249425     3.4200     2.5892     0.0426     0.6768 1.3825e+03     1.7860     -0.091     -0.132     9.4052 0.0000e+00
     -0.093 -4.590e-12    10.8329     94.908     36.683  25.249136     3.4200     2.5625     0.0426     0.6768 1.3807e+03     1.8161     -0.091     -0.132     9.4057 0.0000e+00
     -0.093 -3.564e-12    10.8315     95.032     36.683  25.250664     3.4200     2.5854     0.0000     0.7191 1.3834e+03     1.8462     -0.091     -0.132     9.4072 0.0000e+00
     -0.093 -2.764e-12    10.8370     95.123     36.682  25.250455     3.4200     2.5625     0.0000     0.7191 1.3795e+03     1.8161     -0.091     -0.132     9.4093 0.0000e+00
     -0.093 -2.140e-12    10.8478     95.170     36.679  25.248454     3.4200     2.6998     0.0000     0.7191 1.3792e+03     1.6357     -0.091     -0.132     9.4114 0.0000e+00
     -0.093 -1.652e-12    10.8619     95.181     36.672  25.244128     3.4200     2.6960     0.0000     0.7191 1.3840e+03     1.6207     -0.091     -0.132     9.4134 0.0000e+00
     -0.093 -1.269e-12    10.8758     95.167     36.666  25.240283     3.4200     2.7151     0.0426     0.6768 1.3822e+03     1.5005     -0.091     -0.132     9.4150 0.0000e+00
     -0.093 -9.664e-13    10.8859     95.138     36.665  25.239851     3.4200     2.6883     0.0426     0.6768 1.3819e+03     1.5756     -0.091     -0.132     9.4159 0.0000e+00
     -0.093 -7.252e-13    10.8912     95.102     36.668  25.242717     3.4200     2.8219     0.0426     0.6768 1.3843e+03     1.5456     -0.091     -0.132     9.4164 0.0000e+00
     -0.093 -5.301e-13    10.8924     95.060     36.677  25.249647     3.4200     2.8257     0.0426     0.6768 1.3876e+03     1.5155     -0.091     -0.132     9.4165 0.0000e+00
     -0.093 -3.686e-13    10.8908     95.017     36.689  25.258529     3.4200     2.8295     0.0426     0.6768 1.3888e+03     1.5155     -0.091     -0.132     9.4167 0.0000e+00
     -0.093 -2.305e-13    10.8874     94.976     36.695  25.263813     3.4200     2.8333     0.0426     0.6768 1.3891e+03     1.5456     -0.091     -0.132     9.4171 0.0000e+00
     -0.093 -1.071e-13    10.8829     94.937     36.693  25.262949     3.4200     2.7723     0.0426     0.6768 1.3870e+03     1.5606     -0.091     -0.132     9.4180 0.0000e+00
     -0.093 9.5916e-15    10.8779     94.891     36.687  25.259667     3.4200     2.7570     0.0426     0.6768 1.3846e+03     1.6207     -0.091     -0.132     9.4193 0.0000e+00
     -0.093 1.2687e-13    10.8726     94.839     36.688  25.261009     3.4200     2.7685     0.0426     0.5499 1.3840e+03     1.6207     -0.091     -0.132     9.4206 0.0000e+00
     -0.093 2.5221e-13    10.8676     94.786     36.688  25.263373     3.4200     2.7799     0.0426     0.5499 1.3867e+03     1.4854     -0.091     -0.132     9.4216 0.0000e+00
     -0.093 3.9356e-13    10.8629     94.737     36.685  25.263431     3.4200     2.7608     0.0426     0.5499 1.3879e+03     1.8462     -0.091     -0.132     9.4224 0.0000e+00
     -0.093 5.5989e-13    10.8575     94.693     36.689  25.269117     3.4200     2.7952     0.0426     0.5499 1.3825e+03     1.8762     -0.091     -0.132     9.4234 0.0000e+00
     -0.093 7.6177e-13    10.8511     94.651     36.699  25.277988     3.4200     2.7646     0.0426     0.5499 1.3864e+03     1.8311     -0.091     -0.132     9.4251 0.0000e+00
     -0.093 1.0120e-12    10.8443     94.603     36.705  25.284491     3.4200     2.7494     0.0000     0.7191 1.3864e+03     1.7560     -0.091     -0.132     9.4278 0.0000e+00
     -0.093 1.3265e-12    10.8378     94.559     36.710  25.290362     3.4200     2.8371     0.0000     0.7191 1.3858e+03     1.6057     -0.091     -0.132     9.4312 0.0000e+00
     -0.093 1.7253e-12    10.8319     94.526     36.711  25.293205     3.4200     2.7952     0.0000     0.7191 1.3849e+03     1.5907     -0.091     -0.132     9.4346 0.0000e+00
     -0.093 2.2335e-12    10.8263     94.496     36.697  25.285862     3.4200     2.8142     0.0000     0.7191 1.3858e+03     1.6357     -0.091     -0.132     9.4378 0.0000e+00
     -0.093 2.8836e-12    10.8201     94.469     36.671  25.270332     3.4200     2.8371     0.0426     0.5922 1.3822e+03     1.6207     -0.091     -0.132     9.4406 0.0000e+00
     -0.093 3.7168e-12    10.8144     94.460     36.644  25.254353     3.4200     3.0736     0.0426     0.5922 1.3943e+03     1.8161     -0.091     -0.132     9.4434 0.0000e+00
     -0.093 4.7859e-12    10.8097     94.488     36.622  25.241582     3.4200     3.0469     0.0426     0.5922 1.3894e+03     1.8011     -0.091     -0.132     9.4465 0.0000e+00
     -0.093 6.1589e-12    10.8054     94.564     36.611  25.236531     3.4200     3.0927     0.0426     0.5922 1.3885e+03     1.8311     -0.091     -0.132     9.4498 0.0000e+00
     -0.093 7.9230e-12    10.8015     94.681     36.609  25.237853     3.4200     3.0736     0.0000     0.5922 1.3876e+03     1.8161     -0.091     -0.132     9.4533 0.0000e+00
     -0.093 1.0190e-11    10.7996     94.820     36.610  25.241943     3.4200     2.9210     0.0000     0.5922 1.3852e+03     1.5305     -0.091     -0.132     9.4567 0.0000e+00
     -0.093 1.3104e-11    10.8019     94.963     36.616  25.249891     3.4200     2.9439     0.0000     0.5922 1.3855e+03     1.5606     -0.091     -0.132     9.4600 0.0000e+00
     -0.093 1.6850e-11    10.8097     95.099     36.617  25.255898     3.4200     2.9363     0.0000     0.5922 1.3834e+03     1.5606     -0.091     -0.132     9.4634 0.0000e+00
     -0.093 2.1666e-11    10.8221     95.210     36.611  25.257607     3.4200     2.9363     0.0852     0.7614 1.3888e+03     1.5155     -0.091     -0.132     9.4672 0.0000e+00
     -0.093 2.7858e-11    10.8369     95.278     36.610  25.263391     3.4200     2.9096     0.0852     0.7614 1.3876e+03     1.6057     -0.091     -0.132     9.4717 0.0000e+00
     -0.093 3.5818e-11    10.8518     95.289     36.618  25.274795     3.4200     2.9439     0.0852     0.7614 1.3852e+03     1.5606     -0.091     -0.132     9.4772 0.0000e+00
     -0.093 4.6053e-11    10.8655     95.245     36.628  25.286940     3.4200     2.9363     0.0852     0.7614 1.3852e+03     1.6207     -0.091     -0.132     9.4840 0.0000e+00
     -0.093 5.9211e-11    10.8762     95.165     36.635  25.295148     3.4200     2.9516     0.0852     0.7614 1.3861e+03     1.4854     -0.091     -0.132     9.4921 0.0000e+00
     -0.092 7.6129e-11    10.8817     95.069     36.637  25.297649     3.4200     2.9287     0.0426     0.7614 1.3864e+03     1.7860     -0.091     -0.131     9.5008 0.0000e+00
     -0.092 9.7881e-11    10.8807     94.973     36.628  25.291150     3.4200     2.9668     0.0426     0.7614 1.3840e+03     1.8311     -0.091     -0.131     9.5092 0.0000e+00
     -0.092 1.2585e-10    10.8739     94.886     36.612  25.277877     3.4200     2.9439     0.0426     0.7614 1.3825e+03     1.9063     -0.091     -0.131     9.5162 0.0000e+00
     -0.092 1.6180e-10    10.8635     94.821     36.611  25.274085     3.4200     2.9401     0.0426     0.7614 1.3840e+03     1.7860     -0.091     -0.131     9.5210 0.0000e+00
     -0.092 2.0803e-10    10.8520     94.788     36.629  25.282724     3.4200     3.0736     0.0426     0.6345 1.3867e+03     1.5756     -0.091     -0.131     9.5230 0.0000e+00
     -0.092 2.6747e-10    10.8412     94.796     36.646  25.290260     3.4200     3.0813     0.0426     0.6345 1.3834e+03     1.4854     -0.091     -0.131     9.5223 0.0000e+00
     -0.092 3.4389e-10    10.8321     94.846     36.657  25.294742     3.4200     3.0660     0.0426     0.6345 1.3879e+03     1.5756     -0.091     -0.131     9.5194 0.0000e+00
     -0.092 4.4215e-10    10.8258     94.927     36.665  25.297368     3.4200     3.0813     0.0426     0.6345 1.3879e+03     1.5155     -0.091     -0.131     9.5149 0.0000e+00
     -0.092 5.6848e-10    10.8233     95.032     36.670  25.298836     3.4200     3.0736     0.0426     0.6345 1.3885e+03     1.5907     -0.091     -0.131     9.5098 0.0000e+00
     -0.092 7.3090e-10    10.8257     95.156     36.684  25.307456     3.4200     3.0584     0.0426     0.6345 1.3882e+03     1.5606     -0.091     -0.131     9.5045 0.0000e+00
     -0.092 9.3973e-10    10.8326     95.286     36.703  25.319588     3.4200     3.0584     0.0426     0.6345 1.3879e+03     1.4554     -0.091     -0.131     9.4998 0.0000e+00
     -0.092 1.2082e-09    10.8428     95.399     36.711  25.324610     3.4200     3.0813     0.0426     0.6345 1.3852e+03     1.5756     -0.091     -0.131     9.4959 0.0000e+00
     -0.093 1.5534e-09    10.8555     95.473     36.707  25.321883     3.4200     3.0012     0.0426     0.5922 1.3849e+03     1.6057     -0.091     -0.132     9.4931 0.0000e+00
     -0.093 1.9973e-09    10.8702     95.502     36.699  25.316617     3.4200     3.0088     0.0426     0.5922 1.3843e+03     1.5907     -0.091     -0.132     9.4912 0.0000e+00
     -0.093 2.5679e-09    10.8853     95.496     36.692  25.311368     3.4200     2.9973     0.0426     0.5922 1.3840e+03     1.5155     -0.091     -0.132     9.4903 0.0000e+00
     -0.093 3.3016e-09    10.8983     95.464     36.683  25.304735     3.4200     3.0088     0.0426     0.5922 1.3852e+03     1.5907     -0.091     -0.132     9.4899 0.0000e+00
     -0.093 4.2449e-09    10.9068     95.421     36.676  25.298909     3.4200     3.0240     0.0426     0.5922 1.3846e+03     1.6808     -0.091     -0.132     9.4898 0.0000e+00
     -0.093 5.4577e-09    10.9102     95.382     36.673  25.296295     3.4200     3.0088     0.0426     0.5499 1.3834e+03     1.5606     -0.091     -0.132     9.4896 0.0000e+00
     -0.093 7.0171e-09    10.9095     95.358     36.674  25.296198     3.4200     3.0164     0.0426     0.5499 1.3864e+03     1.5005     -0.091     -0.132     9.4892 0.0000e+00
     -0.093 9.0220e-09    10.9062     95.346     36.678  25.298589     3.4200     3.0240     0.0426     0.5499 1.3852e+03     1.5606     -0.091     -0.132     9.4884 0.0000e+00
     -0.093 1.1600e-08    10.9015     95.326     36.681  25.300149     3.4200     3.0012     0.0426     0.5499 1.3831e+03     1.8462     -0.091     -0.132     9.4875 0.0000e+00
     -0.093 1.4914e-08    10.8973     95.276     36.677  25.297334     3.4200     3.0126     0.0426     0.5499 1.3840e+03     1.8612     -0.091     -0.132     9.4865 0.0000e+00
     -0.093 1.9175e-08    10.8948     95.189     36.672  25.293352     3.4200     3.0012     0.0426     0.5499 1.3846e+03     1.8311     -0.091     -0.132     9.4857 0.0000e+00
     -0.093 2.4654e-08    10.8935     95.075     36.669  25.291101     3.4200     3.0164     0.0426     0.5499 1.3873e+03     1.7860     -0.091     -0.132     9.4849 0.0000e+00
     -0.093 3.1697e-08    10.8913     94.956     36.667  25.289980     3.4200     3.0050     0.0426     0.5499 1.3885e+03     1.7860     -0.091     -0.132     9.4843 0.0000e+00
     -0.093 4.0754e-08    10.8858     94.852     36.667  25.289691     3.4200     3.0164     0.0426     0.5499 1.3840e+03     1.7259     -0.091     -0.131     9.4838 0.0000e+00
     -0.092 5.2398e-08    10.8759     94.785     36.667  25.290157     3.4200     3.0393     0.0426     0.5499 1.3810e+03     1.8612     -0.091     -0.131     9.4836 0.0000e+00
     -0.092 6.7369e-08    10.8629     94.762     36.663  25.287542     3.4200     3.0279     0.0426     0.5499 1.3828e+03     1.8161     -0.091     -0.131     9.4836 0.0000e+00
     -0.092 8.6617e-08    10.8492     94.779     36.652  25.281148     3.4200     2.9478     0.0426     0.5499 1.3828e+03     1.8612     -0.091     -0.131     9.4837 0.0000e+00
     -0.092 1.1136e-07    10.8374     94.819     36.645  25.277191     3.4200     2.9592     0.0426     0.5499 1.3843e+03     1.8462     -0.091     -0.131     9.4840 0.0000e+00
     -0.092 1.4318e-07    10.8296     94.868     36.639  25.274613     3.4200     2.9630     0.0852     0.5922 1.3822e+03     1.7860     -0.091     -0.131     9.4843 0.0000e+00
     -0.092 1.8409e-07    10.8269     94.916     36.634  25.272729     3.4200     2.9439     0.0852     0.5922 1.3789e+03     1.8161     -0.091     -0.131     9.4849 0.0000e+00
     -0.092 2.3669e-07    10.8286     94.959     36.635  25.274993     3.4200     2.9249     0.0852     0.5922 1.3840e+03     1.5305     -0.091     -0.131     9.4858 0.0000e+00
     -0.092 3.0432e-07    10.8328     94.992     36.636  25.278052     3.4200     2.9592     0.0852     0.5922 1.3840e+03     1.4854     -0.091     -0.131     9.4871 0.0000e+00
     -0.093 3.9126e-07    10.8379     95.013     36.634  25.278762     3.4200     2.9439     0.0426     0.7191 1.3798e+03     1.6808     -0.091     -0.131     9.4888 0.0000e+00
     -0.093 5.0305e-07    10.8428     95.026     36.628  25.277312     3.4200     2.9592     0.0426     0.7191 1.3789e+03     1.5155     -0.091     -0.131     9.4910 0.0000e+00
     -0.092 6.4678e-07    10.8470     95.037     36.618  25.273315     3.4200     2.9516     0.0426     0.7191 1.3825e+03     1.6207     -0.091     -0.131     9.4936 0.0000e+00
     -0.092 8.3158e-07    10.8500     95.048     36.609  25.269665     3.4200     2.9516     0.0426     0.7191 1.3768e+03     1.7259     -0.091     -0.131     9.4967 0.0000e+00
     -0.092      0.000    10.8516     95.049     36.605  25.269349     3.4200     2.9401     0.0426     0.6768 1.3759e+03     1.6057     -0.091     -0.131     9.5001 0.0000e+00
     -0.092      0.000    10.8521     95.030     36.601  25.268322     3.4200     2.9516     0.0426     0.6768 1.3705e+03     1.4554     -0.091     -0.131     9.5036 0.0000e+00
     -0.092      0.000    10.8525     94.994     36.590  25.262351     3.4200     3.0126     0.0426     0.6768 1.3699e+03     1.6357     -0.091     -0.131     9.5072 0.0000e+00
     -0.092      0.000    10.8529     94.948     36.575  25.253804     3.4200     3.0012     0.0426     0.6768 1.3711e+03     1.4854     -0.091     -0.131     9.5106 0.0000e+00
     -0.092      0.000    10.8522     94.896     36.566  25.248319     3.4200     3.0164     0.0000     0.6345 1.3661e+03     1.5155     -0.091     -0.131     9.5138 0.0000e+00
     -0.092      0.000    10.8493     94.841     36.566  25.248394     3.4200     3.0164     0.0000     0.6345 1.3667e+03     1.5155     -0.091     -0.131     9.5165 0.0000e+00
     -0.092      0.000    10.8446     94.789     36.575  25.254049     3.4200     3.0164     0.0000     0.6345 1.3607e+03     1.6207     -0.091     -0.131     9.5188 0.0000e+00
     -0.092      0.000    10.8389     94.747     36.588  25.262831     3.4200     3.0012     0.0000     0.6345 1.3607e+03     1.5305     -0.091     -0.131     9.5206 0.0000e+00
     -0.092      0.000    10.8326     94.728     36.599  25.269165     3.4200     2.9935     0.0000     0.6345 1.3601e+03     1.5756     -0.091     -0.131     9.5218 0.0000e+00
     -0.092      0.000    10.8262     94.736     36.604  25.270781     3.5100     3.0126     0.0426     0.7191 1.3554e+03     1.5606     -0.091     -0.131     9.5222 0.0000e+00
     -0.092      0.000    10.8203     94.770     36.609  25.272068     3.5100     3.0698     0.0426     0.7191 1.3522e+03     1.8462     -0.091     -0.131     9.5219 0.0000e+00
     -0.092      0.000    10.8158     94.834     36.620  25.277329     3.5100     3.0584     0.0426     0.7191 1.3540e+03     1.7560     -0.091     -0.131     9.5208 0.0000e+00
     -0.092      0.000    10.8141     94.929     36.634  25.284008     3.5100     3.0660     0.0426     0.7191 1.3519e+03     1.8011     -0.091     -0.131     9.5191 0.0000e+00
     -0.092      0.000    10.8157     95.044     36.647  25.289926     3.5100     3.0660     0.0426     0.5499 1.3516e+03     1.8762     -0.091     -0.131     9.5167 0.0000e+00
     -0.092      0.000    10.8204     95.162     36.655  25.292702     3.5100     3.0851     0.0426     0.5499 1.3519e+03     1.6207     -0.091     -0.131     9.5138 0.0000e+00
     -0.092      0.000    10.8285     95.264     36.653  25.289117     3.5100     3.0851     0.0426     0.5499 1.3487e+03     1.5005     -0.091     -0.131     9.5104 0.0000e+00
     -0.092      0.000    10.8403     95.330     36.646  25.282175     3.5100     3.0622     0.0426     0.5499 1.3522e+03     1.6508     -0.091     -0.131     9.5068 0.0000e+00
     -0.092      0.000    10.8544     95.355     36.643  25.277943     3.4200     3.0851     0.0426     0.6768 1.3490e+03     1.6357     -0.091     -0.131     9.5030 0.0000e+00
     -0.092      0.000    10.8689     95.341     36.648  25.279250     3.4200     3.1309     0.0426     0.6768 1.3475e+03     1.5305     -0.091     -0.131     9.4993 0.0000e+00
     -0.092      0.000    10.8814     95.296     36.655  25.282487     3.4200     3.1652     0.0426     0.6768 1.3487e+03     1.5305     -0.091     -0.131     9.4958 0.0000e+00
     -0.092      0.000    10.8898     95.239     36.661  25.284557     3.4200     3.1499     0.0426     0.6768 1.3475e+03     1.5305     -0.091     -0.131     9.4925 0.0000e+00
     -0.092      0.000    10.8934     95.185     36.659  25.282053     3.4200     3.1576     0.0000     0.7191 1.3484e+03     1.5907     -0.091     -0.131     9.4896 0.0000e+00
     -0.092      0.000    10.8925     95.141     36.649  25.274307     3.4200     3.0736     0.0000     0.7191 1.3481e+03     1.5155     -0.091     -0.131     9.4869 0.0000e+00
     -0.092      0.000    10.8880     95.104     36.639  25.267172     3.4200     3.0813     0.0000     0.7191 1.3463e+03     1.5907     -0.091     -0.131     9.4846 0.0000e+00
     -0.092      0.000    10.8819     95.065     36.633  25.262704     3.4200     3.0851     0.0000     0.7191 1.3469e+03     1.5005     -0.090     -0.131     9.4825 0.0000e+00
     -0.092      0.001    10.8761     95.020     36.634  25.263671     3.4200     3.0355     0.0000     0.7191 1.3469e+03     1.6207     -0.090     -0.130     9.4809 0.0000e+00
     -0.092      0.001    10.8715     94.977     36.644  25.270332     3.4200     3.0508     0.0000     0.6345 1.3463e+03     1.6207     -0.090     -0.130     9.4796 0.0000e+00
     -0.092      0.001    10.8675     94.946     36.652  25.276543     3.4200     3.0622     0.0000     0.6345 1.3460e+03     1.6207     -0.090     -0.130     9.4788 0.0000e+00
     -0.091      0.001    10.8631     94.927     36.650  25.276042     3.4200     3.0813     0.0000     0.6345 1.3463e+03     1.5907     -0.090     -0.130     9.4784 0.0000e+00
     -0.091      0.001    10.8579     94.915     36.638  25.268697     3.4200     3.0584     0.0000     0.6345 1.3463e+03     1.6357     -0.090     -0.130     9.4784 0.0000e+00
     -0.091      0.001    10.8529     94.912     36.626  25.260468     3.4200     3.0584     0.0426     0.7191 1.3455e+03     1.8762     -0.089     -0.130     9.4790 0.0000e+00
     -0.091      0.000    10.8492     94.915     36.620  25.257077     3.4200     3.0660     0.0426     0.7191 1.3443e+03     1.7860     -0.089     -0.129     9.4798 0.0000e+00
     -0.091      0.000    10.8468     94.920     36.626  25.261580     3.4200     3.0508     0.0426     0.7191 1.3484e+03     1.8462     -0.089     -0.129     9.4807 0.0000e+00
     -0.091      0.000    10.8452     94.916     36.634  25.267260     3.4200     3.0622     0.0426     0.7191 1.3452e+03     1.6508     -0.089     -0.129     9.4815 0.0000e+00
     -0.091 2.5995e-10    10.8446     94.892     36.640  25.271672     3.5100     3.1995     0.0852     0.5922 1.3457e+03     1.5606     -0.089     -0.129     9.4823 0.0000e+00
     -0.091 3.3422e-10    10.8448     94.856     36.652  25.279951     3.5100     3.1995     0.0852     0.5922 1.3455e+03     1.5305     -0.089     -0.129     9.4828 0.0000e+00
     -0.091 4.2972e-10    10.8453     94.827     36.665  25.290346     3.5100     3.1957     0.0852     0.5922 1.3452e+03     1.5907     -0.089     -0.129     9.4831 0.0000e+00
     -0.091 5.5249e-10    10.8447     94.813     36.674  25.297711     3.5100     3.1881     0.0852     0.5922 1.3466e+03     1.6207     -0.089     -0.129     9.4834 0.0000e+00
     -0.091 7.1035e-10    10.8419     94.817     36.675  25.300051     3.4200     3.2567     0.0426     0.7191 1.3452e+03     1.5756     -0.089     -0.129     9.4838 0.0000e+00
     -0.091 9.1330e-10    10.8377     94.835     36.675  25.301949     3.4200     3.2720     0.0426     0.7191 1.3495e+03     1.6508     -0.089     -0.129     9.4846 0.0000e+00
     -0.091 1.1742e-09    10.8339     94.867     36.681  25.307870     3.4200     3.2262     0.0426     0.7191 1.3446e+03     1.5907     -0.089     -0.129     9.4858 0.0000e+00
     -0.091 1.5097e-09    10.8319     94.911     36.686  25.313454     3.4200     3.2377     0.0426     0.7191 1.3452e+03     1.5456     -0.089     -0.129     9.4875 0.0000e+00
     -0.091 1.9411e-09    10.8318     94.965     36.678  25.310292     3.4200     3.2644     0.0426     0.7191 1.3431e+03     1.5456     -0.089     -0.129     9.4896 0.0000e+00
     -0.091 2.4957e-09    10.8333     95.027     36.659  25.299522     3.4200     3.2720     0.0852     0.5076 1.3399e+03     1.5907     -0.089     -0.129     9.4921 0.0000e+00
     -0.090 3.2088e-09    10.8362     95.100     36.640  25.288169     3.4200     3.2491     0.0852     0.5076 1.3425e+03     1.5155     -0.088     -0.129     9.4949 0.0000e+00
     -0.090 4.1256e-09    10.8405     95.188     36.627  25.281124     3.4200     3.2339     0.0852     0.5076 1.3422e+03     1.6057     -0.088     -0.128     9.4978 0.0000e+00
     -0.090 5.3043e-09    10.8459     95.292     36.624  25.280468     3.4200     3.3140     0.0852     0.5076 1.3443e+03     1.9514     -0.088     -0.128     9.5008 0.0000e+00
     -0.090 6.8198e-09    10.8522     95.401     36.625  25.282066     3.4200     3.2873     0.0000     0.6345 1.3417e+03     1.8612     -0.088     -0.128     9.5038 0.0000e+00
     -0.090 8.7683e-09    10.8598     95.500     36.624  25.282386     3.4200     3.2949     0.0000     0.6345 1.3452e+03     1.8161     -0.088     -0.128     9.5067 0.0000e+00
     -0.090 1.1274e-08    10.8693     95.574     36.623  25.281513     3.4200     3.3216     0.0000     0.6345 1.3414e+03     1.8462     -0.088     -0.128     9.5091 0.0000e+00
     -0.090 1.4495e-08    10.8806     95.615     36.620  25.279213     3.4200     3.5009     0.0000     0.6345 1.3411e+03     1.5907     -0.088     -0.128     9.5111 0.0000e+00
     -0.090 1.8636e-08    10.8927     95.618     36.614  25.274875     3.4200     3.5009     0.0426     0.5922 1.3431e+03     1.5756     -0.088     -0.128     9.5125 0.0000e+00
     -0.090 2.3960e-08    10.9038     95.573     36.604  25.267341     3.4200     3.4971     0.0426     0.5922 1.3455e+03     1.6207     -0.088     -0.128     9.5135 0.0000e+00
     -0.090 3.0806e-08    10.9121     95.481     36.593  25.258560     3.4200     3.4856     0.0426     0.5922 1.3431e+03     1.4554     -0.088     -0.128     9.5139 0.0000e+00
     -0.090 3.9608e-08    10.9167     95.351     36.590  25.254111     3.4200     3.5734     0.0426     0.5922 1.3469e+03     1.6357     -0.088     -0.128     9.5138 0.0000e+00
     -0.090 5.0925e-08    10.9172     95.192     36.592  25.252805     3.5100     3.5734     0.0000     0.4653 1.3495e+03     1.5005     -0.088     -0.128     9.5132 0.0000e+00
     -0.090 6.5474e-08    10.9125     95.010     36.593  25.250337     3.5100     3.5619     0.0000     0.4653 1.3534e+03     1.6808     -0.088     -0.128     9.5121 0.0000e+00
     -0.090 8.4181e-08    10.9024     94.807     36.606  25.253967     3.5100     3.5772     0.0000     0.4653 1.3590e+03     1.6207     -0.088     -0.128     9.5103 0.0000e+00
     -0.090 1.0823e-07    10.8882     94.595     36.630  25.264661     3.5100     3.5505     0.0000     0.4653 1.3664e+03     1.5907     -0.088     -0.128     9.5077 0.0000e+00
     -0.090 1.3916e-07    10.8710     94.394     36.647  25.269434     3.5100     3.5543     0.0000     0.4653 1.3699e+03     1.5305     -0.088     -0.128     9.5041 0.0000e+00
     -0.090 1.7892e-07    10.8515     94.214     36.652  25.265600     3.4200     3.5696     0.0000     0.5922 1.3765e+03     1.6207     -0.088     -0.128     9.4991 0.0000e+00
     -0.090 2.3003e-07    10.8300     94.053     36.653  25.260054     3.4200     3.5467     0.0000     0.5922 1.3753e+03     1.5005     -0.088     -0.127     9.4923 0.0000e+00
     -0.090 2.9576e-07    10.8079     93.911     36.661  25.259237     3.4200     3.5886     0.0000     0.5922 1.3729e+03     1.5305     -0.088     -0.127     9.4840 0.0000e+00
     -0.090 3.8026e-07    10.7874     93.806     36.674  25.262929     3.4200     3.5619     0.0000     0.5922 1.3723e+03     1.5155     -0.088     -0.127     9.4747 0.0000e+00
     -0.090 4.8891e-07    10.7693     93.759     36.683  25.264197     3.5100     3.5429     0.0426     0.4653 1.3744e+03     1.5606     -0.088     -0.127     9.4652 0.0000e+00
     -0.089 6.2860e-07    10.7532     93.775     36.688  25.263379     3.5100     3.5810     0.0426     0.4653 1.3807e+03     1.5907     -0.088     -0.127     9.4561 0.0000e+00
     -0.089 8.0819e-07    10.7391     93.833     36.695  25.264215     3.5100     3.5581     0.0426     0.4653 1.3765e+03     1.5606     -0.088     -0.127     9.4477 0.0000e+00
     -0.089 9.1043e-07    10.7290     93.913     36.697  25.262971     3.5100     3.5772     0.0426     0.4653 1.3759e+03     1.5305     -0.088     -0.127     9.4401 0.0000e+00
     -0.089 9.4179e-07    10.7254     94.001     36.689  25.255353     3.5100     3.5734     0.0426     0.5499 1.3762e+03     1.6207     -0.088     -0.127     9.4334 0.0000e+00
     -0.089      0.000    10.7286     94.092     36.680  25.247250     3.5100     3.5696     0.0426     0.5499 1.3744e+03     1.5305     -0.088     -0.127     9.4275 0.0000e+00
     -0.089      0.000    10.7365     94.175     36.684  25.248377     3.5100     3.6878     0.0426     0.5499 1.3750e+03     1.5305     -0.087     -0.127     9.4226 0.0000e+00
     -0.089      0.000    10.7467     94.249     36.696  25.255077     3.5100     3.6993     0.0426     0.5499 1.3741e+03     1.5606     -0.087     -0.127     9.4186 0.0000e+00
     -0.089      0.000    10.7577     94.325     36.702  25.257258     3.4200     3.6726     0.0000     0.5499 1.3777e+03     1.5456     -0.087     -0.127     9.4155 0.0000e+00
     -0.089      0.000    10.7687     94.412     36.702  25.255503     3.4200     3.6878     0.0000     0.5499 1.3756e+03     1.6959     -0.087     -0.127     9.4130 0.0000e+00
     -0.089      0.000    10.7787     94.510     36.701  25.253301     3.4200     3.6306     0.0000     0.5499 1.3732e+03     1.5606     -0.087     -0.127     9.4109 0.0000e+00
     -0.089      0.000    10.7877     94.616     36.698  25.250065     3.4200     3.6382     0.0000     0.5499 1.3738e+03     1.5456     -0.087     -0.127     9.4089 0.0000e+00
     -0.089      0.000    10.7970     94.719     36.697  25.248893     3.4200     3.6306     0.0000     0.5499 1.3753e+03     1.5305     -0.087     -0.127     9.4067 0.0000e+00
     -0.089      0.000    10.8076     94.810     36.697  25.249471     3.5100     3.6306     0.0000     0.5499 1.3738e+03     1.5155     -0.087     -0.127     9.4043 0.0000e+00
     -0.089      0.000    10.8194     94.880     36.692  25.247995     3.5100     3.4475     0.0000     0.5499 1.3729e+03     1.4854     -0.087     -0.127     9.4019 0.0000e+00
     -0.089      0.000    10.8320     94.934     36.683  25.244071     3.5100     3.4208     0.0000     0.5499 1.3732e+03     1.5305     -0.087     -0.127     9.4001 0.0000e+00
     -0.089      0.000    10.8440     94.989     36.668  25.236653     3.5100     3.4437     0.0000     0.5499 1.3723e+03     1.4854     -0.087     -0.127     9.3996 0.0000e+00
     -0.089      0.000    10.8540     95.062     36.652  25.227721     3.5100     3.4360     0.0000     0.5076 1.3759e+03     1.5907     -0.087     -0.127     9.4006 0.0000e+00
     -0.089      0.000    10.8614     95.161     36.642  25.222813     3.5100     3.3178     0.0000     0.5076 1.3714e+03     1.4854     -0.087     -0.126     9.4030 0.0000e+00
     -0.089      0.000    10.8667     95.283     36.637  25.220619     3.5100     3.3445     0.0000     0.5076 1.3729e+03     1.5305     -0.087     -0.126     9.4063 0.0000e+00
     -0.089      0.000    10.8721     95.418     36.630  25.216596     3.5100     3.3254     0.0000     0.5076 1.3756e+03     1.5756     -0.087     -0.126     9.4098 0.0000e+00
     -0.089      0.000    10.8797     95.548     36.625  25.213629     3.5100     3.3102     0.0426     0.5922 1.3726e+03     1.5005     -0.087     -0.126     9.4130 0.0000e+00
     -0.089      0.000    10.8903     95.643     36.620  25.210927     3.5100     3.2339     0.0426     0.5922 1.3732e+03     1.5907     -0.087     -0.126     9.4155 0.0000e+00
     -0.089      0.000    10.9038     95.676     36.613  25.207771     3.5100     3.2529     0.0426     0.5922 1.3711e+03     1.5155     -0.087     -0.126     9.4172 0.0000e+00
     -0.089      0.000    10.9191     95.633     36.610  25.207277     3.5100     3.2644     0.0426     0.5922 1.3729e+03     1.5005     -0.087     -0.126     9.4184 0.0000e+00
     -0.089      0.000    10.9336     95.518     36.611  25.209314     3.5100     3.2453     0.0426     0.5922 1.3738e+03     1.5756     -0.087     -0.126     9.4194 0.0000e+00
     -0.089      0.000    10.9442     95.348     36.616  25.214424     3.4200     3.2072     0.0852     0.6345 1.3717e+03     1.4854     -0.087     -0.126     9.4206 0.0000e+00
     -0.089      0.000    10.9476     95.146     36.622  25.220013     3.4200     3.2300     0.0852     0.6345 1.3750e+03     1.4554     -0.087     -0.126     9.4221 0.0000e+00
     -0.089      0.000    10.9421     94.944     36.619  25.219651     3.4200     3.1919     0.0852     0.6345 1.3726e+03     1.5606     -0.087     -0.126     9.4240 0.0000e+00
     -0.088      0.000    10.9284     94.776     36.603  25.209283     3.4200     3.2072     0.0852     0.6345 1.3699e+03     1.6508     -0.087     -0.126     9.4262 0.0000e+00
     -0.088      0.000    10.9083     94.666     36.579  25.194063     3.4200     3.1957     0.0426     0.5922 1.3729e+03     1.4854     -0.087     -0.125     9.4286 0.0000e+00
     -0.088      0.001    10.8847     94.621     36.566  25.185769     3.4200     3.1881     0.0426     0.5922 1.3732e+03     1.4704     -0.087     -0.125     9.4309 0.0000e+00
     -0.088      0.001    10.8611     94.633     36.566  25.186148     3.4200     3.1728     0.0426     0.5922 1.3720e+03     1.5305     -0.086     -0.125     9.4328 0.0000e+00
     -0.087      0.001    10.8415     94.680     36.573  25.191341     3.4200     3.1843     0.0426     0.5922 1.3729e+03     1.5305     -0.086     -0.125     9.4342 0.0000e+00
     -0.087      0.001    10.8286     94.735     36.589  25.202734     3.4200     3.1423     0.0426     0.5499 1.3735e+03     1.5907     -0.086     -0.125     9.4353 0.0000e+00
     -0.087      0.001    10.8233     94.767     36.607  25.215448     3.4200     3.1309     0.0426     0.5499 1.3726e+03     1.5155     -0.086     -0.124     9.4361 0.0000e+00
     -0.087      0.002    10.8244     94.750     36.614  25.220993     3.4200     3.1156     0.0426     0.5499 1.3720e+03     1.5305     -0.085     -0.124     9.4368 0.0000e+00
     -0.086      0.002    10.8296     94.685     36.607  25.216891     3.4200     3.1385     0.0426     0.5499 1.3711e+03     1.5907     -0.085     -0.123     9.4374 0.0000e+00
     -0.086      0.003    10.8358     94.583     36.596  25.209966     3.5100     3.0469     0.0426     0.5922 1.3717e+03     1.5606     -0.084     -0.122     9.4380 0.0000e+00
     -0.085      0.004    10.8392     94.463     36.590  25.206288     3.5100     3.0813     0.0426     0.5922 1.3735e+03     1.6207     -0.084     -0.121     9.4387 0.0000e+00
     -0.084      0.005    10.8371     94.348     36.587  25.204879     3.5100     3.0660     0.0426     0.5922 1.3720e+03     1.5155     -0.083     -0.120     9.4395 0.0000e+00
     -0.082      0.006    10.8294     94.254     36.588  25.205362     3.5100     3.0622     0.0426     0.5922 1.3720e+03     1.5305     -0.081     -0.118     9.4403 0.0000e+00
     -0.081      0.008    10.8176     94.199     36.586  25.203905     3.5100     3.0775     0.0426     0.5922 1.3735e+03     1.6057     -0.080     -0.115     9.4411 0.0000e+00
     -0.079      0.010    10.8037     94.199     36.575  25.196163     3.4200     3.0622     0.0000     0.6345 1.3726e+03     1.6057     -0.078     -0.112     9.4419 0.0000e+00
     -0.076      0.013    10.7903     94.252     36.560  25.184029     3.4200     3.0584     0.0000     0.6345 1.3732e+03     1.6057     -0.075     -0.109     9.4425 0.0000e+00
     -0.073      0.017    10.7796     94.344     36.548  25.172187     3.4200     3.0736     0.0000     0.6345 1.3696e+03     1.5756     -0.071     -0.104     9.4430 0.0000e+00
     -0.068      0.022    10.7733     94.453     36.540  25.161436     3.4200     2.9783     0.0000     0.6345 1.3699e+03     1.5907     -0.067     -0.097     9.4430 0.0000e+00
     -0.063      0.027    10.7734     94.552     36.533  25.148911     3.4200     2.9363     0.0426     0.5922 1.3714e+03     1.5005     -0.061     -0.089     9.4422 0.0000e+00
     -0.055      0.033    10.7801     94.625     36.527  25.135230     3.4200     2.9516     0.0426     0.5922 1.3640e+03     1.5756     -0.055     -0.079     9.4399 0.0000e+00
     -0.047      0.040    10.7918     94.664     36.527  25.124662     3.4200     2.9478     0.0426     0.5922 1.0940e+03     1.6508     -0.046     -0.066     9.4353 0.0000e+00
     -0.036      0.048    10.8061     94.657     36.535  25.118348     3.4200     2.6769     0.0426     0.5922 8.3380e+02     1.7560     -0.036     -0.051     9.4278 0.0000e+00
     -0.023      0.057    10.8202     94.599     36.542  25.110646     3.5100     2.6349     0.0000     0.5922 9.5987e+02     1.7860     -0.023     -0.033     9.4174 0.0000e+00
     -0.007      0.066    10.8319     94.495     36.538  25.095541     3.5100     2.6426     0.0000     0.5922 9.4559e+02     1.7710     -0.007     -0.010     9.4046 0.0000e+00
      0.011      0.075    10.8402     94.359     36.529  25.076923     3.5100     2.6616     0.0000     0.5922 5.5913e+02     1.8462      0.011      0.015     9.3899 0.0000e+00
      0.031      0.084    10.8435     94.206     36.518  25.057746     3.5100     2.4976     0.0000     0.5922 6.5056e+02     1.8462      0.031      0.045     9.3738 0.0000e+00
      0.054      0.093    10.8412     94.049     36.505  25.036855     3.5100     2.5091     0.0852     0.4653 4.4150e+02     1.8161      0.053      0.077     9.3569 0.0000e+00
      0.079      0.102    10.8337     93.889     36.505  25.024514     3.5100     2.5052     0.0852     0.4653 1.0576e+03     1.7410      0.077      0.112     9.3397 0.0000e+00
      0.106      0.110    10.8226     93.734     36.518  25.021391     3.5100     2.5358     0.0852     0.4653 3.1313e+02     1.8462      0.104      0.151     9.3228 0.0000e+00
      0.136      0.117    10.8093     93.606     36.526  25.014776     3.5100     2.5434     0.0852     0.4653 6.6427e+02     1.7860      0.133      0.193     9.3062 0.0000e+00
      0.168      0.123    10.7954     93.533     36.531  25.006863     3.5100     2.5167     0.0852     0.4653 6.3907e+02     1.8161      0.165      0.239     9.2898 0.0000e+00
      0.200      0.128    10.7814     93.537     36.537  24.999502     3.5100     2.5167     0.0426     0.4653 6.5638e+02     1.8612      0.197      0.285     9.2733 0.0000e+00
      0.234      0.130    10.7679     93.629     36.539  24.990728     3.5100     2.5281     0.0426     0.4653 5.4237e+02     1.8462      0.229      0.332     9.2565 0.0000e+00
      0.268      0.131    10.7574     93.802     36.545  24.986120     3.5100     2.9325     0.0426     0.4653 5.9848e+02     1.8462      0.263      0.381     9.2400 0.0000e+00
      0.303      0.130    10.7530     94.040     36.555  24.984449     3.5100     2.9439     0.0426     0.4653 4.8232e+02     1.7560      0.297      0.431     9.2243 0.0000e+00
      0.337      0.127    10.7573     94.324     36.561  24.981310     3.5100     2.9439     0.0852     0.4653 5.1874e+02     1.8762      0.330      0.480     9.2094 0.0000e+00
      0.369      0.124    10.7715     94.625     36.562  24.975866     3.5100     2.9516     0.0852     0.4653 5.8829e+02     1.7560      0.362      0.526     9.1955 0.0000e+00
      0.400      0.121    10.7947     94.906     36.562  24.970623     3.5100     3.3597     0.0852     0.4653 5.9601e+02     1.8311      0.392      0.569     9.1829 0.0000e+00
      0.430      0.117    10.8249     95.142     36.572  24.972102     3.5100     3.3979     0.0852     0.4653 4.1014e+02     1.7410      0.421      0.611     9.1717 0.0000e+00
      0.459      0.114    10.8602     95.311     36.585  24.976738     3.5100     3.3864     0.0426     0.5922 4.7856e+02     1.7560      0.450      0.653     9.1619 0.0000e+00
      0.488      0.112    10.8970     95.412     36.592  24.977848     3.5100     3.3941     0.0426     0.5922 4.8600e+02     1.9063      0.478      0.694     9.1533 0.0000e+00
      0.516      0.110    10.9314     95.451     36.599  24.979687     3.5100     3.7527     0.0426     0.5922 4.4111e+02     1.8161      0.506      0.734     9.1458 0.0000e+00
      0.543      0.110    10.9603     95.434     36.607  24.982747     3.5100     3.7717     0.0426     0.5922 3.9057e+02     1.8762      0.532      0.773     9.1391 0.0000e+00
      0.570      0.110    10.9814     95.381     36.612  24.983884     3.5100     3.7489     0.0426     0.5076 4.1265e+02     1.8311      0.559      0.811     9.1332 0.0000e+00
      0.597      0.112    10.9943     95.319     36.609  24.979441     3.5100     3.7298     0.0426     0.5076 3.9587e+02     1.7560      0.586      0.850     9.1282 0.0000e+00
      0.626      0.115    10.9999     95.267     36.596  24.968235     3.5100     4.3325     0.0426     0.5076 3.4801e+02     1.8462      0.614      0.890     9.1240 0.0000e+00
      0.655      0.117    10.9989     95.233     36.586  24.959153     3.5100     4.3592     0.0426     0.5076 3.4395e+02     1.7560      0.643      0.933     9.1204 0.0000e+00
      0.686      0.119    10.9935     95.215     36.583  24.953734     3.5100     4.3554     0.0426     0.5076 3.4808e+02     1.9213      0.673      0.976     9.1173 0.0000e+00
      0.718      0.119    10.9872     95.201     36.578  24.946572     3.5100     4.3401     0.0000     0.6345 3.2329e+02     1.8311      0.704      1.022     9.1145 0.0000e+00
      0.750      0.118    10.9820     95.178     36.579  24.943677     3.5100     4.8933     0.0000     0.6345 3.0256e+02     1.7560      0.736      1.067     9.1114 0.0000e+00
      0.781      0.116    10.9790     95.141     36.590  24.948235     3.5100     4.8895     0.0000     0.6345 2.7171e+02     1.7259      0.766      1.111     9.1078 0.0000e+00
      0.810      0.114    10.9781     95.084     36.596  24.949583     3.5100     4.8856     0.0000     0.6345 2.7828e+02     1.8011      0.794      1.152     9.1035 0.0000e+00
      0.837      0.113    10.9777     95.016     36.592  24.944124     3.6000     4.9009     0.0000     0.6345 2.6214e+02     1.7860      0.821      1.190     9.0988 0.0000e+00
      0.864      0.113    10.9764     94.946     36.588  24.938318     3.6000     5.5914     0.0000     0.6345 2.4795e+02     1.9063      0.847      1.229     9.0941 0.0000e+00
      0.892      0.115    10.9732     94.878     36.586  24.934576     3.6000     5.6219     0.0000     0.6345 2.4320e+02     1.8311      0.875      1.269     9.0896 0.0000e+00
      0.922      0.117    10.9678     94.814     36.586  24.931900     3.6000     5.6448     0.0000     0.6345 2.3075e+02     1.7860      0.904      1.311     9.0855 0.0000e+00
      0.952      0.120    10.9609     94.764     36.585  24.929577     3.5100     5.6524     0.0426     0.8037 2.2490e+02     1.8462      0.934      1.354     9.0817 0.0000e+00
      0.984      0.122    10.9538     94.738     36.585  24.926988     3.5100     6.3162     0.0426     0.8037 2.1609e+02     1.8762      0.965      1.400     9.0780 0.0000e+00
      1.016      0.124    10.9468     94.740     36.588  24.927400     3.5100     6.2780     0.0426     0.8037 2.1062e+02     1.8913      0.996      1.445     9.0746 0.0000e+00
      1.048      0.126    10.9404     94.764     36.602  24.934884     3.5100     6.3047     0.0426     0.8037 2.1380e+02     1.8161      1.027      1.490     9.0713 0.0000e+00
      1.080      0.125    10.9353     94.798     36.616  24.943515     3.5100     6.3086     0.0852     0.8883 2.1651e+02     1.7860      1.059      1.535     9.0682 0.0000e+00
      1.112      0.123    10.9330     94.832     36.619  24.943719     3.5100     6.6671     0.0852     0.8883 2.0267e+02     1.8762      1.091      1.582     9.0653 0.0000e+00
      1.145      0.120    10.9340     94.849     36.609  24.935550     3.5100     6.9952     0.0852     0.8883 1.9079e+02     1.8161      1.123      1.629     9.0628 0.0000e+00
      1.177      0.115    10.9373     94.836     36.594  24.924747     3.5100     6.9723     0.0852     0.8883 1.8399e+02     1.7860      1.155      1.674     9.0605 0.0000e+00
      1.206      0.109    10.9419     94.791     36.582  24.916349     3.5100     6.9838     0.0852     0.8883 1.8722e+02     1.8762      1.183      1.716     9.0585 0.0000e+00
      1.232      0.103    10.9462     94.716     36.582  24.916032     3.6000     6.9838     0.0426     0.9729 1.8592e+02     1.7860      1.208      1.752     9.0566 0.0000e+00
      1.256      0.098    10.9486     94.629     36.594  24.923714     3.6000     7.1592     0.0426     0.9729 1.8861e+02     1.8762      1.232      1.786     9.0550 0.0000e+00
      1.278      0.095    10.9475     94.561     36.609  24.933524     3.6000     7.1592     0.0426     0.9729 1.9225e+02     1.8011      1.254      1.818     9.0538 0.0000e+00
      1.301      0.094    10.9425     94.523     36.620  24.940160     3.6000     7.1707     0.0426     0.9729 1.8503e+02     1.8462      1.276      1.851     9.0530 0.0000e+00
      1.325      0.094    10.9339     94.514     36.617  24.937473     3.5100     7.1707     0.0426     1.0152 1.7491e+02     1.8311      1.300      1.885     9.0526 0.0000e+00
      1.349      0.097    10.9240     94.522     36.606  24.928706     3.5100     7.3462     0.0426     1.0152 1.7832e+02     1.7860      1.324      1.919     9.0523 0.0000e+00
      1.374      0.100    10.9162     94.525     36.601  24.923399     3.5100     7.2966     0.0426     1.0152 1.7682e+02     1.7710      1.348      1.954     9.0518 0.0000e+00
      1.399      0.104    10.9121     94.507     36.599  24.920136     3.5100     7.2737     0.0426     1.0152 1.6992e+02     1.7560      1.372      1.990     9.0509 0.0000e+00
      1.426      0.108    10.9114     94.466     36.593  24.914087     3.5100     7.2737     0.0426     1.0152 1.6915e+02     1.8011      1.398      2.027     9.0495 0.0000e+00
      1.454      0.112    10.9128     94.399     36.587  24.907600     3.5100     7.5216     0.0426     1.0152 1.6408e+02     1.8161      1.426      2.067     9.0477 0.0000e+00
      1.484      0.115    10.9137     94.301     36.590  24.906861     3.5100     7.5445     0.0426     1.0152 1.5547e+02     1.8612      1.455      2.110     9.0455 0.0000e+00
      1.515      0.117    10.9123     94.179     36.601  24.911674     3.5100     7.5598     0.0426     1.0152 1.4729e+02     1.7560      1.486      2.154     9.0429 0.0000e+00
      1.546      0.119    10.9084     94.039     36.605  24.911446     3.5100     7.5483     0.0000     1.1844 1.4293e+02     1.8311      1.516      2.198     9.0400 0.0000e+00
      1.576      0.119    10.9014     93.885     36.596  24.902155     3.5100     7.7086     0.0000     1.1844 1.4349e+02     1.9063      1.545      2.241     9.0368 0.0000e+00
      1.606      0.119    10.8910     93.720     36.587  24.893201     3.5100     7.7238     0.0000     1.1844 1.4038e+02     1.7860      1.575      2.283     9.0333 0.0000e+00
      1.636      0.120    10.8778     93.544     36.581  24.886157     3.5100     7.7086     0.0000     1.1844 1.3354e+02     1.7560      1.604      2.326     9.0296 0.0000e+00
      1.667      0.120    10.8628     93.361     36.572  24.877163     3.5100     7.7009     0.0000     1.1844 1.2716e+02     1.7259      1.634      2.370     9.0255 0.0000e+00
      1.697      0.122    10.8460     93.184     36.566  24.869760     3.5100     7.4835     0.0426     1.0575 1.2797e+02     1.8311      1.664      2.414     9.0214 0.0000e+00
      1.728      0.125    10.8280     93.021     36.564  24.865932     3.5100     7.4835     0.0426     1.0575 1.2678e+02     1.7860      1.694      2.457     9.0171 0.0000e+00
      1.759      0.127    10.8088     92.874     36.566  24.864659     3.5100     7.4911     0.0426     1.0575 1.2327e+02     1.8612      1.725      2.502     9.0129 0.0000e+00
      1.792      0.128    10.7888     92.739     36.572  24.865601     3.5100     7.4835     0.0426     1.0575 1.1554e+02     1.7259      1.757      2.549     9.0089 0.0000e+00
      1.827      0.129    10.7692     92.615     36.584  24.870989     3.5100     7.0906     0.0426     1.0152 1.0788e+02     1.7560      1.791      2.598     9.0050 0.0000e+00
      1.861      0.128    10.7515     92.498     36.604  24.882259     3.5100     7.1287     0.0426     1.0152 1.0363e+02     1.7710      1.825      2.647     9.0011 0.0000e+00
      1.894      0.126    10.7355     92.393     36.627  24.894499     3.5100     7.1020     0.0426     1.0152 1.0039e+02     1.7259      1.857      2.694     8.9973 0.0000e+00
      1.926      0.122    10.7209     92.305     36.641  24.901074     3.5100     7.0868     0.0426     1.0152 9.8767e+01     1.7860      1.888      2.739     8.9935 0.0000e+00
      1.956      0.117    10.7074     92.226     36.645  24.899780     3.6000     6.8464     0.0426     0.9306 9.6539e+01     1.9213      1.918      2.782     8.9898 0.0000e+00
      1.985      0.112    10.6948     92.149     36.642  24.894229     3.6000     6.8655     0.0426     0.9306 9.2072e+01     1.7860      1.947      2.823     8.9861 0.0000e+00
      2.013      0.107    10.6838     92.066     36.642  24.890859     3.6000     6.8541     0.0426     0.9306 8.9741e+01     1.7860      1.974      2.863     8.9820 0.0000e+00
      2.040      0.103    10.6748     91.963     36.644  24.888772     3.6000     6.8731     0.0426     0.9306 8.7185e+01     1.9063      2.001      2.902     8.9775 0.0000e+00
      2.066      0.099    10.6669     91.824     36.640  24.883452     3.6000     6.7701     0.0426     0.9306 8.4978e+01     1.8913      2.026      2.938     8.9727 0.0000e+00
      2.090      0.096    10.6592     91.644     36.634  24.877440     3.5100     6.7778     0.0426     0.8883 8.5181e+01     1.8311      2.049      2.972     8.9677 0.0000e+00
      2.113      0.093    10.6508     91.424     36.630  24.873090     3.5100     6.8159     0.0426     0.8883 8.4646e+01     1.8762      2.072      3.005     8.9630 0.0000e+00
      2.136      0.090    10.6400     91.171     36.626  24.869244     3.5100     6.7816     0.0426     0.8883 8.0467e+01     1.7860      2.095      3.038     8.9586 0.0000e+00
      2.159      0.088    10.6249     90.903     36.622  24.864875     3.5100     6.7511     0.0426     0.8883 7.7414e+01     1.8161      2.117      3.071     8.9549 0.0000e+00
      2.181      0.086    10.6049     90.639     36.614  24.858818     3.5100     6.7320     0.0426     0.8460 7.6561e+01     1.7860      2.139      3.103     8.9518 0.0000e+00
      2.203      0.085    10.5800     90.400     36.605  24.851437     3.5100     6.7472     0.0426     0.8460 7.4996e+01     1.8161      2.160      3.133     8.9496 0.0000e+00
      2.224      0.084    10.5511     90.204     36.597  24.844725     3.5100     6.7167     0.0426     0.8460 7.4980e+01     1.7410      2.181      3.163     8.9479 0.0000e+00
      2.245      0.082    10.5205     90.060     36.597  24.842828     3.5100     6.3429     0.0426     0.8460 7.3161e+01     1.6808      2.201      3.193     8.9464 0.0000e+00
      2.265      0.081    10.4904     89.971     36.606  24.847221     3.5100     6.3505     0.0426     0.8460 7.0707e+01     1.7860      2.222      3.222     8.9449 0.0000e+00
      2.287      0.080    10.4630     89.946     36.618  24.853136     3.5100     6.3696     0.0426     0.8460 6.8470e+01     1.7259      2.242      3.252     8.9433 0.0000e+00
      2.307      0.080    10.4409     90.001     36.629  24.858192     3.5100     6.3581     0.0426     0.8460 6.6882e+01     1.8612      2.263      3.282     8.9414 0.0000e+00
      2.328      0.079    10.4248     90.136     36.637  24.861757     3.5100     6.3009     0.0426     0.8460 6.5872e+01     1.5305      2.282      3.311     8.9391 0.0000e+00
      2.347      0.079    10.4151     90.339     36.641  24.862803     3.5100     6.3009     0.0426     0.8037 6.6030e+01     1.5907      2.302      3.338     8.9364 0.0000e+00
      2.366      0.079    10.4130     90.589     36.642  24.861607     3.5100     6.2933     0.0426     0.8037 6.5344e+01     1.4704      2.321      3.366     8.9335 0.0000e+00
      2.387      0.080    10.4200     90.862     36.643  24.859832     3.5100     6.3009     0.0426     0.8037 6.2852e+01     1.5305      2.340      3.394     8.9305 0.0000e+00
      2.408      0.080    10.4364     91.137     36.645  24.858982     3.5100     6.0759     0.0426     0.8037 6.0087e+01     1.8161      2.361      3.424     8.9277 0.0000e+00
      2.429      0.080    10.4606     91.390     36.645  24.856852     3.5100     6.0644     0.0426     0.8037 5.8477e+01     1.9063      2.382      3.454     8.9250 0.0000e+00
      2.449      0.079    10.4903     91.598     36.642  24.852874     3.5100     6.0606     0.0426     0.8883 5.7946e+01     1.8161      2.402      3.484     8.9221 0.0000e+00
      2.469      0.078    10.5227     91.748     36.641  24.849945     3.5100     6.0530     0.0426     0.8883 5.7494e+01     1.8612      2.421      3.512     8.9191 0.0000e+00
      2.489      0.077    10.5553     91.852     36.642  24.849265     3.5100     6.3124     0.0426     0.8883 5.5905e+01     1.7560      2.441      3.540     8.9161 0.0000e+00
      2.508      0.075    10.5853     91.921     36.647  24.850651     3.5100     6.3009     0.0426     0.8883 5.3948e+01     1.7259      2.460      3.568     8.9133 0.0000e+00
      2.528      0.074    10.6100     91.961     36.652  24.852495     3.5100     6.2895     0.0426     0.7614 5.2434e+01     1.8161      2.479      3.596     8.9106 0.0000e+00
      2.546      0.073    10.6281     91.977     36.655  24.853307     3.5100     6.3276     0.0426     0.7614 5.1642e+01     1.7560      2.498      3.622     8.9081 0.0000e+00
      2.564      0.072    10.6408     91.968     36.657  24.853304     3.5100     6.2590     0.0426     0.7614 5.1721e+01     1.6057      2.515      3.647     8.9058 0.0000e+00
      2.581      0.072    10.6494     91.934     36.658  24.852486     3.5100     6.2551     0.0426     0.7614 5.1240e+01     1.4554      2.532      3.672     8.9036 0.0000e+00
      2.599      0.073    10.6545     91.875     36.661  24.852615     3.5100     6.2361     0.0426     0.8037 4.9856e+01     1.5606      2.549      3.697     8.9017 0.0000e+00
      2.618      0.074    10.6568     91.794     36.668  24.855703     3.5100     6.2437     0.0426     0.8037 4.8414e+01     1.5456      2.568      3.724     8.8998 0.0000e+00
      2.638      0.076    10.6562     91.699     36.678  24.860594     3.5100     6.6366     0.0426     0.8037 4.7394e+01     1.8462      2.587      3.752     8.8979 0.0000e+00
      2.658      0.077    10.6527     91.604     36.687  24.864635     3.5100     6.6175     0.0426     0.8037 4.5795e+01     1.8011      2.607      3.780     8.8958 0.0000e+00
      2.678      0.077    10.6466     91.518     36.692  24.866921     3.5100     6.6023     0.0426     0.8037 4.3847e+01     1.8462      2.627      3.810     8.8934 0.0000e+00
      2.698      0.077    10.6378     91.446     36.699  24.870044     3.5100     6.6328     0.0426     0.8037 4.2895e+01     1.8462      2.646      3.838     8.8909 0.0000e+00
      2.717      0.077    10.6275     91.394     36.711  24.876815     3.5100     6.5222     0.0426     0.8037 4.3129e+01     1.5606      2.665      3.865     8.8883 0.0000e+00
      2.736      0.077    10.6171     91.366     36.722  24.883101     3.5100     6.5451     0.0426     0.8037 4.2626e+01     1.5756      2.683      3.892     8.8858 0.0000e+00
      2.755      0.077    10.6077     91.365     36.721  24.880680     3.5100     6.5527     0.0426     0.8037 4.1385e+01     1.5907      2.702      3.919     8.8835 0.0000e+00
      2.775      0.077    10.5999     91.397     36.708  24.870887     3.5100     6.5451     0.0426     0.7614 3.9642e+01     1.4854      2.721      3.947     8.8815 0.0000e+00
      2.795      0.078    10.5944     91.454     36.698  24.862987     3.5100     6.1865     0.0426     0.7614 3.8479e+01     1.7860      2.741      3.976     8.8796 0.0000e+00
      2.815      0.080    10.5915     91.512     36.696  24.860812     3.5100     6.1941     0.0426     0.7614 3.8138e+01     1.8462      2.760      4.004     8.8778 0.0000e+00
      2.835      0.083    10.5918     91.549     36.699  24.861803     3.5100     6.2094     0.0426     0.7614 3.7923e+01     1.9063      2.780      4.032     8.8761 0.0000e+00
      2.855      0.086    10.5960     91.555     36.702  24.862264     3.5100     6.2017     0.0426     0.7614 3.7627e+01     1.7860      2.800      4.061     8.8746 0.0000e+00
      2.877      0.089    10.6030     91.530     36.701  24.860340     3.5100     6.2628     0.0426     0.7614 3.6247e+01     1.7259      2.821      4.092     8.8731 0.0000e+00
      2.901      0.092    10.6101     91.476     36.697  24.855516     3.5100     6.3124     0.0426     0.7614 3.4315e+01     1.8462      2.845      4.126     8.8716 0.0000e+00
      2.926      0.094    10.6147     91.394     36.686  24.846508     3.5100     6.3009     0.0426     0.7614 3.2877e+01     1.8161      2.869      4.162     8.8700 0.0000e+00
      2.952      0.096    10.6158     91.288     36.674  24.836850     3.5100     6.3238     0.0426     0.7614 3.1726e+01     1.7560      2.894      4.198     8.8683 0.0000e+00
      2.976      0.097    10.6135     91.169     36.669  24.831886     3.5100     6.2437     0.0426     0.7614 3.1568e+01     1.7710      2.918      4.233     8.8663 0.0000e+00
      3.000      0.097    10.6079     91.045     36.672  24.832270     3.5100     6.2590     0.0426     0.7614 3.1119e+01     1.7710      2.942      4.267     8.8641 0.0000e+00
      3.024      0.098    10.5990     90.913     36.680  24.836127     3.5100     6.2323     0.0426     0.7614 3.0529e+01     1.8462      2.965      4.301     8.8618 0.0000e+00
      3.049      0.100    10.5872     90.768     36.685  24.838546     3.5100     6.2437     0.0426     0.8037 2.9828e+01     1.7710      2.990      4.336     8.8596 0.0000e+00
      3.074      0.102    10.5739     90.619     36.687  24.838192     3.5100     5.7516     0.0426     0.8037 2.8821e+01     1.8462      3.015      4.373     8.8575 0.0000e+00
      3.101      0.103    10.5600     90.477     36.687  24.836951     3.5100     5.7630     0.0426     0.8037 2.7595e+01     1.7860      3.041      4.411     8.8556 0.0000e+00
      3.129      0.104    10.5452     90.356     36.685  24.834490     3.5100     5.7707     0.0426     0.8037 2.6594e+01     1.7860      3.068      4.450     8.8537 0.0000e+00
      3.156      0.105    10.5289     90.267     36.687  24.834114     3.5100     5.7516     0.0426     0.8037 2.6290e+01     1.7410      3.095      4.488     8.8517 0.0000e+00
      3.182      0.106    10.5121     90.210     36.694  24.837702     3.5100     5.9423     0.0426     0.6768 2.6273e+01     1.7860      3.120      4.526     8.8497 0.0000e+00
      3.208      0.106    10.4962     90.182     36.700  24.840271     3.5100     5.9309     0.0426     0.6768 2.5458e+01     1.7560      3.146      4.563     8.8477 0.0000e+00
      3.235      0.107    10.4826     90.172     36.700  24.838548     3.5100     5.9385     0.0426     0.6768 2.4609e+01     1.9063      3.173      4.601     8.8458 0.0000e+00
      3.263      0.108    10.4727     90.157     36.693  24.832072     3.5100     5.9576     0.0426     0.6768 2.4044e+01     1.8762      3.200      4.641     8.8439 0.0000e+00
      3.291      0.108    10.4666     90.115     36.681  24.821097     3.5100     5.6219     0.0426     0.5922 2.3440e+01     1.8462      3.227      4.681     8.8420 0.0000e+00
      3.319      0.108    10.4638     90.032     36.666  24.808635     3.5100     5.6372     0.0426     0.5922 2.2872e+01     1.7860      3.255      4.721     8.8400 0.0000e+00
      3.347      0.107    10.4632     89.903     36.657  24.799280     3.5100     5.6295     0.0426     0.5922 2.2157e+01     1.8462      3.282      4.760     8.8377 0.0000e+00
      3.374      0.106    10.4621     89.736     36.654  24.794496     3.5100     5.6372     0.0426     0.5922 2.1554e+01     1.8011      3.309      4.799     8.8351 0.0000e+00
      3.401      0.105    10.4580     89.547     36.651  24.789049     3.5100     5.6944     0.0426     0.7191 2.1210e+01     1.8161      3.336      4.838     8.8320 0.0000e+00
      3.427      0.104    10.4493     89.357     36.646  24.781486     3.5100     5.6753     0.0426     0.7191 2.1164e+01     1.7560      3.361      4.874     8.8285 0.0000e+00
      3.452      0.105    10.4354     89.182     36.642  24.773749     3.5100     5.6944     0.0426     0.7191 2.1155e+01     1.8913      3.386      4.911     8.8244 0.0000e+00
      3.479      0.106    10.4170     89.018     36.631  24.759816     3.5100     5.7096     0.0426     0.7191 2.0495e+01     1.8762      3.411      4.948     8.8200 0.0000e+00
      3.506      0.108    10.3963     88.842     36.614  24.739931     3.5100     4.8208     0.0000     0.7614 2.0002e+01     1.5606      3.438      4.986     8.8151 0.0000e+00
      3.534      0.109    10.3757     88.621     36.612  24.728585     3.5100     4.8246     0.0000     0.7614 1.9563e+01     1.5907      3.466      5.026     8.8095 0.0000e+00
      3.563      0.108    10.3571     88.322     36.632  24.730671     3.5100     4.8284     0.0000     0.7614 1.8489e+01     1.5456      3.494      5.068     8.8026 0.0000e+00
      3.592      0.107    10.3402     87.913     36.650  24.730907     3.5100     4.8170     0.0000     0.7614 1.7733e+01     1.5606      3.522      5.109     8.7940 0.0000e+00
      3.620      0.105    10.3224     87.373     36.658  24.725399     3.5100     4.5576     0.0000     0.7614 1.7466e+01     1.5756      3.549      5.148     8.7829 0.0000e+00
      3.645      0.102    10.3001     86.700     36.665  24.720594     3.5100     4.5576     0.0852     0.6345 1.7492e+01     1.6207      3.575      5.185     8.7692 0.0000e+00
      3.670      0.100    10.2693     85.922     36.672  24.715212     3.5100     4.5652     0.0852     0.6345 1.7545e+01     1.5456      3.599      5.219     8.7537 0.0000e+00
      3.694      0.099    10.2256     85.086     36.676  24.707817     3.5100     4.5194     0.0852     0.6345 1.7251e+01     1.5907      3.622      5.254     8.7377 0.0000e+00
      3.719      0.098    10.1664     84.248     36.675  24.696435     3.5100     3.7832     0.0852     0.6345 1.6621e+01     1.5155      3.647      5.289     8.7228 0.0000e+00
      3.744      0.098    10.0914     83.464     36.676  24.685951     3.5100     3.8099     0.0426     0.5499 1.6137e+01     1.5907      3.672      5.325     8.7090 0.0000e+00
      3.770      0.097    10.0040     82.772     36.685  24.681486     3.5100     3.8137     0.0426     0.5499 1.5842e+01     1.6808      3.697      5.361     8.6956 0.0000e+00
      3.795      0.097     9.9100     82.185     36.694  24.677889     3.5100     3.7946     0.0426     0.5499 1.5596e+01     1.5305      3.721      5.397     8.6816 0.0000e+00
      3.819      0.095     9.8159     81.691     36.697  24.670243     3.5100     3.7794     0.0426     0.5499 1.5364e+01     1.5907      3.745      5.432     8.6670 0.0000e+00
      3.843      0.094     9.7280     81.265     36.701  24.664426     3.6000     3.8099     0.0426     0.4230 1.4942e+01     1.5756      3.769      5.466     8.6523 0.0000e+00
      3.867      0.093     9.6507     80.880     36.717  24.666805     3.6000     3.8023     0.0426     0.4230 1.4542e+01     1.4854      3.792      5.500     8.6382 0.0000e+00
      3.890      0.092     9.5855     80.500     36.734  24.670096     3.6000     3.7984     0.0426     0.4230 1.4391e+01     1.4704      3.815      5.534     8.6247 0.0000e+00
      3.913      0.093     9.5309     80.094     36.740  24.667258     3.6000     3.6649     0.0426     0.4230 1.4357e+01     1.5305      3.837      5.566     8.6119 0.0000e+00
      3.936      0.095     9.4840     79.652     36.736  24.657535     3.5100     3.6878     0.0426     0.3384 1.4257e+01     1.5756      3.860      5.598     8.5997 0.0000e+00
      3.959      0.098     9.4416     79.189     36.723  24.642292     3.5100     3.6535     0.0426     0.3384 1.4063e+01     1.4704      3.882      5.631     8.5881 0.0000e+00
      3.984      0.103     9.3997     78.731     36.713  24.629340     3.5100     3.6840     0.0426     0.3384 1.3887e+01     1.5155      3.907      5.667     8.5774 0.0000e+00
      4.011      0.107     9.3545     78.300     36.714  24.623145     3.5100     3.5085     0.0426     0.3384 1.3445e+01     1.6207      3.933      5.705     8.5675 0.0000e+00
      4.040      0.111     9.3049     77.918     36.717  24.618096     3.5100     3.5085     0.0426     0.3384 1.2787e+01     1.6508      3.962      5.746     8.5583 0.0000e+00
      4.071      0.113     9.2529     77.604     36.714  24.608886     3.6000     3.5162     0.0426     0.4230 1.2315e+01     1.5756      3.992      5.789     8.5495 0.0000e+00
      4.101      0.114     9.2013     77.388     36.707  24.597018     3.6000     3.5123     0.0426     0.4230 1.1822e+01     1.6207      4.022      5.833     8.5407 0.0000e+00
      4.131      0.113     9.1529     77.297     36.704  24.587246     3.6000     3.7450     0.0426     0.4230 1.1570e+01     1.5606      4.051      5.875     8.5317 0.0000e+00
      4.159      0.110     9.1103     77.325     36.706  24.580923     3.6000     3.7489     0.0426     0.4230 1.1425e+01     1.5305      4.079      5.916     8.5224 0.0000e+00
      4.186      0.108     9.0757     77.452     36.710  24.576361     3.5100     3.7336     0.0426     0.4230 1.1302e+01     1.5606      4.105      5.954     8.5127 0.0000e+00
      4.213      0.106     9.0527     77.672     36.715  24.572344     3.5100     3.7450     0.0426     0.4230 1.1173e+01     1.5305      4.131      5.992     8.5024 0.0000e+00
      4.239      0.103     9.0443     77.974     36.713  24.563841     3.5100     3.6802     0.0426     0.4230 1.0795e+01     1.5907      4.157      6.030     8.4919 0.0000e+00
      4.266      0.102     9.0499     78.333     36.706  24.552545     3.5100     3.6802     0.0426     0.4230 1.0429e+01     1.5756      4.183      6.067     8.4815 0.0000e+00
      4.292      0.101     9.0672     78.719     36.706  24.547319     3.6000     3.7031     0.0000     0.4230 1.0200e+01     1.5305      4.209      6.105     8.4713 0.0000e+00
      4.317      0.102     9.0951     79.092     36.713  24.546770     3.6000     3.7031     0.0000     0.4230 1.0205e+01     1.4854      4.234      6.140     8.4614 0.0000e+00
      4.342      0.103     9.1325     79.417     36.721  24.546792     3.6000     3.6573     0.0000     0.4230 1.0202e+01     1.4854      4.258      6.176     8.4520 0.0000e+00
      4.367      0.106     9.1765     79.679     36.730  24.547391     3.6000     3.6726     0.0000     0.4230 1.0001e+01     1.5305      4.283      6.212     8.4433 0.0000e+00
      4.394      0.109     9.2235     79.875     36.739  24.548727     3.6000     3.6726     0.0426     0.3384 9.6966e+00     1.5907      4.309      6.250     8.4354 0.0000e+00
      4.423      0.112     9.2688     80.010     36.744  24.547196     3.6000     3.6687     0.0426     0.3384 9.4143e+00     1.5907      4.338      6.291     8.4281 0.0000e+00
      4.453      0.114     9.3085     80.090     36.745  24.542391     3.6000     3.3674     0.0426     0.3384 9.0178e+00     1.5155      4.367      6.334     8.4213 0.0000e+00
      4.484      0.114     9.3407     80.133     36.763  24.548865     3.6000     3.3636     0.0426     0.3384 8.7153e+00     1.6207      4.397      6.378     8.4147 0.0000e+00
      4.514      0.113     9.3652     80.158     36.799  24.568345     3.6000     3.3788     0.0426     0.3384 8.4597e+00     1.5155      4.427      6.421     8.4079 0.0000e+00
      4.543      0.111     9.3826     80.179     36.822  24.578312     3.6000     3.3979     0.0426     0.3807 8.2062e+00     1.5907      4.456      6.462     8.4009 0.0000e+00
      4.571      0.110     9.3936     80.204     36.822  24.573506     3.6000     3.5581     0.0426     0.3807 8.1866e+00     1.5907      4.483      6.501     8.3937 0.0000e+00
      4.597      0.109     9.4003     80.229     36.815  24.564523     3.6000     3.5734     0.0426     0.3807 8.2366e+00     1.6357      4.508      6.539     8.3865 0.0000e+00
      4.623      0.110     9.4049     80.248     36.805  24.552925     3.6000     3.5581     0.0426     0.3807 8.1565e+00     1.5606      4.534      6.576     8.3795 0.0000e+00
      4.650      0.111     9.4089     80.261     36.793  24.539580     3.6000     3.5390     0.0426     0.4653 7.8897e+00     1.6207      4.561      6.615     8.3728 0.0000e+00
      4.680      0.113     9.4133     80.262     36.786  24.528845     3.6000     3.1995     0.0426     0.4653 7.6003e+00     1.5155      4.590      6.657     8.3664 0.0000e+00
      4.710      0.114     9.4176     80.248     36.789  24.525776     3.6000     3.2033     0.0426     0.4653 7.2866e+00     1.5907      4.619      6.700     8.3600 0.0000e+00
      4.741      0.115     9.4215     80.227     36.802  24.529555     3.6000     3.1919     0.0426     0.4653 7.0238e+00     1.5305      4.649      6.743     8.3531 0.0000e+00
      4.770      0.117     9.4246     80.195     36.821  24.537231     3.6000     3.1766     0.0426     0.4653 6.9827e+00     1.5456      4.678      6.785     8.3457 0.0000e+00
      4.799      0.118     9.4264     80.149     36.842  24.546890     3.6000     3.1843     0.0426     0.4653 7.0452e+00     1.5155      4.706      6.826     8.3383 0.0000e+00
      4.827      0.121     9.4265     80.084     36.853  24.549231     3.6000     3.2148     0.0426     0.4653 6.9736e+00     1.6207      4.734      6.867     8.3311 0.0000e+00
      4.858      0.123     9.4255     79.985     36.848  24.540920     3.6000     3.2148     0.0426     0.4653 6.7339e+00     1.5606      4.764      6.910     8.3244 0.0000e+00
      4.891      0.126     9.4233     79.837     36.843  24.531618     3.6000     3.2033     0.0426     0.4653 6.3446e+00     1.4854      4.796      6.957     8.3181 0.0000e+00
      4.924      0.129     9.4193     79.635     36.849  24.530720     3.6000     3.3712     0.0426     0.2961 6.1894e+00     1.6207      4.829      7.005     8.3118 0.0000e+00
      4.958      0.133     9.4132     79.382     36.862  24.534027     3.6000     3.3636     0.0426     0.2961 6.1159e+00     1.5907      4.862      7.052     8.3051 0.0000e+00
      4.991      0.137     9.4032     79.087     36.864  24.530546     3.6000     3.3483     0.0426     0.2961 6.0353e+00     1.5005      4.895      7.100     8.2980 0.0000e+00
      5.026      0.144     9.3875     78.769     36.855  24.519346     3.6000     3.4017     0.0426     0.2961 5.8558e+00     1.5606      4.929      7.149     8.2907 0.0000e+00
      5.061      0.153     9.3653     78.448     36.842  24.505359     3.6000     3.1652     0.0426     0.3384 5.8139e+00     1.7860      4.963      7.199     8.2833 0.0000e+00
      5.099      0.165     9.3371     78.139     36.831  24.492774     3.6000     3.1309     0.0426     0.3384 5.8367e+00     1.7410      5.001      7.253     8.2761 0.0000e+00
      5.142      0.178     9.3041     77.853     36.825  24.482194     3.6000     3.1232     0.0426     0.3384 5.7150e+00     1.7710      5.042      7.313     8.2692 0.0000e+00
      5.190      0.190     9.2682     77.588     36.825  24.474755     3.6000     3.1385     0.0426     0.3384 5.2907e+00     1.8762      5.089      7.382     8.2624 0.0000e+00
      5.243      0.198     9.2320     77.328     36.833  24.472432     3.6000     2.4556     0.0426     0.3807 4.7667e+00     1.4704      5.142      7.458     8.2554 0.0000e+00
      5.299      0.201     9.1973     77.051     36.843  24.470648     3.6000     2.4442     0.0426     0.3807 4.4003e+00     1.5606      5.196      7.537     8.2479 0.0000e+00
      5.354      0.199     9.1655     76.740     36.848  24.464966     3.6000     2.4480     0.0426     0.3807 4.1740e+00     1.5305      5.250      7.615     8.2393 0.0000e+00
      5.406      0.193     9.1365     76.387     36.850  24.457831     3.6000     2.4595     0.0426     0.3807 3.9800e+00     1.6508      5.301      7.689     8.2295 0.0000e+00
      5.454      0.185     9.1083     75.999     36.852  24.451298     3.6000     2.3946     0.0426     0.3807 3.9930e+00     1.6808      5.348      7.757     8.2185 0.0000e+00
      5.498      0.175     9.0782     75.587     36.855  24.445604     3.6000     2.3679     0.0426     0.3807 3.9072e+00     1.6658      5.392      7.820     8.2069 0.0000e+00
      5.541      0.166     9.0441     75.169     36.867  24.445170     3.6000     2.3984     0.0426     0.3807 3.7557e+00     1.6207      5.434      7.881     8.1953 0.0000e+00
      5.583      0.157     9.0050     74.773     36.883  24.447900     3.6000     2.3794     0.0426     0.3807 3.5648e+00     1.5606      5.474      7.940     8.1841 0.0000e+00
      5.622      0.150     8.9617     74.416     36.890  24.444624     3.6000     2.5052     0.0426     0.3807 3.4618e+00     1.5907      5.513      7.996     8.1732 0.0000e+00
      5.659      0.145     8.9155     74.105     36.886  24.434469     3.6000     2.5091     0.0426     0.3384 3.4192e+00     1.6357      5.549      8.048     8.1623 0.0000e+00
      5.693      0.141     8.8685     73.842     36.880  24.422644     3.6000     2.5205     0.0426     0.3384 3.4610e+00     1.5907      5.583      8.098     8.1513 0.0000e+00
      5.727      0.138     8.8240     73.627     36.884  24.415892     3.6000     2.5434     0.0426     0.3384 3.3551e+00     1.5305      5.617      8.146     8.1405 0.0000e+00
      5.762      0.135     8.7842     73.459     36.907  24.420332     3.6000     2.0742     0.0426     0.3384 3.1881e+00     1.5456      5.651      8.196     8.1301 0.0000e+00
      5.797      0.132     8.7497     73.322     36.937  24.429229     3.6000     2.0665     0.0000     0.3384 3.0038e+00     1.5907      5.686      8.246     8.1198 0.0000e+00
      5.832      0.130     8.7210     73.195     36.960  24.433078     3.6000     2.0894     0.0000     0.3384 2.9636e+00     1.5005      5.719      8.295     8.1086 0.0000e+00
      5.864      0.128     8.6984     73.062     36.979  24.434884     3.6000     2.0665     0.0000     0.3384 2.9578e+00     1.5907      5.751      8.341     8.0960 0.0000e+00
      5.895      0.126     8.6815     72.900     36.998  24.435129     3.6000     1.9101     0.0000     0.3384 2.9707e+00     1.4103      5.781      8.385     8.0818 0.0000e+00
      5.925      0.125     8.6685     72.684     37.014  24.431899     3.6000     1.8873     0.0426     0.2538 2.8949e+00     1.3953      5.811      8.428     8.0669 0.0000e+00
      5.957      0.126     8.6567     72.400     37.028  24.426311     3.6000     1.9140     0.0426     0.2538 2.7323e+00     1.2299      5.842      8.473     8.0518 0.0000e+00
      5.989      0.130     8.6441     72.043     37.035  24.414895     3.6000     1.9292     0.0426     0.2538 2.6905e+00     1.2600      5.874      8.519     8.0365 0.0000e+00
      6.022      0.136     8.6283     71.619     37.033  24.396586     3.6000     1.8262     0.0426     0.2538 2.7092e+00     1.3201      5.906      8.566     8.0200 0.0000e+00
      6.056      0.143     8.6067     71.136     37.027  24.372440     3.6000     1.8415     0.0426     0.3384 2.7139e+00     1.2750      5.939      8.614     8.0016 0.0000e+00
      6.092      0.149     8.5772     70.599     37.021  24.343935     3.6000     1.8377     0.0426     0.3384 2.6366e+00     1.3502      5.975      8.665     7.9814 0.0000e+00
      6.132      0.154     8.5394     70.017     37.025  24.317326     3.6000     1.8605     0.0426     0.3384 2.4245e+00     1.3502      6.014      8.722     7.9601 0.0000e+00
      6.175      0.157     8.4939     69.404     37.044  24.297392     3.6000     1.3456     0.0426     0.3384 2.2651e+00     1.3051      6.056      8.783     7.9370 0.0000e+00
      6.218      0.158     8.4421     68.773     37.065  24.278818     3.6000     1.3646     0.0426     0.3384 2.1697e+00     1.2600      6.098      8.845     7.9099 0.0000e+00
      6.259      0.157     8.3851     68.131     37.078  24.256649     3.6000     1.3341     0.0426     0.2115 2.1198e+00     1.3201      6.139      8.903     7.8768 0.0000e+00
      6.298      0.155     8.3240     67.472     37.087  24.232889     3.6000     1.2998     0.0426     0.2115 2.1355e+00     1.3201      6.176      8.958     7.8373 0.0000e+00
      6.335      0.153     8.2599     66.783     37.100  24.209122     3.6000     1.2311     0.0426     0.2115 2.1598e+00     1.2750      6.213      9.010     7.7936 0.0000e+00
      6.372      0.151     8.1935     66.075     37.126  24.190885     3.6000     1.2311     0.0426     0.2115 2.0523e+00     1.4103      6.249      9.064     7.7498 0.0000e+00
      6.411      0.149     8.1253     65.364     37.168  24.181231     3.6900     1.2311     0.0426     0.1692 1.9165e+00     1.3351      6.288      9.119     7.7088 0.0000e+00
      6.451      0.147     8.0546     64.656     37.219  24.177585     3.6900     1.2044     0.0426     0.1692 1.8737e+00     1.2600      6.327      9.176     7.6687 0.0000e+00
      6.490      0.145     7.9807     63.960     37.268  24.175014     3.6900     1.1777     0.0426     0.1692 1.7835e+00     1.2901      6.365      9.231     7.6256 0.0000e+00
      6.527      0.142     7.9053     63.283     37.312  24.172833     3.6900     1.1510     0.0426     0.1692 1.7444e+00     1.2750      6.401      9.283     7.5780 0.0000e+00
      6.561      0.138     7.8299     62.627     37.363  24.178375     3.6900     1.1663     0.0000     0.1692 1.7551e+00     1.2901      6.435      9.332     7.5280 0.0000e+00
      6.595      0.133     7.7545     62.001     37.419  24.189159     3.6900     1.1586     0.0000     0.1692 1.7143e+00     1.2750      6.467      9.380     7.4788 0.0000e+00
      6.628      0.130     7.6797     61.419     37.464  24.196184     3.6900     1.0938     0.0000     0.1692 1.6304e+00     1.6207      6.500      9.428     7.4329 0.0000e+00
      6.661      0.127     7.6063     60.891     37.502  24.201323     3.6900     1.0862     0.0000     0.1692 1.5874e+00     1.5305      6.533      9.475     7.3915 0.0000e+00
      6.693      0.126     7.5344     60.424     37.542  24.209903     3.6900     1.1052     0.0426     0.1692 1.5864e+00     1.6057      6.564      9.520     7.3542 0.0000e+00
      6.724      0.125     7.4653     60.035     37.576  24.216296     3.6900     1.1014     0.0426     0.1692 1.5878e+00     1.5305      6.594      9.564     7.3208 0.0000e+00
      6.755      0.124     7.4008     59.726     37.603  24.218245     3.6900     1.0480     0.0426     0.1692 1.5553e+00     1.4854      6.625      9.608     7.2911 0.0000e+00
      6.787      0.122     7.3419     59.497     37.628  24.220229     3.6900     1.0213     0.0426     0.1692 1.4715e+00     1.5907      6.656      9.654     7.2651 0.0000e+00
      6.820      0.120     7.2899     59.348     37.646  24.218817     3.6900     1.0404     0.0426     0.1692 1.4031e+00     1.5305      6.688      9.700     7.2420 0.0000e+00
      6.851      0.118     7.2467     59.263     37.662  24.217593     3.6900     1.0289     0.0000     0.1692 1.3257e+00     1.6057      6.719      9.745     7.2209 0.0000e+00
      6.881      0.116     7.2130     59.219     37.681  24.220189     3.6900     1.0213     0.0000     0.1692 1.3525e+00     1.6057      6.748      9.787     7.2008 0.0000e+00
      6.909      0.115     7.1888     59.193     37.696  24.219377     3.6900     1.0594     0.0000     0.1692 1.3891e+00     1.4854      6.775      9.826     7.1817 0.0000e+00
      6.936      0.116     7.1739     59.164     37.708  24.214942     3.6900     1.0327     0.0000     0.1692 1.3431e+00     1.5456      6.802      9.865     7.1644 0.0000e+00
      6.965      0.117     7.1664     59.118     37.728  24.213619     3.6900     1.0289     0.0426     0.1269 1.3338e+00     1.5606      6.830      9.906     7.1495 0.0000e+00
      6.995      0.121     7.1634     59.049     37.767  24.222972     3.6900     0.8496     0.0426     0.1269 1.2337e+00     1.6357      6.860      9.950     7.1363 0.0000e+00
      7.027      0.125     7.1627     58.956     37.827  24.245495     3.6900     0.8573     0.0426     0.1269 1.2164e+00     1.6207      6.891      9.995     7.1228 0.0000e+00
      7.059      0.131     7.1620     58.834     37.892  24.271358     3.6900     0.8496     0.0426     0.1269 1.2177e+00     1.4854      6.923     10.041     7.1069 0.0000e+00
      7.092      0.137     7.1597     58.675     37.949  24.291621     3.7800     0.8496     0.0426     0.0846 1.2106e+00     1.5756      6.955     10.087     7.0881 0.0000e+00
      7.126      0.142     7.1551     58.480     38.003  24.307728     3.7800     0.8420     0.0426     0.0846 1.2313e+00     1.7860      6.989     10.136     7.0674 0.0000e+00
      7.164      0.147     7.1475     58.253     38.053  24.320015     3.7800     0.8573     0.0426     0.0846 1.1459e+00     1.7710      7.025     10.189     7.0466 0.0000e+00
      7.204      0.151     7.1363     57.988     38.096  24.327799     3.7800     0.8954     0.0426     0.0846 1.0414e+00     1.8011      7.065     10.247     7.0257 0.0000e+00
      7.246      0.154     7.1210     57.662     38.141  24.337114     3.7800     0.8573     0.0426     0.1692 1.0036e+00     1.8462      7.105     10.305     7.0036 0.0000e+00
      7.286      0.156     7.1015     57.254     38.196  24.354401     3.7800     0.7848     0.0426     0.1692 9.8653e-01     1.7860      7.145     10.363     6.9796 0.0000e+00
      7.325      0.156     7.0785     56.770     38.257  24.376352     3.7800     0.7848     0.0426     0.1692 1.0006e+00     1.6959      7.183     10.418     6.9539 0.0000e+00
      7.364      0.155     7.0509     56.230     38.314  24.396944     3.7800     0.8153     0.0426     0.1692 9.6869e-01     1.8011      7.221     10.473     6.9279 0.0000e+00
      7.403      0.155     7.0156     55.663     38.366  24.415729     3.7800     0.8077     0.0426     0.1692 9.2608e-01     1.6658      7.260     10.529     6.9027 0.0000e+00
      7.443      0.154     6.9701     55.101     38.408  24.429797     3.7800     0.7352     0.0426     0.1269 9.1369e-01     1.8612      7.299     10.586     6.8791 0.0000e+00
      7.483      0.154     6.9149     54.578     38.437  24.436961     3.7800     0.7276     0.0426     0.1269 8.7122e-01     1.8161      7.338     10.643     6.8572 0.0000e+00
      7.522      0.153     6.8526     54.133     38.463  24.443091     3.7800     0.7581     0.0426     0.1269 8.1058e-01     1.7710      7.376     10.699     6.8369 0.0000e+00
      7.561      0.152     6.7867     53.790     38.495  24.453779     3.7800     0.7428     0.0426     0.1269 7.7881e-01     1.8462      7.415     10.754     6.8182 0.0000e+00
      7.599      0.149     6.7210     53.542     38.539  24.473854     3.8700     0.7848     0.0426     0.0846 7.7056e-01     1.7860      7.452     10.809     6.8014 0.0000e+00
      7.637      0.147     6.6597     53.363     38.611  24.512629     3.8700     0.8077     0.0426     0.0846 7.3427e-01     1.7560      7.490     10.863     6.7863 0.0000e+00
      7.675      0.144     6.6077     53.231     38.701  24.564608     3.8700     0.7924     0.0426     0.0846 6.9909e-01     1.8462      7.526     10.916     6.7729 0.0000e+00
      7.711      0.141     6.5677     53.118     38.784  24.611979     3.8700     0.7733     0.0426     0.0846 6.7947e-01     1.7109      7.562     10.968     6.7611 0.0000e+00
      7.746      0.137     6.5391     52.997     38.856  24.653518     3.8700     0.7657     0.0426     0.1692 6.6877e-01     2.2069      7.596     11.018     6.7508 0.0000e+00
      7.781      0.134     6.5188     52.851     38.910  24.684465     3.8700     0.8115     0.0426     0.1692 6.5653e-01     2.2670      7.630     11.067     6.7419 0.0000e+00
      7.814      0.131     6.5038     52.658     38.935  24.697237     3.8700     0.8115     0.0426     0.1692 6.3327e-01     2.1468      7.663     11.115     6.7344 0.0000e+00
      7.847      0.129     6.4910     52.380     38.949  24.703156     3.8700     0.7733     0.0426     0.1692 6.2344e-01     2.4023      7.695     11.161     6.7281 0.0000e+00
      7.879      0.127     6.4771     51.981     38.953  24.703802     3.9600     0.8153     0.0426     0.1269 6.1537e-01     2.2370      7.727     11.207     6.7227 0.0000e+00
      7.911      0.126     6.4601     51.442     38.936  24.691429     3.9600     0.7886     0.0426     0.1269 6.0647e-01     2.2370      7.758     11.252     6.7181 0.0000e+00
      7.943      0.126     6.4371     50.774     38.911  24.674613     3.9600     0.7886     0.0426     0.1269 5.9357e-01     2.2370      7.789     11.297     6.7142 0.0000e+00
      7.975      0.127     6.4036     50.014     38.904  24.668668     3.9600     0.7657     0.0426     0.1269 5.5938e-01     2.2971      7.821     11.343     6.7110 0.0000e+00
      8.007      0.128     6.3552     49.213     38.917  24.675965     3.9600     0.7886     0.0426     0.1269 5.4380e-01     2.2670      7.852     11.389     6.7085 0.0000e+00
      8.039      0.129     6.2896     48.434     38.941  24.690533     3.9600     0.7924     0.0426     0.1269 5.4854e-01     2.3121      7.884     11.435     6.7064 0.0000e+00
      8.072      0.132     6.2083     47.742     38.965  24.704379     3.9600     0.7848     0.0426     0.1269 5.3501e-01     2.2370      7.916     11.481     6.7048 0.0000e+00
      8.105      0.135     6.1155     47.194     38.974  24.709319     3.9600     0.7733     0.0426     0.1269 5.0771e-01     2.3121      7.949     11.528     6.7033 0.0000e+00
      8.140      0.138     6.0178     46.814     38.970  24.706670     3.9600     0.7924     0.0426     0.1269 5.2693e-01     2.3422      7.983     11.578     6.7020 0.0000e+00
      8.176      0.141     5.9227     46.589     38.960  24.699683     3.9600     0.7924     0.0426     0.0846 4.4642e-01     2.2370      8.018     11.629     6.7009 0.0000e+00
      8.212      0.144     5.8382     46.490     38.946  24.690456     3.9600     0.7924     0.0426     0.0846 4.7453e-01     2.2670      8.054     11.681     6.6998 0.0000e+00
      8.250      0.146     5.7713     46.492     38.942  24.688404     3.9600     0.7848     0.0426     0.0846 4.7474e-01     2.3271      8.091     11.734     6.6988 0.0000e+00
      8.288      0.148     5.7250     46.576     38.956  24.696940     3.9600     0.7619     0.0426     0.0846 4.4294e-01     2.2820      8.128     11.788     6.6980 0.0000e+00
      8.326      0.149     5.6976     46.725     38.971  24.706463     3.9600     0.7352     0.0426     0.1269 4.3711e-01     2.2820      8.165     11.842     6.6974 0.0000e+00
      8.364      0.150     5.6856     46.928     38.985  24.715553     3.9600     0.7161     0.0426     0.1269 4.5742e-01     2.2069      8.202     11.896     6.6970 0.0000e+00
      8.403      0.149     5.6858     47.178     39.009  24.730594     3.9600     0.7466     0.0426     0.1269 3.9356e-01     2.3422      8.240     11.951     6.6969 0.0000e+00
      8.441      0.149     5.6961     47.487     39.037  24.747676     3.9600     0.7238     0.0426     0.1269 3.8703e-01     2.2670      8.278     12.006     6.6970 0.0000e+00
      8.479      0.148     5.7143     47.865     39.062  24.763439     3.9600     0.7352     0.0426     0.1269 3.6355e-01     2.2370      8.315     12.060     6.6972 0.0000e+00
      8.517      0.147     5.7391     48.301     39.086  24.778126     3.9600     0.7161     0.0426     0.0846 3.4643e-01     2.2219      8.352     12.113     6.6971 0.0000e+00
      8.553      0.146     5.7698     48.776     39.108  24.791694     3.9600     0.7428     0.0426     0.0846 3.7389e-01     2.2069      8.388     12.165     6.6969 0.0000e+00
      8.590      0.144     5.8077     49.274     39.130  24.805782     3.9600     0.7085     0.0426     0.0846 3.5798e-01     2.5075      8.423     12.217     6.6965 0.0000e+00
      8.627      0.143     5.8540     49.764     39.150  24.818208     3.9600     0.7428     0.0426     0.0846 3.3942e-01     2.4474      8.460     12.270     6.6959 0.0000e+00
      8.664      0.140     5.9074     50.199     39.176  24.834266     3.9600     0.7161     0.0426     0.1269 3.1587e-01     2.6127      8.496     12.322     6.6954 0.0000e+00
      8.700      0.138     5.9656     50.539     39.217  24.860216     3.9600     0.7276     0.0426     0.1269 3.1022e-01     2.5977      8.532     12.374     6.6949 0.0000e+00
      8.735      0.136     6.0265     50.763     39.279  24.899020     3.9600     0.7962     0.0426     0.1269 2.9806e-01     2.5376      8.566     12.424     6.6946 0.0000e+00
      8.768      0.134     6.0865     50.869     39.368  24.955087     3.9600     0.7733     0.0426     0.1269 2.6529e-01     2.5376      8.599     12.471     6.6943 0.0000e+00
      8.800      0.134     6.1397     50.867     39.470  25.019614     4.0500     0.7810     0.0852     0.0846 2.6854e-01     2.5826      8.630     12.517     6.6941 0.0000e+00
      8.833      0.135     6.1813     50.764     39.573  25.084072     4.0500     0.7924     0.0852     0.0846 2.8601e-01     2.5526      8.662     12.564     6.6939 0.0000e+00
      8.868      0.137     6.2087     50.577     39.679  25.149815     4.0500     0.7924     0.0852     0.0846 2.6174e-01     2.9283      8.696     12.613     6.6937 0.0000e+00
      8.903      0.139     6.2217     50.318     39.796  25.222496     4.0500     0.7848     0.0852     0.0846 2.5346e-01     2.9885      8.731     12.664     6.6933 0.0000e+00
      8.940      0.141     6.2215     49.982     39.943  25.313578     3.9600     0.7924     0.0852     0.1692 2.4920e-01     3.0185      8.767     12.716     6.6926 0.0000e+00
      8.977      0.141     6.2092     49.542     40.116  25.421614     3.9600     0.7733     0.0852     0.1692 2.5351e-01     2.9283      8.803     12.768     6.6913 0.0000e+00
      9.014      0.140     6.1865     48.968     40.293  25.531864     3.9600     0.8458     0.0852     0.1692 2.0807e-01     3.8151      8.839     12.820     6.6897 0.0000e+00
      9.050      0.137     6.1551     48.237     40.474  25.644033     3.9600     0.8153     0.0852     0.1692 2.2306e-01     3.8752      8.875     12.872     6.6879 0.0000e+00
      9.085      0.132     6.1143     47.346     40.680  25.772195     3.9600     0.8496     0.0852     0.1692 1.8177e-01     3.9053      8.909     12.922     6.6858 0.0000e+00
      9.118      0.127     6.0609     46.304     40.928  25.926772     4.1400     0.8535     0.0852     0.0846 1.6423e-01     3.9053      8.942     12.969     6.6835 0.0000e+00
      9.150      0.122     5.9910     45.116     41.229  26.115330     4.1400     1.0175     0.0852     0.0846 1.8771e-01     5.0927      8.973     13.015     6.6809 0.0000e+00
      9.180      0.117     5.9019     43.797     41.618  26.360435     4.1400     1.0633     0.0852     0.0846 1.7279e-01     5.0776      9.002     13.057     6.6781 0.0000e+00
      9.208      0.113     5.7933     42.381     42.191  26.721510     4.1400     1.0556     0.0852     0.0846 1.8459e-01     5.1829      9.030     13.097     6.6752 0.0000e+00
      9.235      0.110     5.6662     40.906     43.085  27.286923     4.3200     1.0366     0.0852     0.1692 1.9013e-01     4.9574      9.057     13.136     6.6724 0.0000e+00
      9.263      0.108     5.5212     39.407     44.489  28.175776     4.3200     1.1014     0.0852     0.1692 1.9789e-01     6.4304      9.084     13.175     6.6698 0.0000e+00
      9.290      0.106     5.3601     37.916     46.741  29.601340     4.3200     1.1357     0.0852     0.1692 1.9368e-01     6.4604      9.111     13.214     6.6676 0.0000e+00
      9.318      0.104     5.1870     36.467     50.426  31.935846     4.3200     1.1052     0.0852     0.1692 1.4409e-01     6.5205      9.138     13.253     6.6658 0.0000e+00
      9.345      0.100     5.0066     35.106     56.516  35.793912     4.4100     1.0938     0.1278     0.1692 1.7041e-01     6.4905      9.165     13.292     6.6643 0.0000e+00
      9.372      0.095     4.8233     33.879     66.634  42.204354     4.4100     2.3527     0.1278     0.1692 1.3538e-01    35.7091      9.190     13.330     6.6632 0.0000e+00
      9.396      0.089     4.6409     32.813     83.485  52.880583     4.4100     2.3641     0.1278     0.1692 1.5527e-01    35.8143      9.214     13.364     6.6624 0.0000e+00
      9.417      0.082     4.4636     31.922    111.482  70.618121     4.4100     2.3412     0.1278     0.1692 1.7037e-01    35.7542      9.235     13.395     6.6619 0.0000e+00
      9.437      0.074     4.2969     31.212    151.568  96.017131     4.6800     2.3450     0.6816     0.4653 1.3520e-01    35.8594      9.254     13.422     6.6619 0.0000e+00
      9.454      0.067     4.1465     30.686    193.593 122.652617     4.6800     1.1624     0.6816     0.4653 1.4716e-01    99.3316      9.271     13.447     6.6624 0.0000e+00
      9.470      0.060     4.0158     30.332    225.433 142.846707     4.6800     1.1510     0.6816     0.4653 1.5524e-01    99.2114      9.287     13.470     6.6634 0.0000e+00
      9.485      0.053     3.9063     30.121    245.198 155.400409     4.6800     1.1815     0.6816     0.4653 1.3523e-01    99.2715      9.301     13.491     6.6652 0.0000e+00
      9.498      0.047     3.8187     30.015    256.149 162.373327     4.6800     1.1624     0.6816     0.4653 1.1635e-01    99.2565      9.314     13.509     6.6679 0.0000e+00
      9.509      0.040     3.7535     29.978    260.607 165.230052     1.1700     1.1777     0.2130     1.0152 1.3112e-01    37.9486      9.325     13.525     6.6720 0.0000e+00
      9.518      0.034     3.7094     29.978    260.133 164.957729     1.1700    -0.1002     0.2130     1.0152 1.4002e-01     2.9434      9.334     13.538     6.6777 0.0000e+00
      9.525      0.029     3.6826     29.977    257.134 163.080635     1.1700    -0.1155     0.2130     1.0152 1.4745e-01     2.9885      9.341     13.548     6.6845 0.0000e+00
      9.532      0.025     3.6689     29.944    255.888 162.312999     1.1700    -0.1155     0.2130     1.0152 1.2328e-01     2.8081      9.347     13.557     6.6916 0.0000e+00
      9.537      0.021     3.6637     29.853    258.861 164.221656     0.0000    -0.1155     0.0000     0.0423 1.5177e-01     2.9133      9.352     13.565     6.6983 0.0000e+00
      9.542      0.018     3.6631     29.699    263.338 167.085533     0.0000    -0.1002     0.0000     0.0423 1.2653e-01     0.5536      9.357     13.571     6.7042 0.0000e+00
      9.546      0.015     3.6626     29.477    266.441 169.081512     0.0000    -0.1346     0.0000     0.0423 1.3403e-01     0.4935      9.361     13.577     6.7092 0.0000e+00
      9.549      0.013     3.6581     29.177    271.138 172.093235     0.0000    -0.1193     0.0000     0.0423 1.4652e-01     0.5987      9.365     13.582     6.7136 0.0000e+00
      9.552      0.011     3.6466     28.777    280.199 177.876193     0.0000    -0.0926     0.0000     0.0846 1.4422e-01     0.5536      9.368     13.587     6.7179 0.0000e+00
      9.555      0.009     3.6273     28.237    290.452 184.417511     0.0000    -0.1231     0.0000     0.0846 1.3787e-01     0.2981      9.370     13.590     6.7223 0.0000e+00
      9.557      0.007     3.5998     27.488    298.196 189.367024     0.0000    -0.1117     0.0000     0.0846 1.4005e-01     0.3732      9.372     13.593     6.7273 0.0000e+00
      9.558      0.004     3.5626     26.434    302.097 191.875103     0.0000    -0.0888     0.0000     0.0846 1.2566e-01     0.2680      9.374     13.596     6.7328 0.0000e+00
      9.559      0.001     3.5132     24.960    301.601 191.586401     0.0000    -0.1041     0.0000     0.0846 1.1706e-01     0.4183      9.375     13.597     6.7384 0.0000e+00
      9.560     -0.002     3.4467     22.962    296.822 188.571650     0.0000    -0.1269     0.0000     0.0846 1.1623e-01     0.5686      9.375     13.597     6.7442 0.0000e+00
      9.559     -0.005     3.3547     20.393    288.014 182.993263     0.0000    -0.1155     0.0000     0.0846 1.1617e-01     0.6588      9.374     13.596     6.7499 0.0000e+00
      9.558     -0.010     3.2256     17.291    273.919 174.052465     0.0000    -0.1155     0.0000     0.0846 1.2322e-01     0.5836      9.373     13.594     6.7552 0.0000e+00
      9.555     -0.015     3.0454     13.763    253.296 160.961187     0.0000    -0.1155     0.0000     0.0846 1.1625e-01     0.5235      9.370     13.590     6.7599 0.0000e+00
      9.551     -0.021     2.8013      9.958    231.205 146.934584     0.0000    -0.1079     0.0000     0.0846 1.4139e-01     0.5235      9.366     13.585     6.7639 0.0000e+00
      9.545     -0.028     2.4878      6.057    213.289 135.558129     0.0000    -0.1079     0.0000     0.0846 1.3192e-01     0.5385      9.360     13.577     6.7671 0.0000e+00
      9.537     -0.037     2.1094      2.254    195.556 124.292526     0.0000    -0.1231     0.0000     0.0846 1.2648e-01     0.5536      9.353     13.566     6.7700 0.0000e+00
      9.528     -0.047     1.6789     -1.278    175.232 111.376059     0.0000    -0.1041     0.0000     0.0846 1.4164e-01     0.5536      9.343     13.552     6.7727 0.0000e+00
      9.515     -0.059     1.2147     -4.403    154.190  97.999020     0.0000    -0.1002     0.0000     0.0000 1.1633e-01     2.0115      9.331     13.534     6.7751 0.0000e+00
      9.500     -0.074     0.7388     -7.016    130.868  83.171319     0.0000    -0.1155     0.0000     0.0000 1.2892e-01     2.1017      9.316     13.512     6.7768 0.0000e+00
      9.481     -0.094     0.2748     -9.028    105.711  67.178559     0.0000    -0.1269     0.0000     0.0000 1.3754e-01     1.9514      9.298     13.485     6.7775 0.0000e+00
      9.457     -0.117    -0.1562    -10.360     83.334  52.954863     0.0000    -0.1193     0.0000     0.0000 1.2013e-01     2.0716      9.274     13.451     6.7771 0.0000e+00
      9.427     -0.145    -0.5376    -10.932     67.292  42.759429     0.0000     0.0638     0.0000     0.0000 1.5517e-01    31.1850      9.244     13.408     6.7753 0.0000e+00
      9.388     -0.173    -0.8565    -10.646     57.313  36.419481     0.0000     0.0562     0.0000     0.0000 1.4260e-01    31.2902      9.206     13.352     6.7726 0.0000e+00
      9.339     -0.201    -1.1022     -9.358     51.129  32.493849     0.0000     0.0791     0.0000     0.0000 1.3523e-01    31.3203      9.158     13.283     6.7698 0.0000e+00
      9.280     -0.224    -1.2649     -6.890     47.192  29.997072     0.0000     0.0943     0.0000     0.0000 1.6915e-01    31.3052      9.101     13.200     6.7678 0.0000e+00
      9.215     -0.239    -1.3348     -3.094     44.626  28.372227     0.0000     0.3652     0.0000     0.0000 2.4163e-01    93.0941      9.037     13.107     6.7677 0.0000e+00
      9.146     -0.245    -1.2998      2.058     42.951  27.312727     0.3600     0.3728     0.0000     0.4230 2.4173e-01    92.9889      8.969     13.009     6.7701 0.0000e+00
      9.078     -0.242    -1.1426      8.423     41.868  26.629083     0.3600     0.3995     0.0000     0.4230 2.2643e-01    93.1242      8.903     12.912     6.7749 0.0000e+00
      9.014     -0.232    -0.8414     15.714     41.172  26.190461     0.3600     0.3652     0.0000     0.4230 2.7786e-01    93.0941      8.840     12.821     6.7815 0.0000e+00
      8.956     -0.218    -0.3782     23.542     40.725  25.909591     0.3600     1.4638     0.0000     0.4230 3.0112e-01    50.7392      8.783     12.738     6.7886 0.0000e+00
      8.903     -0.203     0.2504     31.455     40.428  25.723452     2.6100     1.4714     0.5112     2.0727 2.9529e-01    50.7693      8.732     12.664     6.7952 0.0000e+00
      8.856     -0.188     1.0267     38.999     40.256  25.616060     2.6100     1.4638     0.5112     2.0727 2.7714e-01    50.7542      8.685     12.596     6.8008 0.0000e+00
      8.811     -0.173     1.9158     45.782     40.196  25.580554     2.6100     1.4295     0.5112     2.0727 3.1849e-01    50.7693      8.642     12.533     6.8053 0.0000e+00
      8.769     -0.158     2.8704     51.539     40.154  25.555993     2.6100     1.2006     0.5112     2.0727 3.0740e-01    44.9977      8.600     12.473     6.8090 0.0000e+00
      8.728     -0.142     3.8352     56.169     40.057  25.496238     4.0500     1.2197     0.8520     1.8189 3.5227e-01    45.0578      8.560     12.415     6.8122 0.0000e+00
      8.691     -0.125     4.7549     59.693     39.991  25.456619     4.0500     1.2235     0.8520     1.8189 3.4395e-01    45.1029      8.524     12.363     6.8152 0.0000e+00
      8.661     -0.107     5.5815     62.198     40.057  25.499816     4.0500     1.2311     0.8520     1.8189 3.4650e-01    45.0879      8.493     12.319     6.8183 0.0000e+00
      8.637     -0.091     6.2831     63.815     40.189  25.583899     4.0500     1.4219     0.8520     1.8189 3.6744e-01    36.7612      8.470     12.285     6.8213 0.0000e+00
      8.620     -0.078     6.8473     64.693     40.270  25.634290     4.5900     1.3913     0.7668     1.3113 3.5189e-01    36.7161      8.453     12.261     6.8240 0.0000e+00
      8.606     -0.070     7.2765     64.988     40.270  25.632753     4.5900     1.3990     0.7668     1.3113 3.4583e-01    36.7461      8.439     12.240     6.8263 0.0000e+00
      8.592     -0.068     7.5817     64.852     40.198  25.584815     4.5900     1.4066     0.7668     1.3113 3.4900e-01    36.7311      8.426     12.221     6.8278 0.0000e+00
      8.577     -0.072     7.7788     64.407     40.089  25.515306     4.5900     1.2082     0.7668     1.3113 3.3098e-01    53.5799      8.411     12.199     6.8280 0.0000e+00
      8.559     -0.079     7.8861     63.754     40.006  25.463100     4.5900     1.2120     0.7668     1.3113 3.1320e-01    53.6250      8.393     12.174     6.8266 0.0000e+00
      8.537     -0.086     7.9226     62.979     39.954  25.432093     4.6800     1.1968     0.5964     1.0152 3.3423e-01    53.6250      8.372     12.143     6.8243 0.0000e+00
      8.512     -0.090     7.9064     62.143     39.915  25.410056     4.6800     1.2349     0.5964     1.0152 3.9356e-01    53.6400      8.347     12.106     6.8222 0.0000e+00
      8.484     -0.089     7.8524     61.289     39.906  25.406949     4.6800     1.2998     0.5964     1.0152 4.2521e-01    30.8543      8.320     12.067     6.8213 0.0000e+00
      8.457     -0.084     7.7726     60.452     39.932  25.425905     4.6800     1.2731     0.5964     1.0152 4.5455e-01    30.8694      8.294     12.029     6.8223 0.0000e+00
      8.435     -0.074     7.6776     59.659     39.964  25.448221     4.7700     1.2921     0.6390     1.0998 4.2126e-01    30.7191      8.272     11.998     6.8249 0.0000e+00
      8.419     -0.062     7.5751     58.933     39.991  25.465993     4.7700     1.2960     0.6390     1.0998 4.0572e-01    30.8694      8.256     11.974     6.8283 0.0000e+00
      8.406     -0.050     7.4703     58.271     40.020  25.483958     4.7700     1.3112     0.6390     1.0998 3.9977e-01    36.0097      8.243     11.956     6.8319 0.0000e+00
      8.396     -0.038     7.3676     57.646     40.046  25.498991     4.7700     1.3570     0.6390     1.0998 4.0536e-01    35.9646      8.234     11.942     6.8349 0.0000e+00
      8.389     -0.029     7.2706     57.039     40.069  25.511139     4.7700     1.3150     0.5964     0.8460 3.5266e-01    36.1600      8.226     11.932     6.8371 0.0000e+00
      8.383     -0.022     7.1820     56.433     40.112  25.535520     4.7700     1.3379     0.5964     0.8460 3.5481e-01    35.9796      8.221     11.924     6.8379 0.0000e+00
      8.379     -0.017     7.1013     55.817     40.172  25.570718     4.7700     1.1510     0.5964     0.8460 3.4598e-01    43.6600      8.217     11.918     6.8372 0.0000e+00
      8.376     -0.013     7.0255     55.188     40.213  25.594443     4.7700     1.1777     0.5964     0.8460 3.5266e-01    43.5849      8.214     11.913     6.8353 0.0000e+00
      8.374     -0.010     6.9520     54.556     40.209  25.589268     4.8600     1.1930     0.5538     0.8037 3.4635e-01    43.6600      8.212     11.910     6.8323 0.0000e+00
      8.372     -0.008     6.8788     53.942     40.156  25.553811     4.8600     1.1586     0.5538     0.8037 3.3256e-01    43.7352      8.210     11.907     6.8288 0.0000e+00
      8.370     -0.007     6.8043     53.373     40.076  25.502373     4.8600     1.2921     0.5538     0.8037 3.7625e-01    45.2382      8.208     11.905     6.8252 0.0000e+00
      8.369     -0.006     6.7282     52.868     40.000  25.452912     4.8600     1.2769     0.5538     0.8037 3.2471e-01    45.2983      8.207     11.903     6.8218 0.0000e+00
      8.368     -0.006     6.6517     52.422     39.930  25.408075     4.8600     1.2654     0.5538     0.8037 3.3437e-01    45.2833      8.206     11.902     6.8189 0.0000e+00
      8.366     -0.007     6.5771     52.027     39.848  25.355906     4.7700     1.2654     0.4686     0.7191 3.1056e-01    45.3133      8.204     11.900     6.8168 0.0000e+00
      8.365     -0.008     6.5080     51.680     39.762  25.300308     4.7700     1.1472     0.4686     0.7191 2.9819e-01    40.5939      8.203     11.897     6.8155 0.0000e+00
      8.363     -0.009     6.4465     51.383     39.697  25.258131     4.7700     1.1663     0.4686     0.7191 2.9280e-01    40.5037      8.201     11.895     6.8147 0.0000e+00
      8.360     -0.012     6.3922     51.143     39.664  25.235942     4.7700     1.1663     0.4686     0.7191 3.0125e-01    40.5337      8.199     11.891     6.8143 0.0000e+00
      8.357     -0.015     6.3441     50.964     39.653  25.227824     4.5900     1.1472     0.3834     0.6768 3.0508e-01    40.5337      8.196     11.887     6.8138 0.0000e+00
      8.354     -0.019     6.3019     50.850     39.635  25.215777     4.5900     0.9717     0.3834     0.6768 2.5982e-01    36.1449      8.192     11.882     6.8131 0.0000e+00
      8.349     -0.025     6.2659     50.798     39.593  25.188669     4.5900     0.9870     0.3834     0.6768 2.6877e-01    36.2652      8.187     11.875     6.8121 0.0000e+00
      8.343     -0.032     6.2368     50.807     39.534  25.151149     4.5900     0.9946     0.3834     0.6768 2.5701e-01    36.2652      8.181     11.866     6.8108 0.0000e+00
      8.334     -0.042     6.2152     50.873     39.459  25.105089     4.4100     0.9565     0.3408     0.5499 2.5701e-01    36.3103      8.173     11.854     6.8095 0.0000e+00
      8.324     -0.054     6.2015     50.964     39.394  25.065920     4.4100     0.9793     0.3408     0.5499 2.8041e-01    26.9916      8.163     11.839     6.8083 0.0000e+00
      8.310     -0.071     6.1952     51.054     39.378  25.058830     4.4100     0.9793     0.3408     0.5499 2.8341e-01    26.9315      8.149     11.819     6.8078 0.0000e+00
      8.292     -0.092     6.1963     51.138     39.414  25.085888     4.4100     0.9603     0.3408     0.5499 2.2403e-01    26.9766      8.131     11.793     6.8081 0.0000e+00
      8.268     -0.118     6.2041     51.218     39.484  25.134514     4.4100     0.9755     0.2982     0.5076 2.2643e-01    26.9315      8.108     11.760     6.8096 0.0000e+00
      8.238     -0.151     6.2147     51.308     39.553  25.182042     4.4100     0.9603     0.2982     0.5076 2.1878e-01    26.3603      8.078     11.717     6.8124 0.0000e+00
      8.198     -0.187     6.2251     51.423     39.576  25.199575     4.4100     0.9870     0.2982     0.5076 1.9372e-01    26.4505      8.040     11.660     6.8167 0.0000e+00
      8.148     -0.227     6.2345     51.564     39.539  25.177931     4.4100     0.9565     0.2982     0.5076 3.0647e-01    26.4806      7.990     11.588     6.8220 0.0000e+00
      8.084     -0.268     6.2435     51.725     39.467  25.133114     4.4100     0.9946     0.2982     0.5076 3.8468e-01    26.4204      7.927     11.498     6.8273 0.0000e+00
      8.007     -0.306     6.2537     51.891     39.386  25.082867     4.5000     1.0938     0.3408     0.5922 5.1059e-01    19.2360      7.852     11.389     6.8320 0.0000e+00
      7.921     -0.340     6.2672     52.025     39.300  25.029628     4.5000     1.0862     0.3408     0.5922 5.9810e-01    19.2060      7.767     11.266     6.8353 0.0000e+00
      7.826     -0.368     6.2840     52.096     39.198  24.967119     4.5000     1.0938     0.3408     0.5922 6.5997e-01    19.1459      7.675     11.132     6.8375 0.0000e+00
      7.726     -0.389     6.3034     52.088     39.080  24.894506     4.5000     1.1014     0.3408     0.5922 7.1974e-01    19.2360      7.577     10.989     6.8393 0.0000e+00
      7.621     -0.401     6.3233     52.003     38.966  24.826079     4.5900     0.9603     0.4686     0.5922 7.9161e-01    16.1849      7.474     10.840     6.8410 0.0000e+00
      7.514     -0.408     6.3393     51.874     38.878  24.775264     4.5900     0.9679     0.4686     0.5922 9.3092e-01    16.1999      7.369     10.688     6.8431 0.0000e+00
      7.407     -0.410     6.3476     51.759     38.803  24.734448     4.5900     0.9755     0.4686     0.5922 1.0622e+00    16.1398      7.264     10.536     6.8459 0.0000e+00
      7.302     -0.410     6.3460     51.716     38.718  24.688790     4.5900     0.9755     0.4686     0.5922 1.0967e+00    16.2150      7.161     10.386     6.8496 0.0000e+00
      7.199     -0.409     6.3348     51.804     38.615  24.634031     4.3200     1.0938     0.2982     0.4230 1.1496e+00    11.9314      7.060     10.239     6.8547 0.0000e+00
      7.097     -0.409     6.3180     52.065     38.507  24.579324     4.3200     1.1129     0.2982     0.4230 1.2164e+00    11.9765      6.960     10.094     6.8616 0.0000e+00
      6.995     -0.411     6.3025     52.515     38.419  24.541753     4.3200     1.1090     0.2982     0.4230 1.3160e+00    11.9464      6.860      9.949     6.8705 0.0000e+00
      6.891     -0.414     6.2955     53.154     38.351  24.519219     4.3200     1.1014     0.2982     0.4230 1.4083e+00    11.9614      6.757      9.801     6.8816 0.0000e+00
      6.784     -0.419     6.3039     53.961     38.281  24.497794     4.3200     1.2082     0.2982     0.4230 1.5567e+00     3.3492      6.653      9.649     6.8959 0.0000e+00
      6.676     -0.424     6.3326     54.912     38.209  24.475725     4.2300     1.2006     0.1704     1.0575 1.7121e+00     3.3191      6.547      9.495     6.9144 0.0000e+00
      6.566     -0.429     6.3835     55.989     38.131  24.451087     4.2300     1.2159     0.1704     1.0575 1.8526e+00     3.4243      6.439      9.339     6.9380 0.0000e+00
      6.457     -0.434     6.4565     57.174     38.053  24.427208     4.2300     1.2159     0.1704     1.0575 1.9633e+00     3.3642      6.332      9.184     6.9659 0.0000e+00
      6.347     -0.439     6.5495     58.447     37.981  24.409599     4.2300     1.4638     0.1704     1.0575 2.1207e+00     1.9213      6.224      9.027     6.9964 0.0000e+00
      6.235     -0.444     6.6596     59.787     37.911  24.395543     3.9600     1.4409     0.1278     0.2538 2.3549e+00     2.0115      6.114      8.868     7.0280 0.0000e+00
      6.120     -0.448     6.7845     61.182     37.843  24.385253     3.9600     1.4791     0.1278     0.2538 2.5316e+00     2.0115      6.002      8.705     7.0606 0.0000e+00
      6.004     -0.451     6.9221     62.620     37.780  24.379945     3.9600     1.4638     0.1278     0.2538 2.8512e+00     2.0566      5.888      8.540     7.0949 0.0000e+00
      5.887     -0.452     7.0695     64.093     37.721  24.378204     3.9600     2.0932     0.1278     0.2538 3.1999e+00     1.5606      5.773      8.373     7.1323 0.0000e+00
      5.770     -0.451     7.2241     65.591     37.671  24.383526     3.7800     2.0818     0.0852     0.1692 3.4595e+00     1.5606      5.659      8.207     7.1736 0.0000e+00
      5.655     -0.447     7.3845     67.101     37.630  24.395352     3.7800     2.0856     0.0852     0.1692 3.6861e+00     1.5907      5.546      8.044     7.2182 0.0000e+00
      5.542     -0.441     7.5493     68.608     37.584  24.404960     3.7800     2.0818     0.0852     0.1692 4.1433e+00     1.4854      5.435      7.882     7.2649 0.0000e+00
      5.429     -0.434     7.7175     70.093     37.534  24.410954     3.7800     2.5167     0.0852     0.1692 4.5471e+00     1.4854      5.325      7.722     7.3130 0.0000e+00
      5.319     -0.426     7.8882     71.529     37.486  24.416913     3.6900     2.5396     0.0426     0.2538 4.8990e+00     1.4554      5.216      7.565     7.3625 0.0000e+00
      5.211     -0.417     8.0597     72.890     37.442  24.424428     3.6900     2.5014     0.0426     0.2538 5.3952e+00     1.4854      5.110      7.411     7.4136 0.0000e+00
      5.105     -0.407     8.2302     74.152     37.406  24.435503     3.6900     2.5014     0.0426     0.2538 5.8558e+00     1.6808      5.007      7.261     7.4654 0.0000e+00
      5.003     -0.398     8.3978     75.289     37.379  24.451114     3.6900     2.6464     0.0426     0.2538 6.3612e+00     1.4253      4.906      7.116     7.5167 0.0000e+00
      4.903     -0.389     8.5595     76.289     37.359  24.469486     3.6900     2.6426     0.0426     0.2538 6.7222e+00     1.5456      4.809      6.974     7.5667 0.0000e+00
      4.806     -0.381     8.7121     77.154     37.333  24.483642     3.6900     2.6578     0.0426     0.2538 7.1114e+00     1.6057      4.714      6.836     7.6152 0.0000e+00
      4.711     -0.374     8.8529     77.890     37.300  24.493398     3.6900     2.6578     0.0426     0.2538 7.7067e+00     1.6508      4.620      6.700     7.6614 0.0000e+00
      4.616     -0.366     8.9792     78.514     37.276  24.509276     3.6900     3.1995     0.0426     0.2538 8.4542e+00     1.5606      4.527      6.565     7.7053 0.0000e+00
      4.522     -0.358     9.0892     79.058     37.260  24.531551     3.6900     3.1881     0.0426     0.2538 9.0768e+00     1.6508      4.435      6.432     7.7476 0.0000e+00
      4.431     -0.347     9.1830     79.556     37.237  24.550328     3.6000     3.2110     0.0426     0.3807 1.0070e+01     1.5907      4.345      6.302     7.7892 0.0000e+00
      4.342     -0.336     9.2612     80.042     37.204  24.562697     3.6000     3.1995     0.0426     0.3807 1.1059e+01     1.5155      4.258      6.176     7.8310 0.0000e+00
      4.257     -0.325     9.3256     80.551     37.166  24.571958     3.6000     4.3440     0.0426     0.3807 1.1783e+01     1.5756      4.175      6.055     7.8738 0.0000e+00
      4.178     -0.317     9.3801     81.100     37.123  24.576622     3.6000     4.3707     0.0426     0.3807 1.1897e+01     1.4704      4.097      5.942     7.9180 0.0000e+00
      4.102     -0.311     9.4288     81.681     37.079  24.577934     3.6000     4.3478     0.0000     0.3384 1.1920e+01     1.5305      4.022      5.834     7.9635 0.0000e+00
      4.026     -0.308     9.4757     82.277     37.041  24.580205     3.6000     4.3592     0.0000     0.3384 1.2809e+01     1.5005      3.948      5.726     8.0095 0.0000e+00
      3.949     -0.307     9.5253     82.871     37.010  24.584040     3.6000     4.5423     0.0000     0.3384 1.4012e+01     1.5305      3.872      5.616     8.0553 0.0000e+00
      3.869     -0.306     9.5799     83.450     36.993  24.594422     3.6000     4.5271     0.0000     0.3384 1.5129e+01     1.6207      3.794      5.503     8.0997 0.0000e+00
      3.789     -0.304     9.6388     84.000     37.000  24.618080     3.6000     4.5385     0.0426     0.4653 1.6632e+01     1.5606      3.715      5.389     8.1411 0.0000e+00
      3.709     -0.299     9.7003     84.507     37.018  24.649445     3.6000     4.5156     0.0426     0.4653 1.8139e+01     1.5606      3.637      5.276     8.1782 0.0000e+00
      3.632     -0.293     9.7627     84.963     37.024  24.673128     3.6000     5.2595     0.0426     0.4653 2.0054e+01     1.5756      3.562      5.166     8.2109 0.0000e+00
      3.558     -0.285     9.8240     85.360     37.007  24.683567     3.6000     5.2519     0.0426     0.4653 2.1109e+01     1.4704      3.489      5.061     8.2398 0.0000e+00
      3.489     -0.280     9.8824     85.688     36.980  24.687505     3.6000     5.2671     0.0426     0.4653 2.1027e+01     1.5756      3.421      4.962     8.2661 0.0000e+00
      3.421     -0.276     9.9359     85.946     36.952  24.689954     3.6000     5.2595     0.0426     0.4230 2.1634e+01     1.6207      3.355      4.866     8.2919 0.0000e+00
      3.353     -0.275     9.9829     86.153     36.932  24.695525     3.6000     5.1718     0.0426     0.4230 2.3333e+01     1.4854      3.288      4.770     8.3191 0.0000e+00
      3.284     -0.276    10.0226     86.341     36.923  24.705705     3.6000     5.1870     0.0426     0.4230 2.4524e+01     1.6357      3.220      4.671     8.3482 0.0000e+00
      3.212     -0.278    10.0539     86.535     36.915  24.715290     3.6000     5.1946     0.0426     0.4230 2.6885e+01     1.5606      3.150      4.569     8.3779 0.0000e+00
      3.139     -0.279    10.0773     86.755     36.907  24.722879     3.6000     5.1794     0.0426     0.5076 3.0003e+01     1.6508      3.078      4.465     8.4059 0.0000e+00
      3.066     -0.279    10.0954     87.005     36.893  24.726537     3.6000     5.3816     0.0426     0.5076 3.3013e+01     1.5606      3.007      4.361     8.4313 0.0000e+00
      2.995     -0.280    10.1119     87.282     36.875  24.727238     3.6000     5.3816     0.0426     0.5076 3.4144e+01     1.5456      2.937      4.260     8.4537 0.0000e+00
      2.926     -0.282    10.1298     87.570     36.853  24.725172     3.6000     5.3892     0.0426     0.5076 3.3753e+01     1.6057      2.869      4.162     8.4735 0.0000e+00
      2.857     -0.285    10.1512     87.833     36.826  24.719786     3.6000     5.3816     0.0426     0.5922 3.5329e+01     1.5456      2.801      4.063     8.4915 0.0000e+00
      2.784     -0.289    10.1762     88.037     36.804  24.717563     3.6000     5.5761     0.0426     0.5922 3.9823e+01     1.4103      2.730      3.961     8.5087 0.0000e+00
      2.709     -0.294    10.2044     88.179     36.793  24.721870     3.6000     5.5532     0.0426     0.5922 4.4937e+01     1.5155      2.656      3.853     8.5258 0.0000e+00
      2.632     -0.298    10.2337     88.290     36.794  24.733856     3.6000     5.5227     0.0426     0.5922 4.7405e+01     1.5606      2.580      3.743     8.5432 0.0000e+00
      2.554     -0.299    10.2601     88.403     36.800  24.748800     3.6000     5.5685     0.0426     0.6768 5.1073e+01     1.5907      2.504      3.632     8.5606 0.0000e+00
      2.476     -0.297    10.2797     88.535     36.804  24.762769     3.6000     5.8775     0.0426     0.6768 5.8211e+01     1.9063      2.428      3.521     8.5775 0.0000e+00
      2.399     -0.293    10.2924     88.688     36.811  24.779488     3.6000     5.8737     0.0426     0.6768 6.5872e+01     1.7860      2.352      3.412     8.5936 0.0000e+00
      2.324     -0.290    10.3015     88.865     36.818  24.795498     3.6000     5.8737     0.0426     0.6768 6.8040e+01     1.8161      2.279      3.306     8.6090 0.0000e+00
      2.253     -0.287    10.3108     89.079     36.813  24.803191     3.6000     5.8622     0.0426     0.6768 6.6852e+01     1.7259      2.209      3.205     8.6243 0.0000e+00
      2.183     -0.284    10.3224     89.324     36.799  24.804620     3.6000     5.9767     0.0426     0.8037 7.1698e+01     1.8462      2.141      3.105     8.6399 0.0000e+00
      2.111     -0.282    10.3363     89.574     36.788  24.808083     3.6000     6.0148     0.0426     0.8037 8.0257e+01     1.8161      2.070      3.003     8.6555 0.0000e+00
      2.038     -0.278    10.3531     89.804     36.783  24.814505     3.6000     5.9957     0.0426     0.8037 8.8636e+01     1.8462      1.999      2.899     8.6710 0.0000e+00
      1.965     -0.271    10.3741     90.008     36.780  24.821639     3.6000     5.9957     0.0426     0.8037 9.9845e+01     1.8161      1.926      2.794     8.6863 0.0000e+00
      1.893     -0.259    10.3989     90.197     36.782  24.831388     3.6000     6.3086     0.0426     0.8037 1.1111e+02     1.8011      1.856      2.692     8.7012 0.0000e+00
      1.825     -0.242    10.4244     90.377     36.782  24.840414     3.6000     6.2971     0.0426     0.8037 1.2459e+02     1.8762      1.790      2.595     8.7155 0.0000e+00
      1.764     -0.222    10.4478     90.547     36.776  24.845185     3.6000     6.3200     0.0426     0.8037 1.3573e+02     1.7410      1.729      2.508     8.7288 0.0000e+00
      1.710     -0.200    10.4685     90.706     36.768  24.848953     3.6000     6.2895     0.0426     0.8037 1.3680e+02     1.7710      1.677      2.432     8.7412 0.0000e+00
      1.665     -0.181    10.4874     90.854     36.761  24.852723     3.6000     6.6366     0.0852     0.9306 1.3441e+02     1.7259      1.633      2.368     8.7532 0.0000e+00
      1.625     -0.166    10.5053     90.999     36.751  24.853542     3.6000     6.6366     0.0852     0.9306 1.3686e+02     1.7560      1.594      2.311     8.7652 0.0000e+00
      1.588     -0.158    10.5220     91.145     36.736  24.849649     3.6000     6.6023     0.0852     0.9306 1.3573e+02     1.8612      1.558      2.259     8.7774 0.0000e+00
      1.553     -0.157    10.5374     91.278     36.717  24.841986     3.6000     6.5985     0.0852     0.9306 1.3473e+02     1.9063      1.523      2.209     8.7895 0.0000e+00
      1.516     -0.163    10.5517     91.391     36.697  24.832467     3.6000     6.1178     0.0426     0.9306 1.3420e+02     1.7560      1.487      2.156     8.8008 0.0000e+00
      1.475     -0.175    10.5660     91.484     36.674  24.820536     3.6000     6.1140     0.0426     0.9306 1.3850e+02     1.7560      1.447      2.098     8.8109 0.0000e+00
      1.430     -0.188    10.5806     91.554     36.656  24.810927     3.6000     6.1140     0.0426     0.9306 1.4538e+02     1.8161      1.402      2.034     8.8197 0.0000e+00
      1.379     -0.203    10.5943     91.590     36.655  24.812957     3.6000     6.1445     0.0426     0.9306 1.6118e+02     1.8462      1.352      1.961     8.8269 0.0000e+00
      1.323     -0.217    10.6060     91.583     36.667  24.823208     3.6000     6.2246     0.0426     0.9306 1.8058e+02     1.8311      1.297      1.882     8.8325 0.0000e+00
      1.264     -0.230    10.6156     91.523     36.678  24.832535     3.6000     6.2208     0.0426     0.9729 1.8771e+02     1.7560      1.240      1.799     8.8369 0.0000e+00
      1.205     -0.243    10.6228     91.408     36.683  24.837488     3.6000     6.2361     0.0426     0.9729 1.8483e+02     1.8161      1.182      1.714     8.8407 0.0000e+00
      1.143     -0.254    10.6261     91.247     36.686  24.841367     3.6000     6.2361     0.0426     0.9729 1.9720e+02     1.7560      1.121      1.625     8.8440 0.0000e+00
      1.076     -0.263    10.6246     91.049     36.694  24.849167     3.6000     6.4917     0.0426     0.9729 2.2141e+02     1.8161      1.056      1.531     8.8469 0.0000e+00
      1.006     -0.270    10.6169     90.832     36.702  24.857027     3.5100     6.4955     0.0426     0.8883 2.4607e+02     1.8161      0.987      1.431     8.8496 0.0000e+00
      0.933     -0.273    10.6030     90.618     36.706  24.863086     3.5100     6.4993     0.0426     0.8883 2.5511e+02     1.8161      0.916      1.328     8.8522 0.0000e+00
      0.860     -0.271    10.5835     90.430     36.713  24.870939     3.5100     6.4764     0.0426     0.8883 3.2182e+02     1.7560      0.844      1.224     8.8550 0.0000e+00
      0.789     -0.266    10.5598     90.283     36.717  24.876741     3.5100     6.4154     0.0426     0.8883 3.1987e+02     1.7710      0.774      1.122     8.8582 0.0000e+00
      0.722     -0.257    10.5336     90.190     36.713  24.878080     3.5100     6.4077     0.0000     1.0575 3.3905e+02     1.8011      0.708      1.026     8.8618 0.0000e+00
      0.659     -0.248    10.5078     90.159     36.704  24.877294     3.5100     6.4039     0.0000     1.0575 3.1538e+02     1.8462      0.646      0.937     8.8657 0.0000e+00
      0.598     -0.238    10.4850     90.192     36.692  24.874172     3.5100     6.4192     0.0000     1.0575 3.3393e+02     1.8311      0.587      0.851     8.8699 0.0000e+00
      0.539     -0.228    10.4668     90.287     36.680  24.871842     3.5100     5.9729     0.0000     1.0575 3.7575e+02     1.7560      0.529      0.767     8.8747 0.0000e+00
      0.481     -0.218    10.4546     90.446     36.672  24.871662     3.6000     5.9843     0.0852     0.9306 3.9768e+02     1.8311      0.472      0.684     8.8802 0.0000e+00
      0.425     -0.207    10.4493     90.678     36.674  24.877544     3.6000     5.9919     0.0852     0.9306 3.0414e+02     1.8462      0.417      0.605     8.8867 0.0000e+00
      0.372     -0.195    10.4514     90.980     36.686  24.889077     3.6000     5.9805     0.0852     0.9306 4.5237e+02     1.8161      0.365      0.530     8.8940 0.0000e+00
      0.324     -0.183    10.4605     91.330     36.687  24.891520     3.6000     5.9462     0.0852     0.9306 3.1821e+02     1.8612      0.317      0.460     8.9016 0.0000e+00
      0.280     -0.173    10.4771     91.684     36.676  24.885524     3.6000     5.9233     0.0852     0.9306 3.1552e+02     1.8011      0.274      0.398     8.9087 0.0000e+00
      0.239     -0.165    10.5025     91.995     36.672  24.883348     3.6000     5.9156     0.0426     0.9729 3.4824e+02     1.7710      0.235      0.341     8.9147 0.0000e+00
      0.202     -0.163    10.5363     92.235     36.677  24.886391     3.6000     5.9271     0.0426     0.9729 4.3013e+02     1.8011      0.198      0.287     8.9192 0.0000e+00
      0.164     -0.167    10.5761     92.385     36.681  24.889525     3.6000     5.8164     0.0426     0.9729 4.1345e+02     1.8462      0.160      0.233     8.9221 0.0000e+00
      0.123     -0.176    10.6167     92.431     36.679  24.889629     3.6000     5.8050     0.0426     0.9729 4.8190e+02     1.7259      0.121      0.175     8.9237 0.0000e+00
      0.079     -0.189    10.6526     92.369     36.681  24.892667     3.6000     5.8088     0.0000     0.9729 4.9787e+02     1.7560      0.077      0.112     8.9243 0.0000e+00
      0.030     -0.201    10.6803     92.211     36.690  24.901429     3.6000     5.8088     0.0000     0.9729 4.8823e+02     1.6959      0.029      0.042     8.9247 0.0000e+00
     -0.026     -0.209    10.6975     91.994     36.701  24.912314     3.6000     4.7140     0.0000     0.9729 2.9793e+02     1.8762     -0.026     -0.038     8.9253 0.0000e+00
     -0.087     -0.212    10.7024     91.764     36.708  24.922286     3.6000     4.6987     0.0000     0.9729 8.4971e+02     1.7860     -0.086     -0.124     8.9266 0.0000e+00
     -0.147     -0.209    10.6946     91.553     36.711  24.930045     3.6000     4.7178     0.0000     0.8883 5.7253e+02     1.7860     -0.144     -0.209     8.9289 0.0000e+00
     -0.201     -0.201    10.6754     91.371     36.714  24.937660     3.6000     4.7102     0.0000     0.8883 6.8972e+02     1.7259     -0.197     -0.286     8.9326 0.0000e+00
     -0.250     -0.189    10.6489     91.221     36.713  24.943204     3.6000     4.2867     0.0000     0.8883 4.5563e+02     1.7259     -0.245     -0.355     8.9378 0.0000e+00
     -0.296     -0.174    10.6206     91.081     36.713  24.948155     3.6000     4.2867     0.0000     0.8883 2.1859e+02     1.7560     -0.290     -0.420     8.9446 0.0000e+00
     -0.338     -0.157    10.5942     90.898     36.709  24.949873     3.6000     4.3020     0.0000     0.8883 6.6341e+02     1.8762     -0.331     -0.481     8.9524 0.0000e+00
     -0.378     -0.138    10.5711     90.596     36.692  24.940901     3.5100     4.3058     0.0426     0.8037 8.6161e+02     1.9063     -0.370     -0.537     8.9607 0.0000e+00
     -0.413     -0.119    10.5517     90.102     36.671  24.926762     3.5100     4.7178     0.0426     0.8037 1.0108e+03     1.8161     -0.405     -0.588     8.9686 0.0000e+00
     -0.443     -0.097    10.5337     89.373     36.644  24.907646     3.5100     4.7064     0.0426     0.8037 9.2005e+02     1.7860     -0.435     -0.630     8.9757 0.0000e+00
     -0.463     -0.075    10.5111     88.414     36.600  24.874497     3.5100     4.6949     0.0426     0.8037 1.0682e+03     1.7410     -0.455     -0.659     8.9812 0.0000e+00
     -0.477     -0.052    10.4754     87.272     36.535  24.826392     0.5400     4.7064     0.0852    -4.6530 8.9054e+02     1.7860     -0.468     -0.678     8.9844 0.0000e+00
     -0.487     -0.032    10.4181     86.019     36.447  24.762380     0.5400     4.9047     0.0852    -4.6530 1.0409e+03     2.2971     -0.477     -0.693     8.9851 0.0000e+00
     -0.493     -0.016    10.3341     84.766     36.318  24.669352     0.5400     4.8933     0.0852    -4.6530 9.9405e+02     2.2971     -0.483     -0.701     8.9834 0.0000e+00
     -0.492     -0.005    10.2241     83.635     36.112  24.524478     0.5400     4.9009     0.0852    -4.6530 1.0475e+03     2.3722     -0.482     -0.700     8.9797 0.0000e+00
     -0.487      0.001    10.0933     82.718     35.778  24.293084    -4.3200     4.8666     1.6614    -3.7224 1.0326e+03     2.3271     -0.478     -0.693     8.9743 0.0000e+00
     -0.483      0.003     9.9501     82.035     35.225  23.913465    -4.3200     4.3516     1.6614    -3.7224 1.0256e+03     1.8462     -0.474     -0.688     8.9676 0.0000e+00
     -0.481     -0.000     9.8067     81.546     34.297  23.280430    -4.3200     4.3516     1.6614    -3.7224 1.0642e+03     1.8311     -0.472     -0.685     8.9605 0.0000e+00
     -0.481     -0.007     9.6776     81.178     32.743  22.223191    -4.3200     4.3668     1.6614    -3.7224 1.0436e+03     1.6959     -0.472     -0.685     8.9535 0.0000e+00
     -0.484     -0.018     9.5730     80.852     30.141  20.455857     3.4200     4.3516     0.0426    -2.2419 1.0252e+03     1.7560     -0.475     -0.688     8.9470 0.0000e+00
     -0.489     -0.029     9.4953     80.507     25.785  17.499221     3.4200     4.6301     0.0426    -2.2419 9.8288e+02     1.7860     -0.480     -0.696     8.9411 0.0000e+00
     -0.497     -0.042     9.4399     80.103     19.859  13.477108     3.4200     4.6415     0.0426    -2.2419 1.0102e+03     1.8462     -0.488     -0.707     8.9362 0.0000e+00
     -0.509     -0.053     9.3981     79.639     14.202   9.637924     3.4200     4.6644     0.0426    -2.2419 1.0205e+03     1.8311     -0.499     -0.724     8.9327 0.0000e+00
     -0.525     -0.061     9.3610     79.161     10.178   6.906531     3.4200     4.6377     0.0426    -2.2419 1.0223e+03     1.7860     -0.515     -0.747     8.9304 0.0000e+00
     -0.545     -0.066     9.3215     78.732      7.621   5.171619     3.6000    -0.2719     0.0852     0.4230 9.5987e+02    40.1430     -0.535     -0.775     8.9287 0.0000e+00
     -0.566     -0.066     9.2752     78.406      6.009   4.077326     3.6000    -0.2795     0.0852     0.4230 1.0848e+03    40.1430     -0.555     -0.806     8.9271 0.0000e+00
     -0.586     -0.062     9.2221     78.210      5.004   3.395116     3.6000    -0.3139     0.0852     0.4230 9.9990e+02    40.0227     -0.574     -0.833     8.9253 0.0000e+00
     -0.601     -0.055     9.1672     78.151      4.402   2.986567     3.6000    -0.2910     0.0852     0.4230 1.0252e+03    40.0979     -0.589     -0.855     8.9236 0.0000e+00
     -0.613     -0.045     9.1179     78.219      4.060   2.754599    -1.9800     7.8268     0.8946     2.7918 2.3566e+02   126.5061     -0.601     -0.872     8.9222 0.0000e+00
     -0.622     -0.036     9.0804     78.394      3.864   2.621533    -1.9800     7.8306     0.8946     2.7918 1.0019e+03   126.4310     -0.611     -0.885     8.9213 0.0000e+00
     -0.630     -0.028     9.0579     78.651      3.744   2.540022    -1.9800     7.8421     0.8946     2.7918 2.6883e+02   126.3859     -0.618     -0.895     8.9206 0.0000e+00
     -0.635     -0.022     9.0512     78.958      3.665   2.486351    -1.9800     7.8535     0.8946     2.7918 1.0148e+03   126.4159     -0.623     -0.903     8.9200 0.0000e+00
     -0.640     -0.017     9.0592     79.277      3.592   2.436322     0.0000     6.8960    -1.7466     1.8612 1.0679e+03   966.2098     -0.627     -0.910     8.9192 0.0000e+00
     -0.643     -0.014     9.0798     79.585      3.522   2.388458     0.0000     6.9380    -1.7466     1.8612 1.0252e+03   966.2098     -0.631     -0.915     8.9181 0.0000e+00
     -0.646     -0.011     9.1099     79.872      3.462   2.347792     0.0000     6.9304    -1.7466     1.8612 9.8716e+02   966.2098     -0.634     -0.919     8.9166 0.0000e+00
     -0.648     -0.008     9.1459     80.131      3.397   2.303480     0.0000     6.9304    -1.7466     1.8612 1.1852e+02   966.4352     -0.636     -0.922     8.9145 0.0000e+00
     -0.650     -0.007     9.1834     80.355      3.324   2.253590     0.0000     4.8551    -3.1524     7.6563 1.0946e+02    -3.4745     -0.637     -0.924     8.9120 0.0000e+00
     -0.651     -0.005     9.2197     80.546      3.261   2.210525     0.0000     4.8513    -3.1524     7.6563 1.0048e+02    -3.4595     -0.639     -0.926     8.9091 0.0000e+00
     -0.652     -0.004     9.2536     80.709      3.220   2.182573     0.0000     4.8437    -3.1524     7.6563 1.0946e+02    -3.5647     -0.640     -0.927     8.9060 0.0000e+00
     -0.653     -0.003     9.2843     80.852      3.190   2.162282     0.0000     4.8284    -3.1524     7.6563 1.0960e+02    -3.5497     -0.640     -0.929     8.9026 0.0000e+00
     -0.653     -0.002     9.3112     80.986      3.170   2.148194     0.0000     8.5593    -3.1524     7.6563 1.0291e+02   966.1948     -0.641     -0.929     8.8990 0.0000e+00
     -0.654     -0.002     9.3342     81.112      3.165   2.144462    -0.1800     8.5745    -1.3632   -11.2095 9.3952e+01   966.2699     -0.641     -0.930     8.8952 0.0000e+00
     -0.654     -0.001     9.3539     81.223      3.156   2.138228    -0.1800     8.5593    -1.3632   -11.2095 8.6656e+01   966.3000     -0.642     -0.931     8.8912 0.0000e+00
     -0.654     -0.001     9.3714     81.318      3.117   2.112010    -0.1800     8.6012    -1.3632   -11.2095 8.8252e+01   966.2849     -0.642     -0.931     8.8871 0.0000e+00
     -0.655     -0.001     9.3879     81.397      3.045   2.062770    -0.1800    11.4241    -1.3632   -11.2095 9.0308e+01    19.7170     -0.642     -0.931     8.8830 0.0000e+00
     -0.655     -0.001     9.4034     81.463      2.949   1.997153     0.0000    12.7288     1.1928     0.2538 9.3524e+01    19.5066     -0.642     -0.932     8.8788 0.0000e+00
     -0.655     -0.000     9.4173     81.521      2.843   1.925342     0.0000    12.7669     1.1928     0.2538 9.2795e+01    19.4615     -0.642     -0.932     8.8746 0.0000e+00
     -0.655     -0.000     9.4292     81.570      2.750   1.861801     0.0000    12.7402     1.1928     0.2538 8.8099e+01    19.5517     -0.643     -0.932     8.8702 0.0000e+00
     -0.655     -0.000     9.4394     81.608      2.690   1.821223     0.0000     7.1974     1.1928     0.2538 9.1832e+01    -0.2881     -0.643     -0.932     8.8658 0.0000e+00
     -0.655 -1.118e-09     9.4482     81.638      2.663   1.802674     0.0000    -2.8202     2.4708    -6.5565 9.2856e+01    -0.4534     -0.643     -0.932     8.8612 0.0000e+00
     -0.655 -1.438e-09     9.4559     81.662      2.661   1.801207     0.0000    -2.8163     2.4708    -6.5565 9.9477e+01    -0.4234     -0.643     -0.932     8.8565 0.0000e+00
     -0.655 -1.849e-09     9.4627     81.684      2.696   1.824341     0.0000    -2.8354     2.4708    -6.5565 9.2856e+01    -0.3783     -0.643     -0.932     8.8517 0.0000e+00
     -0.655 -2.377e-09     9.4682     81.708      2.764   1.870335     0.0000    -2.8507     2.4708    -6.5565 9.6728e+01    -2.4224     -0.643     -0.932     8.8469 0.0000e+00
     -0.655 -3.056e-09     9.4728     81.735      2.847   1.925749     0.0000     5.8584    -0.1704     2.4111 9.6099e+01    -4.8573     -0.643     -0.932     8.8420 0.0000e+00
     -0.655 -3.929e-09     9.4766     81.763      2.918   1.973724     0.0000     5.8622    -0.1704     2.4111 1.1870e+02    -4.7070     -0.643     -0.932     8.8373 0.0000e+00
     -0.656 -5.051e-09     9.4802     81.793      2.965   2.005303     0.0000     5.8813    -0.1704     2.4111 1.1190e+03    -4.8422     -0.643     -0.932     8.8327 0.0000e+00
     -0.656 -6.495e-09     9.4840     81.822      3.000   2.028907     0.0000     5.8851    -0.1704     2.4111 8.1258e+01    -4.8122     -0.643     -0.933     8.8282 0.0000e+00
     -0.656 -8.350e-09     9.4882     81.843      3.027   2.046875     0.0000     2.7227    -0.1704     2.4111 7.6229e+01   966.3150     -0.643     -0.933     8.8240 0.0000e+00
     -0.656 -1.074e-08     9.4924     81.854      3.053   2.063998     0.0000     2.6845     0.0000    -2.3688 8.3513e+01   966.4052     -0.643     -0.933     8.8199 0.0000e+00
     -0.656 -1.380e-08     9.4967     81.857      3.096   2.092754     0.0000     2.7074     0.0000    -2.3688 8.8175e+01   966.2699     -0.643     -0.933     8.8160 0.0000e+00
     -0.656 -1.775e-08     9.5010     81.852      3.144   2.124990     0.0000     2.6998     0.0000    -2.3688 1.0856e+02   966.2098     -0.643     -0.933     8.8121 0.0000e+00
     -0.656 -2.282e-08     9.5044     81.839      3.168   2.141622     0.0000   245.2229     0.0000    -2.3688 1.6634e+02    -3.8052     -0.643     -0.933     8.8082 0.0000e+00
     -0.656 -2.934e-08     9.5065     81.820      3.142   2.123356     0.0000   245.2038    -7.1142     1.6497 1.2402e+03    -3.8352     -0.643     -0.933     8.8044 0.0000e+00
     -0.656 -3.772e-08     9.5077     81.793      3.056   2.065320     0.0000   245.1580    -7.1142     1.6497 1.2838e+03    -3.8352     -0.643     -0.933     8.8007 0.0000e+00
     -0.656 -4.850e-08     9.5079     81.753      2.950   1.993564     0.0000   245.1885    -7.1142     1.6497 1.6552e+02    -3.7450     -0.643     -0.933     8.7970 0.0000e+00
     -0.656 -6.235e-08     9.5073     81.698      2.857   1.930475     0.0000    -0.1994    -7.1142     1.6497 1.6660e+02     2.5376     -0.643     -0.933     8.7935 0.0000e+00
     -0.656 -8.017e-08     9.5058     81.631      2.770   1.871093     0.0000    -0.1575     1.1928     2.4111 3.1333e+02     2.5225     -0.643     -0.933     8.7901 0.0000e+00
     -0.656 -1.031e-07     9.5034     81.553      2.673   1.805516     0.0000    -0.1575     1.1928     2.4111 1.9918e+02     2.5075     -0.643     -0.933     8.7868 0.0000e+00
     -0.656 -1.325e-07     9.4995     81.465      2.550   1.722188     0.0000    -0.1803     1.1928     2.4111 1.2289e+03     2.6127     -0.643     -0.933     8.7837 0.0000e+00
     -0.656 -1.704e-07     9.4938     81.370      2.391   1.614706     0.0000     0.2660     1.1928     2.4111 1.2209e+03     1.0345     -0.643     -0.933     8.7806 0.0000e+00
     -0.656 -2.191e-07     9.4867     81.274      2.221   1.499886     0.9000     0.2431    -2.6412     0.4653 1.2056e+03     1.0796     -0.643     -0.933     8.7777 0.0000e+00
     -0.656 -2.817e-07     9.4782     81.184      2.059   1.390609     0.9000     0.2431    -2.6412     0.4653 1.1965e+03     1.1398     -0.643     -0.933     8.7749 0.0000e+00
     -0.656 -3.621e-07     9.4686     81.105      1.895   1.279484     0.9000     0.2278    -2.6412     0.4653 2.0184e+02     1.0796     -0.643     -0.933     8.7722 0.0000e+00
     -0.656 -4.656e-07     9.4581     81.030      1.730   1.168515     0.9000    -0.2528    -2.6412     0.4653 2.3170e+02     0.0576     -0.643     -0.933     8.7697 0.0000e+00
     -0.656 -4.667e-07     9.4475     80.954      1.587   1.071607     0.9000    -0.2643    -2.6412     0.4653 1.1178e+03     0.0576     -0.643     -0.933     8.7673 0.0000e+00
     -0.656 -3.655e-07     9.4376     80.878      1.470   0.992578     4.8600    -0.2338     3.4932     2.6649 5.9796e+02     0.1027     -0.643     -0.933     8.7651 0.0000e+00
     -0.656 -2.876e-07     9.4288     80.809      1.377   0.930125     4.8600    -0.2566     3.4932     2.6649 1.9728e+02     0.0726     -0.643     -0.933     8.7631 0.0000e+00
     -0.656 -2.279e-07     9.4206     80.753      1.311   0.885388     4.8600    -0.1269     3.4932     2.6649 1.9075e+02    -0.0627     -0.643     -0.933     8.7612 0.0000e+00
     -0.656 -1.826e-07     9.4122     80.712      1.265   0.854347     4.8600    -0.1231     3.4932     2.6649 1.6508e+02    -0.1679     -0.643     -0.933     8.7594 0.0000e+00
     -0.656 -1.490e-07     9.4037     80.687      1.227   0.828723     0.0000    -0.1346    -0.1278    -0.4653 1.3998e+02    -0.1829     -0.643     -0.933     8.7576 0.0000e+00
     -0.655 -1.248e-07     9.3961     80.683      1.193   0.805639     0.0000    -0.1575    -0.1278    -0.4653 1.2917e+02    -0.1378     -0.643     -0.932     8.7559 0.0000e+00
     -0.655 -1.086e-07     9.3900     80.704      1.166   0.786847     0.0000    -0.1460    -0.1278    -0.4653 1.1562e+02    -0.3482     -0.643     -0.932     8.7543 0.0000e+00
     -0.655 -9.924e-08     9.3856     80.739      1.148   0.775245     0.0000    -0.1269    -0.1278    -0.4653 1.6523e+02    -0.4084     -0.643     -0.932     8.7527 0.0000e+00
     -0.655 -9.618e-08     9.3830     80.757      1.143   0.771693     0.0000    -0.1193     0.0000    -0.2538 1.7018e+02    -0.3783     -0.643     -0.932     8.7512 0.0000e+00
     -0.655 -9.990e-29     9.3829 -9.990e-29 -9.990e-29 -9.990e-29     0.0000 -9.990e-29     0.0000    -0.2538 1.7227e+02 -9.990e-29     -0.643     -0.932     8.7498 0.0000e+00
     -0.655 -9.990e-29     9.3856 -9.990e-29 -9.990e-29 -9.990e-29     0.0000 -9.990e-29     0.0000    -0.2538 1.7230e+02 -9.990e-29     -0.643     -0.932     8.7487 0.0000e+00
     -0.655 -9.990e-29     9.3898 -9.990e-29 -9.990e-29 -9.990e-29     0.0000 -9.990e-29     0.0000    -0.2538 1.7219e+02 -9.990e-29     -0.643     -0.932     8.7478 0.0000e+00
     -0.655 -9.990e-29     9.3920 -9.990e-29 -9.990e-29 -9.990e-29     0.0000 -9.990e-29     0.4260     0.1269 1.7186e+02 -9.990e-29     -0.643     -0.932     8.7475 0.0000e+00
