* Sea-Bird SBE19plus  Data File:
* FileName = C:\R\Reservoirs\Data\DataNotYetUploadedToEDI\Raw_CTD\RawDownloads\031025_fcr50_S7809_0004.hex
* Software version 2.8.0.119
* Temperature SN = 7809
* Conductivity SN = 7809
* System UpLoad Time = Mar 13 2025 14:42:38
* <ApplicationData>
* <Seaterm232>
* <SoftwareVersion>2.8.0.119</SoftwareVersion>
* <BuildDate>07-Nov-2018</BuildDate>
* </Seaterm232>
* </ApplicationData>
* <InstrumentState>
* <HardwareData DeviceType='SBE19plus' SerialNumber='01907809'>
*
*    <Manufacturer>Sea-Bird Electronics, Inc.</Manufacturer>
*
*    <FirmwareVersion>3.1.8</FirmwareVersion>
*
*    <FirmwareDate>Mar  9 2016 16:22:29</FirmwareDate>
*
*    <CommandSetVersion>1.4</CommandSetVersion>
*
*    <PCBAssembly PCBSerialNum='120721' AssemblyNum='41054J'/>
*
*    <PCBAssembly PCBSerialNum='120715' AssemblyNum='41967A'/>
*
*    <PCBAssembly PCBSerialNum='116699' AssemblyNum='41606'/>
*
*    <PCBAssembly PCBSerialNum='120719' AssemblyNum='41059D'/>
*
*    <MfgDate>28-Apr-2017</MfgDate>
*
*    <InternalSensors>
*
*       <Sensor id='Main Temperature'>
*
*          <type>temperature0</type>
*
*          <SerialNumber>01907809</SerialNumber>
*
*       </Sensor>
*
*       <Sensor id='Main Conductivity'>
*
*          <type>conductivity-0</type>
*
*          <SerialNumber>01907809</SerialNumber>
*
*       </Sensor>
*
*       <Sensor id='Main Pressure'>
*
*          <type>strain-0</type>
*
*          <SerialNumber>10586018</SerialNumber>
*
*       </Sensor>
*
*    </InternalSensors>
*
*    <ExternalSensors>
*
*       <Sensor id='volt 0'>
*
*          <type>pH</type>
*
*          <SerialNumber>27-0363</SerialNumber>
*
*       </Sensor>
*
*       <Sensor id='volt 1'>
*
*          <type>ORP</type>
*
*          <SerialNumber>27-0363</SerialNumber>
*
*       </Sensor>
*
*       <Sensor id='volt 2'>
*
*          <type>OXY</type>
*
*          <SerialNumber>43-0434</SerialNumber>
*
*       </Sensor>
*
*       <Sensor id='volt 3'>
*
*          <type>PAR</type>
*
*          <SerialNumber>1122</SerialNumber>
*
*       </Sensor>
*
*       <Sensor id='volt 4'>
*
*          <type>ECO AFL/FL</type>
*
*          <SerialNumber>FLNTURT-2496</SerialNumber>
*
*       </Sensor>
*
*       <Sensor id='volt 5'>
*
*          <type>ECO-NTU</type>
*
*          <SerialNumber>FLNTURT-2496</SerialNumber>
*
*       </Sensor>
*
*       <Sensor id='serial'>
*
*          <type>not assigned</type>
*
*          <SerialNumber>not assigned</SerialNumber>
*
*       </Sensor>
*
*    </ExternalSensors>
*
* </HardwareData>
* <StatusData DeviceType='SBE19plus' SerialNumber='01907809'>
*
*    <DateTime>2025-03-13T14:40:41</DateTime>
*
*    <LoggingState>not logging</LoggingState>
*
*    <EventSummary numEvents='0'/>
*
*    <Power>
*
*       <vMain>13.0</vMain>
*
*       <vLith>8.3</vLith>
*
*       <iMain>63.1</iMain>
*
*       <iPump>63.3</iPump>
*
*       <iExt01>19.8</iExt01>
*
*       <iExt2345>36.3</iExt2345>
*
*    </Power>
*
*    <MemorySummary>
*
*       <Bytes>122429</Bytes>
*
*       <Samples>5323</Samples>
*
*       <SamplesFree>2855465</SamplesFree>
*
*       <SampleLength>23</SampleLength>
*
*       <Profiles>6</Profiles>
*
*    </MemorySummary>
*
* </StatusData>
* <ConfigurationData DeviceType='SBE19plus' SerialNumber='01907809'>
*
*    <ProfileMode>
*
*       <ScansToAverage>1</ScansToAverage>
*
*       <MinimumCondFreq>0</MinimumCondFreq>
*
*       <PumpDelay>45</PumpDelay>
*
*       <AutoRun>no</AutoRun>
*
*       <IgnoreSwitch>no</IgnoreSwitch>
*
*    </ProfileMode>
*
*    <Battery>
*
*       <Type>alkaline</Type>
*
*       <CutOff>7.5</CutOff>
*
*    </Battery>
*
*    <DataChannels>
*
*       <ExtVolt0>yes</ExtVolt0>
*
*       <ExtVolt1>yes</ExtVolt1>
*
*       <ExtVolt2>yes</ExtVolt2>
*
*       <ExtVolt3>yes</ExtVolt3>
*
*       <ExtVolt4>yes</ExtVolt4>
*
*       <ExtVolt5>yes</ExtVolt5>
*
*       <SBE38>no</SBE38>
*
*       <WETLABS>no</WETLABS>
*
*       <OPTODE>no</OPTODE>
*
*       <SBE63>no</SBE63>
*
*       <SeaFET>no</SeaFET>
*
*       <GTD>no</GTD>
*
*    </DataChannels>
*
*    <EchoCharacters>yes</EchoCharacters>
*
*    <OutputExecutedTag>yes</OutputExecutedTag>
*
*    <OutputFormat>raw HEX</OutputFormat>
*
* </ConfigurationData>
* <CalibrationCoefficients DeviceType='SBE19plus' SerialNumber='01907809'>
*
*    <Calibration format='TEMP1' id='Main Temperature'>
*
*       <SerialNum>01907809</SerialNum>
*
*       <CalDate>31-Jan-23</CalDate>
*
*       <TA0>1.218232e-03</TA0>
*
*       <TA1>2.815090e-04</TA1>
*
*       <TA2>-1.578887e-06</TA2>
*
*       <TA3>1.972343e-07</TA3>
*
*       <TOFFSET>0.000000e+00</TOFFSET>
*
*    </Calibration>
*
*    <Calibration format='WBCOND0' id='Main Conductivity'>
*
*       <SerialNum>01907809</SerialNum>
*
*       <CalDate>31-Jan-23</CalDate>
*
*       <G>-1.005652e+00</G>
*
*       <H>1.267963e-01</H>
*
*       <I>-1.561708e-04</I>
*
*       <J>2.645944e-05</J>
*
*       <CPCOR>-9.570000e-08</CPCOR>
*
*       <CTCOR>3.250000e-06</CTCOR>
*
*       <CSLOPE>1.000000e+00</CSLOPE>
*
*    </Calibration>
*
*    <Calibration format='STRAIN0' id='Main Pressure'>
*
*       <SerialNum>10586018</SerialNum>
*
*       <CalDate>20-Jan-23</CalDate>
*
*       <PA0>4.416439e-02</PA0>
*
*       <PA1>4.850502e-04</PA1>
*
*       <PA2>-3.090426e-12</PA2>
*
*       <PTCA0>5.254757e+05</PTCA0>
*
*       <PTCA1>1.050255e+01</PTCA1>
*
*       <PTCA2>-2.922435e-01</PTCA2>
*
*       <PTCB0>2.516687e+01</PTCB0>
*
*       <PTCB1>3.750000e-04</PTCB1>
*
*       <PTCB2>0.000000e+00</PTCB2>
*
*       <PTEMPA0>-5.470820e+01</PTEMPA0>
*
*       <PTEMPA1>5.485421e+01</PTEMPA1>
*
*       <PTEMPA2>-3.446578e-01</PTEMPA2>
*
*       <POFFSET>8.500000e-01</POFFSET>
*
*       <PRANGE>1.600000e+02</PRANGE>
*
*    </Calibration>
*
*    <Calibration format='VOLT0' id='Volt 0'>
*
*       <OFFSET>-4.920000e-02</OFFSET>
*
*       <SLOPE>1.248122e+00</SLOPE>
*
*    </Calibration>
*
*    <Calibration format='VOLT0' id='Volt 1'>
*
*       <OFFSET>-4.784000e-02</OFFSET>
*
*       <SLOPE>1.248871e+00</SLOPE>
*
*    </Calibration>
*
*    <Calibration format='VOLT0' id='Volt 2'>
*
*       <OFFSET>-4.864632e-02</OFFSET>
*
*       <SLOPE>1.248714e+00</SLOPE>
*
*    </Calibration>
*
*    <Calibration format='VOLT0' id='Volt 3'>
*
*       <OFFSET>-4.743790e-02</OFFSET>
*
*       <SLOPE>1.248571e+00</SLOPE>
*
*    </Calibration>
*
*    <Calibration format='VOLT0' id='Volt 4'>
*
*       <OFFSET>-4.671263e-02</OFFSET>
*
*       <SLOPE>1.248951e+00</SLOPE>
*
*    </Calibration>
*
*    <Calibration format='VOLT0' id='Volt 5'>
*
*       <OFFSET>-4.871053e-02</OFFSET>
*
*       <SLOPE>1.249136e+00</SLOPE>
*
*    </Calibration>
*
*    <Calibration format='FREQ0' id='external frequency channel'>
*
*       <EXTFREQSF>1.000014e+00</EXTFREQSF>
*
*    </Calibration>
*
* </CalibrationCoefficients>
* <EventCounters DeviceType='SBE19plus' SerialNumber='01907809'>
*
*    <EventSummary numEvents='0'/>
*
* </EventCounters></InstrumentState>
* <Headers>
*
* cast   4 10 Mar 2025 13:30:06 samples 2482 to 3226, avg = 1, stop = mag switch
*
# nquan = 15
# nvalues = 745                         
# units = specified
# name 0 = depFM: Depth [fresh water, m]
# name 1 = dz/dtM: Descent Rate [m/s]
# name 2 = sbeox0Mg/L: Oxygen, SBE 43 [mg/l]
# name 3 = sbeox0PS: Oxygen, SBE 43 [% saturation]
# name 4 = specc: Specific Conductance [uS/cm]
# name 5 = c0uS/cm: Conductivity [uS/cm]
# name 6 = flECO-AFL: Fluorescence, WET Labs ECO-AFL/FL [mg/m^3]
# name 7 = ph: pH
# name 8 = orp: Oxidation Reduction Potential [mV]
# name 9 = par/sat/log: PAR/Logarithmic, Satlantic
# name 10 = turbWETntu0: Turbidity, WET Labs ECO [NTU]
# name 11 = prdM: Pressure, Strain Gauge [db]
# name 12 = prdE: Pressure, Strain Gauge [psi]
# name 13 = tv290C: Temperature [ITS-90, deg C]
# name 14 = flag:  0.000e+00
# span 0 =     -0.690,      4.816       
# span 1 =     -0.327,      0.223       
# span 2 =     8.6234,    13.0942       
# span 3 =     71.730,    107.979       
# span 4 =      1.796,     31.514       
# span 5 =   1.179979,  20.234212       
# span 6 =    -0.1736,    12.7899       
# span 7 =      8.055,      8.359       
# span 8 =   222.2988,  1020.7506       
# span 9 = 3.9195e+00, 7.8986e+02       
# span 10 =    -1.0259,   220.7745      
# span 11 =     -0.678,      4.724      
# span 12 =     -0.982,      6.852      
# span 13 =     6.2481,     7.8525      
# span 14 = 0.0000e+00, 0.0000e+00      
# interval = seconds: 0.25
# start_time = Mar 10 2025 13:30:06 [Instrument's time stamp, header]
# bad_flag = -9.990e-29
# <Sensors count="9" >
#   <sensor Channel="1" >
#     <!-- Count, Temperature -->
#     <TemperatureSensor SensorID="58" >
#       <SerialNumber>7809</SerialNumber>
#       <CalibrationDate>31-Jan-23</CalibrationDate>
#       <A0>1.21823180e-003</A0>
#       <A1>2.81508993e-004</A1>
#       <A2>-1.57888696e-006</A2>
#       <A3>1.97234302e-007</A3>
#       <Slope>1.00000000</Slope>
#       <Offset>0.0000</Offset>
#     </TemperatureSensor>
#   </sensor>
#   <sensor Channel="2" >
#     <!-- Frequency 0, Conductivity -->
#     <ConductivitySensor SensorID="3" >
#       <SerialNumber>7809</SerialNumber>
#       <CalibrationDate>31-Jan-23</CalibrationDate>
#       <UseG_J>1</UseG_J>
#       <!-- Cell const and series R are applicable only for wide range sensors. -->
#       <SeriesR>0.0000</SeriesR>
#       <CellConst>2000.0000</CellConst>
#       <ConductivityType>0</ConductivityType>
#       <Coefficients equation="0" >
#         <A>0.00000000e+000</A>
#         <B>0.00000000e+000</B>
#         <C>0.00000000e+000</C>
#         <D>0.00000000e+000</D>
#         <M>0.0</M>
#         <CPcor>-9.57000000e-008</CPcor>
#       </Coefficients>
#       <Coefficients equation="1" >
#         <G>-1.00565232e+000</G>
#         <H>1.26796307e-001</H>
#         <I>-1.56170788e-004</I>
#         <J>2.64594368e-005</J>
#         <CPcor>-9.57000000e-008</CPcor>
#         <CTcor>3.2500e-006</CTcor>
#         <!-- WBOTC not applicable unless ConductivityType = 1. -->
#         <WBOTC>0.00000000e+000</WBOTC>
#       </Coefficients>
#       <Slope>1.00000000</Slope>
#       <Offset>0.00000</Offset>
#     </ConductivitySensor>
#   </sensor>
#   <sensor Channel="3" >
#     <!-- Count, Pressure, Strain Gauge -->
#     <PressureSensor SensorID="46" >
#       <SerialNumber>7809</SerialNumber>
#       <CalibrationDate>20-Jan-23</CalibrationDate>
#       <PA0>4.41643944e-002</PA0>
#       <PA1>4.85050239e-004</PA1>
#       <PA2>-3.09042623e-012</PA2>
#       <PTEMPA0>-5.47081996e+001</PTEMPA0>
#       <PTEMPA1>5.48542136e+001</PTEMPA1>
#       <PTEMPA2>-3.44657813e-001</PTEMPA2>
#       <PTCA0>5.25475731e+005</PTCA0>
#       <PTCA1>1.05025484e+001</PTCA1>
#       <PTCA2>-2.92243463e-001</PTCA2>
#       <PTCB0>2.51668750e+001</PTCB0>
#       <PTCB1>3.75000000e-004</PTCB1>
#       <PTCB2>0.00000000e+000</PTCB2>
#       <Offset>0.000000</Offset>
#     </PressureSensor>
#   </sensor>
#   <sensor Channel="4" >
#     <!-- A/D voltage 0, Oxygen, SBE 43 -->
#     <OxygenSensor SensorID="38" >
#       <SerialNumber>0434</SerialNumber>
#       <CalibrationDate>18-Feb-23</CalibrationDate>
#       <Use2007Equation>1</Use2007Equation>
#       <CalibrationCoefficients equation="0" >
#         <!-- Coefficients for Owens-Millard equation. -->
#         <Boc>0.0000</Boc>
#         <Soc>0.0000e+000</Soc>
#         <offset>0.0000</offset>
#         <Pcor>0.00e+000</Pcor>
#         <Tcor>0.0000</Tcor>
#         <Tau>0.0</Tau>
#       </CalibrationCoefficients>
#       <CalibrationCoefficients equation="1" >
#         <!-- Coefficients for Sea-Bird equation - SBE calibration in 2007 and later. -->
#         <Soc>5.1878e-001</Soc>
#         <offset>-0.5046</offset>
#         <A>-4.2788e-003</A>
#         <B> 1.5372e-004</B>
#         <C>-2.1853e-006</C>
#         <D0> 2.5826e+000</D0>
#         <D1> 1.92634e-004</D1>
#         <D2>-4.64803e-002</D2>
#         <E> 3.6000e-002</E>
#         <Tau20> 0.9900</Tau20>
#         <H1>-3.3000e-002</H1>
#         <H2> 5.0000e+003</H2>
#         <H3> 1.4500e+003</H3>
#       </CalibrationCoefficients>
#     </OxygenSensor>
#   </sensor>
#   <sensor Channel="5" >
#     <!-- A/D voltage 1, PAR/Logarithmic, Satlantic -->
#     <PARLog_SatlanticSensor SensorID="76" >
#       <SerialNumber>1122</SerialNumber>
#       <CalibrationDate>08-Sep-2021</CalibrationDate>
#       <a0>9.6751e-001</a0>
#       <a1>8.0992e-001</a1>
#       <Im>1.3589e+000</Im>
#       <Multiplier>1.0000e+000</Multiplier>
#     </PARLog_SatlanticSensor>
#   </sensor>
#   <sensor Channel="6" >
#     <!-- A/D voltage 2, pH -->
#     <pH_Sensor SensorID="43" >
#       <SerialNumber>0363</SerialNumber>
#       <CalibrationDate>28-Feb-23</CalibrationDate>
#       <Slope>4.7364</Slope>
#       <Offset>2.5433</Offset>
#     </pH_Sensor>
#   </sensor>
#   <sensor Channel="7" >
#     <!-- A/D voltage 3, Oxidation Reduction Potential -->
#     <OxidationReductionPotentialSensor SensorID="41" >
#       <SerialNumber>0363</SerialNumber>
#       <CalibrationDate>28-Feb-23</CalibrationDate>
#       <B>2.499480</B>
#       <M>-0.496195</M>
#       <Offset>0.0</Offset>
#     </OxidationReductionPotentialSensor>
#   </sensor>
#   <sensor Channel="8" >
#     <!-- A/D voltage 4, Fluorometer, WET Labs ECO-AFL/FL -->
#     <FluoroWetlabECO_AFL_FL_Sensor SensorID="20" >
#       <SerialNumber>FLNTURT-2496</SerialNumber>
#       <CalibrationDate>02-Sep-2021</CalibrationDate>
#       <ScaleFactor>4.80000000e+001</ScaleFactor>
#       <!-- Dark output -->
#       <Vblank>0.0550</Vblank>
#     </FluoroWetlabECO_AFL_FL_Sensor>
#   </sensor>
#   <sensor Channel="9" >
#     <!-- A/D voltage 5, Turbidity Meter, WET Labs, ECO-NTU -->
#     <TurbidityMeter SensorID="67" >
#       <SerialNumber>FLNTURT--2496</SerialNumber>
#       <CalibrationDate>02-Sep-2021</CalibrationDate>
#       <ScaleFactor>197.000000</ScaleFactor>
#       <!-- Dark output -->
#       <DarkVoltage>0.070000</DarkVoltage>
#     </TurbidityMeter>
#   </sensor>
# </Sensors>
# datcnv_date = Mar 13 2025 14:54:45, 7.26.7.129 [datcnv_vars = 14]
# datcnv_in = C:\R\Reservoirs\Data\DataNotYetUploadedToEDI\Raw_CTD\RawDownloads\031025_fcr30_S7809004.hex C:\R\Reservoirs\Data\DataNotYetUploadedToEDI\Raw_CTD\RawDownloads\SBE19plusV2_7809_start20230701.xmlcon
# datcnv_skipover = 0
# datcnv_ox_hysteresis_correction = yes
# datcnv_ox_tau_correction = yes
# filter_date = Mar 13 2025 14:55:12, 7.26.7.129
# filter_in = C:\R\Reservoirs\Data\DataNotYetUploadedToEDI\Raw_CTD\RawDownloads\031025_fcr30_S7809004.cnv
# filter_low_pass_tc_A = 0.030
# filter_low_pass_tc_B = 0.150
# filter_low_pass_A_vars = sbeox0Mg/L prdM prdE tv290C
# filter_low_pass_B_vars = depFM dz/dtM sbeox0PS specc c0uS/cm flECO-AFL ph orp par/sat/log turbWETntu0
# alignctd_date = Mar 13 2025 14:55:58, 7.26.7.129
# alignctd_in = C:\R\Reservoirs\Data\DataNotYetUploadedToEDI\Raw_CTD\RawDownloads\031025_fcr30_S7809004.cnv
# alignctd_adv = dz/dtM 1.000, sbeox0PS 1.000, specc 1.000, c0uS/cm 1.000, flECO-AFL 1.000, ph 1.000, orp 1.000, turbWETntu0 1.000                                                                                                   
# file_type = ascii
*END*
     -0.687     -0.001    10.9768     92.350      4.645   3.051742    -0.1462      8.159   610.8552 6.8387e+02     1.4938     -0.674     -0.977     7.8450 0.0000e+00
     -0.688     -0.001    10.9780     92.369      2.789   1.832192    -0.1613      8.085   871.7816 6.3923e+02     1.4548     -0.674     -0.978     7.8460 0.0000e+00
     -0.688     -0.001    10.9744     92.386      1.796   1.179979    -0.1736      8.055  1020.7506 6.2866e+02     1.4544     -0.675     -0.979     7.8472 0.0000e+00
     -0.688      0.000    10.9750     92.398      1.803   1.184407    -0.1532      8.079  1015.7822 6.0666e+02     1.4885     -0.675     -0.979     7.8481 0.0000e+00
     -0.688      0.001    10.9774     92.394      1.809   1.189032    -0.1144      8.164   808.4401 5.1210e+02     1.5256     -0.674     -0.978     7.8489 0.0000e+00
     -0.688      0.006    10.9800     92.414      2.074   1.362594    -0.1042      8.272   447.9576 4.3701e+02     1.5279     -0.675     -0.979     7.8496 0.0000e+00
     -0.688      0.016    10.9809     92.481      2.298   1.509307    -0.0796      8.295   254.2617 4.1760e+02     1.6524     -0.674     -0.978     7.8498 0.0000e+00
     -0.688      0.027    10.9844     92.546      2.490   1.632698     0.1830      8.255   231.4884 4.1345e+02     3.1679     -0.675     -0.979     7.8508 0.0000e+00
     -0.684      0.037    10.9813     92.584      2.815   1.840998     0.6401      8.225   225.6081 4.1691e+02     5.9147     -0.675     -0.980     7.8509 0.0000e+00
     -0.668      0.045    10.9800     92.602      5.398   3.521077     0.8858      8.210   224.3771 4.2236e+02     7.3990     -0.660     -0.958     7.8525 0.0000e+00
     -0.643      0.053    10.9938     92.619     10.929   7.121187     0.9324      8.201   223.1427 4.2321e+02     7.5542     -0.625     -0.907     7.8501 0.0000e+00
     -0.626      0.061    11.0161     92.631     15.579  10.142852     1.0536      8.196   222.2988 4.1976e+02     7.2785     -0.609     -0.884     7.7959 0.0000e+00
     -0.618      0.064    11.0454     92.612     17.647  11.479278     1.2194      8.194   222.6056 4.1425e+02     6.5933     -0.610     -0.884     7.7053 0.0000e+00
     -0.607      0.063    11.0639     92.570     20.704  13.457134     1.2814      8.194   230.7233 4.1571e+02     6.2042     -0.600     -0.871     7.6392 0.0000e+00
     -0.587      0.063    11.0790     92.573     26.274  17.069342     1.2865      8.191   238.1097 4.3143e+02     6.1940     -0.577     -0.837     7.5902 0.0000e+00
     -0.564      0.072    11.0929     92.737     30.073  19.529707     1.3139      8.186   230.1771 4.4873e+02     6.1627     -0.549     -0.796     7.5528 0.0000e+00
     -0.547      0.091    11.0979     93.061     30.722  19.940762     1.3296      8.178   223.0865 4.6128e+02     6.0985     -0.533     -0.774     7.5239 0.0000e+00
     -0.535      0.118    11.0973     93.276     30.652  19.883769     1.3357      8.168   225.5971 4.7423e+02     6.1017     -0.529     -0.766     7.4974 0.0000e+00
     -0.515      0.150    11.0968     93.271     30.628  19.855043     1.3538      8.160   230.3338 4.8285e+02     6.2008     -0.512     -0.743     7.4821 0.0000e+00
     -0.475      0.182    11.1125     93.243     30.636  19.847023     1.4906      8.154   237.3378 4.5672e+02     6.2727     -0.475     -0.689     7.4699 0.0000e+00
     -0.413      0.209    11.1771     93.303     30.659  19.850193     1.7331      8.149   238.6963 3.7399e+02     6.2190     -0.412     -0.597     7.4534 0.0000e+00
     -0.337      0.223    11.2161     93.444     30.641  19.829955     1.8547      8.141   230.8426 2.8219e+02     6.0987     -0.328     -0.475     7.4342 0.0000e+00
     -0.265      0.218    11.2020     93.634     30.594  19.792520     1.8630      8.132   225.3211 2.1914e+02     6.0819     -0.257     -0.373     7.4122 0.0000e+00
     -0.202      0.197    11.2064     93.926     30.584  19.777975     1.8832      8.126   225.0233 1.8018e+02     6.1522     -0.194     -0.282     7.3885 0.0000e+00
     -0.155      0.163    11.2163     94.384     30.602  19.780899     1.9732      8.121   225.7784 1.6810e+02     6.1283     -0.143     -0.207     7.3693 0.0000e+00
     -0.126      0.123    11.2423     94.961     30.687  19.827867     2.1190      8.115   231.6981 1.6540e+02     6.0665     -0.123     -0.177     7.3569 0.0000e+00
     -0.106      0.082    11.2643     95.558     30.808  19.902042     2.1988      8.109   237.2308 1.6213e+02     6.0537     -0.104     -0.150     7.3453 0.0000e+00
     -0.087      0.045    11.2976     96.057     30.835  19.916904     2.2218      8.104   232.4456 1.5599e+02     6.1098     -0.083     -0.119     7.3322 0.0000e+00
     -0.076      0.015    11.3621     96.425     30.783  19.880752     2.1970      8.101   226.8413 1.4504e+02     6.1650     -0.070     -0.101     7.3169 0.0000e+00
     -0.078     -0.006    11.4374     96.707     30.730  19.845347     2.1075      8.100   226.1693 1.4450e+02     6.1067     -0.072     -0.105     7.3036 0.0000e+00
     -0.093     -0.019    11.5193     96.902     30.670  19.805833     2.0630      8.099   226.1278 1.5213e+02     6.0877     -0.091     -0.132     7.2970 0.0000e+00
     -0.109     -0.020    11.5807     96.921     30.637  19.783411     2.0844      8.099   226.2533 1.5979e+02     6.1739     -0.109     -0.158     7.2934 0.0000e+00
     -0.120     -0.010    11.6233     96.758     30.706  19.827849     2.1159      8.099   226.3102 1.6967e+02     6.1927     -0.120     -0.174     7.2898 0.0000e+00
     -0.124      0.006    11.6560     96.523     30.814  19.899308     2.1445      8.100   226.2997 1.7355e+02     6.1107     -0.125     -0.182     7.2876 0.0000e+00
     -0.118      0.021    11.6872     96.289     30.790  19.886597     2.1557      8.100   226.6424 1.6576e+02     6.0356     -0.120     -0.175     7.2864 0.0000e+00
     -0.102      0.031    11.6911     96.071     30.655  19.800966     2.1672      8.100   226.9260 1.5206e+02     6.0706     -0.101     -0.146     7.2844 0.0000e+00
     -0.082      0.036    11.6634     95.866     30.580  19.751588     2.2003      8.100   226.3734 1.4035e+02     6.1578     -0.077     -0.111     7.2832 0.0000e+00
     -0.070      0.036    11.6324     95.676     30.556  19.733381     2.2231      8.101   225.6395 1.3826e+02     6.1678     -0.064     -0.093     7.2868 0.0000e+00
     -0.067      0.033    11.6015     95.475     30.524  19.707627     2.2185      8.102   225.4513 1.4101e+02     6.1569     -0.066     -0.096     7.2934 0.0000e+00
     -0.066      0.028    11.5754     95.167     30.514  19.693811     2.2204      8.103   225.5608 1.4021e+02     6.1971     -0.068     -0.099     7.2951 0.0000e+00
     -0.060      0.023    11.5510     94.765     30.524  19.693122     2.2367      8.104   225.6723 1.3656e+02     6.1759     -0.061     -0.088     7.2936 0.0000e+00
     -0.050      0.018    11.5283     94.418     30.543  19.699286     2.2416      8.104   225.8533 1.3261e+02     6.0712     -0.048     -0.071     7.2902 0.0000e+00
     -0.040      0.013    11.5137     94.158     30.560  19.704936     2.2293      8.104   226.0290 1.2930e+02     6.0589     -0.037     -0.053     7.2809 0.0000e+00
     -0.036      0.006    11.4821     93.882     30.556  19.698028     2.2124      8.104   226.1624 1.2907e+02     6.1637     -0.032     -0.046     7.2684 0.0000e+00
     -0.038     -0.002    11.4234     93.469     30.531  19.679166     2.2129      8.104   226.3473 1.3173e+02     6.2442     -0.036     -0.053     7.2561 0.0000e+00
     -0.044     -0.007    11.3864     92.880     30.516  19.667078     2.2095      8.107   226.3716 1.3433e+02     6.2130     -0.043     -0.063     7.2460 0.0000e+00
     -0.051     -0.008    11.3615     92.142     30.536  19.678672     2.1805      8.109   226.2842 1.3757e+02     6.1284     -0.050     -0.073     7.2378 0.0000e+00
     -0.056     -0.006    11.3364     91.272     30.558  19.692543     2.1695      8.109   226.2372 1.4054e+02     6.1094     -0.057     -0.082     7.2311 0.0000e+00
     -0.056     -0.002    11.2911     90.409     30.579  19.707986     2.1848      8.109   226.3195 1.3976e+02     6.1544     -0.057     -0.082     7.2258 0.0000e+00
     -0.051      0.002    11.2148     89.673     30.624  19.738595     2.2075      8.110   226.9349 1.3609e+02     6.1939     -0.051     -0.074     7.2216 0.0000e+00
     -0.046      0.004    11.1331     89.139     30.634  19.745625     2.2276      8.112   232.2156 1.3304e+02     6.1779     -0.044     -0.064     7.2196 0.0000e+00
     -0.044      0.005    11.0159     88.892     30.610  19.729583     2.2279      8.114   239.1466 1.3257e+02     6.1316     -0.042     -0.060     7.2197 0.0000e+00
     -0.046      0.005    10.9072     88.941     30.618  19.734832     2.2276      8.117   240.6143 1.3363e+02     6.1457     -0.046     -0.066     7.2221 0.0000e+00
     -0.049      0.006    10.8167     89.226     30.635  19.745692     2.2324      8.120   241.1860 1.3421e+02     6.1440     -0.049     -0.071     7.2259 0.0000e+00
     -0.049      0.008    10.7442     89.583     30.617  19.734091     2.2197      8.120   242.0152 1.3421e+02     6.0769     -0.049     -0.070     7.2270 0.0000e+00
     -0.045      0.011    10.7179     89.853     30.597  19.721363     2.2075      8.121   241.1758 1.3304e+02     6.0859     -0.044     -0.064     7.2260 0.0000e+00
     -0.040      0.014    10.7227     89.951     30.594  19.718599     2.2180      8.122   240.5016 1.3168e+02     6.1836     -0.038     -0.055     7.2250 0.0000e+00
     -0.035      0.014    10.7676     89.839     30.567  19.700671     2.2216      8.123   240.0578 1.3057e+02     6.2341     -0.035     -0.050     7.2254 0.0000e+00
     -0.030      0.010    10.8171     89.559     30.559  19.694803     2.1924      8.123   239.5959 1.2787e+02     6.1841     -0.029     -0.042     7.2268 0.0000e+00
     -0.025      0.005    10.8521     89.166     30.584  19.711055     2.1645      8.123   238.9599 1.2553e+02     6.1253     -0.024     -0.034     7.2259 0.0000e+00
     -0.025      0.000    10.8679     88.693     30.577  19.706968     2.1678      8.123   238.1337 1.2583e+02     6.1384     -0.023     -0.033     7.2241 0.0000e+00
     -0.028     -0.002    10.8510     88.206     30.579  19.708786     2.1739      8.122   235.3703 1.2806e+02     6.1716     -0.026     -0.039     7.2231 0.0000e+00
     -0.033     -0.001    10.8146     87.800     30.615  19.733039     2.1633      8.120   230.9302 1.3038e+02     6.1508     -0.033     -0.048     7.2229 0.0000e+00
     -0.037      0.002    10.7672     87.549     30.634  19.746597     2.1638      8.118   228.5867 1.3069e+02     6.1599     -0.038     -0.054     7.2227 0.0000e+00
     -0.036      0.004    10.7067     87.497     30.630  19.745912     2.1811      8.117   228.2858 1.2925e+02     6.2484     -0.038     -0.055     7.2231 0.0000e+00
     -0.029      0.006    10.6433     87.647     30.596  19.724771     2.1887      8.116   228.0666 1.2825e+02     6.2988     -0.029     -0.042     7.2235 0.0000e+00
     -0.021      0.007    10.5914     87.979     30.529  19.681186     2.1976      8.116   227.9153 1.2881e+02     6.2228     -0.017     -0.024     7.2244 0.0000e+00
     -0.020      0.007    10.5570     88.449     30.502  19.662733     2.2141      8.117   227.8339 1.2953e+02     6.0808     -0.017     -0.025     7.2289 0.0000e+00
     -0.024      0.005    10.5508     88.989     30.548  19.691867     2.2215      8.117   227.8570 1.2851e+02     6.0495     -0.025     -0.036     7.2332 0.0000e+00
     -0.026      0.000    10.5689     89.524     30.586  19.716428     2.2292      8.117   227.9367 1.2660e+02     6.1523     -0.028     -0.041     7.2331 0.0000e+00
     -0.023     -0.003    10.6115     89.928     30.571  19.706090     2.2400      8.117   227.8512 1.2425e+02     6.1960     -0.023     -0.034     7.2315 0.0000e+00
     -0.021     -0.004    10.6722     90.115     30.552  19.693673     2.2528      8.116   227.7684 1.2229e+02     6.1338     -0.018     -0.027     7.2300 0.0000e+00
     -0.022     -0.006    10.7389     90.106     30.552  19.693102     2.2754      8.114   227.8826 1.1999e+02     6.1178     -0.021     -0.030     7.2290 0.0000e+00
     -0.027     -0.010    10.8105     89.941     30.561  19.699182     2.2973      8.113   228.0271 1.1703e+02     6.1740     -0.027     -0.038     7.2287 0.0000e+00
     -0.030     -0.015    10.8646     89.674     30.568  19.703792     2.2840      8.113   228.1391 1.1631e+02     6.1981     -0.030     -0.044     7.2283 0.0000e+00
     -0.034     -0.017    10.8840     89.358     30.539  19.685442     2.2400      8.113   228.2042 1.1821e+02     6.1366     -0.031     -0.045     7.2274 0.0000e+00
     -0.039     -0.016    10.8823     89.038     30.513  19.667513     2.2138      8.113   228.2979 1.2267e+02     6.1125     -0.037     -0.053     7.2270 0.0000e+00
     -0.047     -0.014    10.8600     88.784     30.529  19.677222     2.2173      8.113   228.4978 1.2764e+02     6.2143     -0.047     -0.068     7.2275 0.0000e+00
     -0.052     -0.011    10.8240     88.642     30.528  19.676032     2.2233      8.113   228.6420 1.3037e+02     6.2411     -0.053     -0.076     7.2286 0.0000e+00
     -0.052     -0.007    10.7863     88.586     30.493  19.653119     2.2198      8.112   228.7506 1.3024e+02     6.1629     -0.052     -0.075     7.2283 0.0000e+00
     -0.052     -0.003    10.7431     88.568     30.495  19.653794     2.2260      8.112   228.8649 1.2872e+02     6.1903     -0.050     -0.073     7.2269 0.0000e+00
     -0.051      0.000    10.7108     88.580     30.543  19.684194     2.2314      8.114   228.9052 1.2733e+02     6.2655     -0.051     -0.073     7.2258 0.0000e+00
     -0.050      0.001    10.6952     88.608     30.574  19.703668     2.2188      8.115   228.9802 1.2595e+02     6.2175     -0.049     -0.071     7.2246 0.0000e+00
     -0.050      0.001    10.6926     88.639     30.569  19.699048     2.2227      8.116   229.0836 1.2530e+02     6.1231     -0.048     -0.069     7.2236 0.0000e+00
     -0.050      0.000    10.6888     88.663     30.559  19.691730     2.2542      8.116   229.1230 1.2578e+02     6.0800     -0.049     -0.070     7.2229 0.0000e+00
     -0.050     -0.001    10.6919     88.650     30.540  19.678594     2.2913      8.116   229.1117 1.2698e+02     6.1068     -0.049     -0.071     7.2223 0.0000e+00
     -0.051     -0.001    10.6970     88.620     30.522  19.667020     2.3214      8.117   229.1188 1.2747e+02     6.2083     -0.050     -0.072     7.2207 0.0000e+00
     -0.052     -0.001    10.6990     88.564     30.541  19.678596     2.3184      8.119   229.2096 1.2718e+02     6.2479     -0.051     -0.073     7.2187 0.0000e+00
     -0.052     -0.000    10.7075     88.445     30.561  19.691752     2.2891      8.120   229.3490 1.2713e+02     6.2103     -0.051     -0.074     7.2174 0.0000e+00
     -0.052      0.000    10.7017     88.257     30.573  19.699288     2.2747      8.121   229.5138 1.2692e+02     6.1981     -0.052     -0.075     7.2168 0.0000e+00
     -0.051      0.000    10.6998     87.978     30.584  19.706308     2.2857      8.121   229.6534 1.2667e+02     6.2019     -0.051     -0.073     7.2162 0.0000e+00
     -0.050     -0.001    10.6960     87.608     30.595  19.713234     2.3229      8.122   229.7467 1.2654e+02     6.1880     -0.049     -0.071     7.2158 0.0000e+00
     -0.050     -0.002    10.6797     87.180     30.605  19.719628     2.3657      8.124   229.7804 1.2679e+02     6.1329     -0.049     -0.070     7.2157 0.0000e+00
     -0.051     -0.002    10.6598     86.728     30.606  19.720209     2.3947      8.126   229.8034 1.2770e+02     6.1156     -0.050     -0.073     7.2158 0.0000e+00
     -0.054     -0.002    10.6258     86.294     30.606  19.720267     2.4158      8.127   229.8531 1.2860e+02     6.1839     -0.054     -0.076     7.2155 0.0000e+00
     -0.056     -0.001    10.5793     85.915     30.605  19.720324     2.4131      8.128   229.8641 1.2917e+02     6.2084     -0.056     -0.081     7.2146 0.0000e+00
     -0.056      0.002    10.5270     85.604     30.605  19.720896     2.3960      8.128   229.8514 1.2981e+02     6.1721     -0.056     -0.082     7.2140 0.0000e+00
     -0.055      0.005    10.4702     85.349     30.614  19.727184     2.3920      8.128   229.8711 1.3011e+02     6.1208     -0.054     -0.079     7.2141 0.0000e+00
     -0.052      0.008    10.4158     85.094     30.622  19.732949     2.3981      8.129   229.8443 1.2923e+02     6.0663     -0.051     -0.074     7.2146 0.0000e+00
     -0.048      0.010    10.3697     84.808     30.611  19.727206     2.4193      8.131   229.6990 1.2758e+02     6.0591     -0.047     -0.068     7.2154 0.0000e+00
     -0.045      0.011    10.3316     84.528     30.601  19.721136     2.4491      8.131   229.6631 1.2639e+02     6.0683     -0.044     -0.064     7.2164 0.0000e+00
     -0.043      0.011    10.3033     84.244     30.604  19.722964     2.4588      8.131   229.7547 1.2607e+02     6.1083     -0.043     -0.062     7.2175 0.0000e+00
     -0.040      0.007    10.2760     83.909     30.644  19.749316     2.4621      8.131   229.8599 1.2671e+02     6.2020     -0.041     -0.059     7.2189 0.0000e+00
     -0.036     -0.001    10.2357     83.538     30.699  19.786147     2.4725      8.131   230.0748 1.2770e+02     6.2444     -0.035     -0.051     7.2203 0.0000e+00
     -0.032     -0.011    10.2030     83.160     30.694  19.787872     2.4509      8.130   230.2883 1.2755e+02     6.1765     -0.029     -0.042     7.2210 0.0000e+00
     -0.033     -0.020    10.1732     82.765     30.654  19.770182     2.4005      8.129   230.4623 1.2956e+02     6.0987     -0.028     -0.043     7.2209 0.0000e+00
     -0.043     -0.025    10.1299     82.344     30.632  19.762466     2.3798      8.128   230.6298 1.3840e+02     6.1238     -0.039     -0.057     7.2220 0.0000e+00
     -0.059     -0.027    10.0835     81.929     30.621  19.757984     2.3999      8.127   230.6792 1.4882e+02     6.2070     -0.059     -0.086     7.2229 0.0000e+00
     -0.073     -0.024    10.0366     81.516     30.653  19.779396     2.4187      8.127   230.7157 1.5439e+02     6.1815     -0.074     -0.108     7.2300 0.0000e+00
     -0.078     -0.019     9.9873     81.121     30.729  19.831161     2.4077      8.128   230.8128 1.5619e+02     6.0894     -0.079     -0.115     7.2475 0.0000e+00
     -0.078     -0.016     9.9285     80.805     30.788  19.876650     2.4002      8.128   230.8199 1.5329e+02     6.1184     -0.077     -0.114     7.2594 0.0000e+00
     -0.074     -0.018     9.8806     80.541     30.778  19.885590     2.4183      8.128   230.7161 1.4909e+02     6.2254     -0.071     -0.103     7.2609 0.0000e+00
     -0.071     -0.024     9.8314     80.279     30.732  19.875860     2.4106      8.129   230.6763 1.5360e+02     6.2547     -0.066     -0.095     7.2608 0.0000e+00
     -0.077     -0.034     9.7764     80.043     30.717  19.885833     2.3656      8.129   230.7691 1.6546e+02     6.1992     -0.072     -0.104     7.2634 0.0000e+00
     -0.093     -0.043     9.7394     79.880     30.687  19.879392     2.3319      8.129   230.8908 1.7735e+02     6.1688     -0.090     -0.129     7.2731 0.0000e+00
     -0.113     -0.046     9.7049     79.799     30.653  19.861402     2.3276      8.130   230.9436 1.8978e+02     6.1949     -0.112     -0.162     7.2983 0.0000e+00
     -0.131     -0.044     9.6624     79.828     30.652  19.858520     2.3224      8.132   230.8913 2.0403e+02     6.2076     -0.131     -0.190     7.3366 0.0000e+00
     -0.144     -0.036     9.6218     79.998     30.635  19.844545     2.2939      8.133   230.7750 2.1506e+02     6.1523     -0.144     -0.209     7.3726 0.0000e+00
     -0.149     -0.024     9.5989     80.312     30.600  19.819233     2.2822      8.134   230.7424 2.2011e+02     6.1409     -0.148     -0.215     7.3944 0.0000e+00
     -0.149     -0.013     9.5862     80.737     30.583  19.806073     2.2970      8.135   230.8412 2.2251e+02     6.2404     -0.146     -0.212     7.3979 0.0000e+00
     -0.148     -0.003     9.5893     81.199     30.598  19.812236     2.3321      8.136   231.0224 2.2373e+02     6.2964     -0.145     -0.210     7.3917 0.0000e+00
     -0.148      0.006     9.6115     81.643     30.631  19.830347     2.3818      8.137   231.2124 2.2236e+02     6.2366     -0.145     -0.210     7.3862 0.0000e+00
     -0.148      0.013     9.6502     81.998     30.642  19.834844     2.3908      8.138   231.3328 2.1896e+02     6.1670     -0.145     -0.211     7.3824 0.0000e+00
     -0.146      0.019     9.7077     82.203     30.597  19.803205     2.3908      8.140   231.4444 2.1597e+02     6.1717     -0.144     -0.209     7.3785 0.0000e+00
     -0.140      0.026     9.7649     82.259     30.542  19.764813     2.4223      8.141   231.5298 2.0588e+02     6.2258     -0.139     -0.202     7.3736 0.0000e+00
     -0.130      0.033     9.8235     82.189     30.527  19.751048     2.3980      8.142   231.5911 1.8706e+02     6.2401     -0.128     -0.186     7.3675 0.0000e+00
     -0.119      0.038     9.8709     82.019     30.553  19.763577     2.3130      8.142   231.6688 1.7373e+02     6.2080     -0.116     -0.168     7.3627 0.0000e+00
     -0.107      0.040     9.8954     81.791     30.599  19.789489     2.2776      8.142   231.6950 1.6678e+02     6.2134     -0.105     -0.152     7.3599 0.0000e+00
     -0.096      0.038     9.9014     81.504     30.636  19.810742     2.2942      8.144   231.7370 1.5809e+02     6.2376     -0.094     -0.137     7.3554 0.0000e+00
     -0.086      0.033     9.8953     81.155     30.666  19.830338     2.3134      8.145   231.8322 1.4819e+02     6.1932     -0.084     -0.122     7.3490 0.0000e+00
     -0.076      0.028     9.8727     80.801     30.675  19.836216     2.3272      8.145   231.8122 1.4549e+02     6.0859     -0.072     -0.104     7.3415 0.0000e+00
     -0.071      0.023     9.8480     80.478     30.647  19.818411     2.3356      8.144   231.6682 1.5179e+02     6.0676     -0.067     -0.098     7.3339 0.0000e+00
     -0.069      0.020     9.8158     80.122     30.627  19.805265     2.3487      8.142   231.5540 1.5669e+02     6.1769     -0.069     -0.099     7.3304 0.0000e+00
     -0.066      0.018     9.7698     79.678     30.624  19.804075     2.3779      8.141   231.4636 1.5979e+02     6.2119     -0.065     -0.094     7.3302 0.0000e+00
     -0.062      0.017     9.7250     79.233     30.624  19.804019     2.4222      8.142   231.3489 1.6705e+02     6.1499     -0.060     -0.087     7.3306 0.0000e+00
     -0.057      0.018     9.6886     78.804     30.624  19.804591     2.4604      8.143   231.2854 1.7492e+02     6.1784     -0.056     -0.082     7.3308 0.0000e+00
     -0.050      0.020     9.6533     78.369     30.634  19.810992     2.4813      8.144   231.2988 1.7845e+02     6.2493     -0.049     -0.071     7.3316 0.0000e+00
     -0.045      0.023     9.5887     77.949     30.645  19.818013     2.4578      8.146   231.2531 1.7625e+02     6.2203     -0.043     -0.062     7.3324 0.0000e+00
     -0.041      0.026     9.5374     77.548     30.656  19.826083     2.3933      8.148   231.0767 1.6901e+02     6.1360     -0.041     -0.060     7.3323 0.0000e+00
     -0.036      0.031     9.4881     77.181     30.685  19.845156     2.3511      8.149   230.9734 1.5991e+02     6.1181     -0.036     -0.052     7.3329 0.0000e+00
     -0.027      0.036     9.4316     76.860     30.705  19.858417     2.3469      8.149   231.0366 1.5110e+02     6.1743     -0.026     -0.038     7.3335 0.0000e+00
     -0.016      0.040     9.3838     76.576     30.707  19.859617     2.3514      8.149   231.0658 1.4238e+02     6.1664     -0.017     -0.024     7.3340 0.0000e+00
     -0.004      0.042     9.3328     76.309     30.706  19.859665     2.3715      8.149   231.0686 1.3413e+02     6.0911     -0.005     -0.006     7.3347 0.0000e+00
      0.010      0.041     9.2885     76.035     30.704  19.859000     2.4234      8.149   231.1561 1.2710e+02     6.1176      0.011      0.016     7.3354 0.0000e+00
      0.023      0.036     9.2500     75.753     30.692  19.851570     2.4629      8.148   231.2638 1.2056e+02     6.2483      0.023      0.034     7.3355 0.0000e+00
      0.033      0.030     9.2170     75.495     30.663  19.833231     2.4657      8.148   231.4241 1.1470e+02     6.3389      0.033      0.048     7.3358 0.0000e+00
      0.039      0.023     9.1851     75.262     30.653  19.827467     2.4487      8.149   231.5464 1.1070e+02     6.2911      0.039      0.058     7.3367 0.0000e+00
      0.041      0.017     9.1536     75.026     30.680  19.845282     2.4249      8.150   231.5371 1.0944e+02     6.1485      0.040      0.058     7.3376 0.0000e+00
      0.041      0.012     9.1161     74.777     30.700  19.858430     2.4187      8.148   231.4841 1.0984e+02     6.1182      0.039      0.057     7.3385 0.0000e+00
      0.043      0.011     9.0849     74.537     30.701  19.859630     2.4237      8.147   231.4214 1.1017e+02     6.1641      0.042      0.062     7.3393 0.0000e+00
      0.047      0.014     9.0592     74.322     30.700  19.859790     2.4112      8.147   231.4677 1.0978e+02     6.1222      0.046      0.068     7.3397 0.0000e+00
      0.049      0.021     9.0308     74.120     30.700  19.860372     2.4006      8.148   231.6134 1.0789e+02     6.0888      0.048      0.070     7.3399 0.0000e+00
      0.053      0.030     8.9999     73.941     30.709  19.866660     2.4027      8.148   231.7208 1.0588e+02     6.1025      0.051      0.074     7.3406 0.0000e+00
      0.061      0.039     8.9686     73.763     30.717  19.872424     2.4035      8.147   231.7337 1.0422e+02     6.1169      0.057      0.083     7.3415 0.0000e+00
      0.073      0.049     8.9454     73.535     30.707  19.866662     2.4187      8.147   231.6827 1.0255e+02     6.1268      0.069      0.101     7.3426 0.0000e+00
      0.088      0.057     8.9186     73.298     30.696  19.860388     2.4369      8.147   231.7073 1.0127e+02     6.0854      0.087      0.125     7.3438 0.0000e+00
      0.106      0.062     8.8969     73.088     30.695  19.859963     2.4489      8.147   231.8588 9.9614e+01     6.0943      0.104      0.151     7.3449 0.0000e+00
      0.125      0.063     8.8813     72.878     30.697  19.861528     2.4719      8.146   232.0516 9.7747e+01     6.1999      0.122      0.178     7.3463 0.0000e+00
      0.144      0.059     8.8484     72.657     30.723  19.879311     2.4908      8.146   232.1459 9.6386e+01     6.2350      0.141      0.204     7.3475 0.0000e+00
      0.160      0.054     8.8178     72.446     30.730  19.884768     2.4947      8.145   232.2246 9.5115e+01     6.2117      0.158      0.230     7.3484 0.0000e+00
      0.171      0.053     8.7956     72.257     30.697  19.864109     2.4936      8.144   232.5724 9.3473e+01     6.1914      0.170      0.246     7.3492 0.0000e+00
      0.179      0.054     8.7698     72.077     30.727  19.883131     2.5023      8.143   232.9958 9.1990e+01     6.1600      0.176      0.254     7.3499 0.0000e+00
      0.187      0.055     8.7426     71.929     30.793  19.924553     2.5166      8.143   233.2140 9.0998e+01     6.1739      0.180      0.262     7.3509 0.0000e+00
      0.202      0.054     8.7145     71.834     30.790  19.921123     2.5497      8.142   233.4030 8.9436e+01     6.1889      0.193      0.281     7.3519 0.0000e+00
      0.225      0.051     8.6951     71.775     30.766  19.905065     2.6192      8.142   233.5614 8.7551e+01     6.2048      0.223      0.323     7.3535 0.0000e+00
      0.245      0.043     8.6704     71.745     30.788  19.920604     2.6743      8.143   233.6663 8.6506e+01     6.2298      0.245      0.356     7.3540 0.0000e+00
      0.256      0.033     8.6514     71.744     30.778  19.918795     2.6927      8.145   233.8960 8.5906e+01     6.1838      0.254      0.367     7.3514 0.0000e+00
      0.259      0.023     8.6437     71.770     30.714  19.883196     2.7077      8.146   234.1882 8.6509e+01     6.1265      0.256      0.371     7.3486 0.0000e+00
      0.257      0.014     8.6353     71.782     30.689  19.870606     2.7309      8.148   234.5326 8.7387e+01     6.1170      0.254      0.368     7.3463 0.0000e+00
      0.255      0.012     8.6333     71.752     30.723  19.893375     2.7569      8.151   234.8769 8.7114e+01     6.1382      0.248      0.361     7.3473 0.0000e+00
      0.256      0.016     8.6291     71.730     30.742  19.904890     2.7810      8.152   235.0814 8.6797e+01     6.2116      0.248      0.360     7.3575 0.0000e+00
      0.261      0.022     8.6325     71.767     30.710  19.883024     2.8150      8.153   235.2844 8.6397e+01     6.2873      0.256      0.371     7.3687 0.0000e+00
      0.269      0.028     8.6361     71.881     30.710  19.882595     2.8676      8.153   235.6106 8.5832e+01     6.3018      0.262      0.382     7.3728 0.0000e+00
      0.280      0.032     8.6275     72.091     30.736  19.899702     2.9093      8.154   235.9280 8.5122e+01     6.3532      0.273      0.397     7.3743 0.0000e+00
      0.292      0.035     8.6234     72.408     30.736  19.899658     2.9359      8.154   236.1104 8.4479e+01     6.4645      0.289      0.418     7.3733 0.0000e+00
      0.301      0.037     8.6280     72.812     30.710  19.882066     2.9815      8.155   236.2670 8.4171e+01     6.4863      0.296      0.430     7.3701 0.0000e+00
      0.306      0.040     8.6416     73.272     30.609  19.813804     3.0440      8.157   236.5310 8.3390e+01     6.4113      0.299      0.435     7.3691 0.0000e+00
      0.314      0.044     8.6652     73.742     30.459  19.708328     3.0850      8.160   236.8940 8.2286e+01     6.3774      0.306      0.445     7.3699 0.0000e+00
      0.326      0.048     8.7046     74.139     30.356  19.621192     3.1024      8.163   237.2139 8.1224e+01     6.4184      0.320      0.464     7.3702 0.0000e+00
      0.341      0.053     8.7558     74.639     30.347  19.584456     3.1212      8.165   237.4735 8.0046e+01     6.4282      0.335      0.484     7.3684 0.0000e+00
      0.358      0.058     8.8108     75.818     30.387  19.581129     3.1369      8.166   237.7100 7.8929e+01     6.3600      0.351      0.509     7.3666 0.0000e+00
      0.374      0.062     8.8763     78.151     30.419  19.580942     3.1517      8.166   237.8359 7.8024e+01     6.3449      0.368      0.533     7.3602 0.0000e+00
      0.389      0.065     8.9300     81.672     30.443  19.582163     3.1754      8.166   237.9634 7.7174e+01     6.4160      0.380      0.552     7.3237 0.0000e+00
      0.404      0.065     8.9694     86.100     30.478  19.595879     3.1898      8.166   238.2197 7.6171e+01     6.4343      0.395      0.574     7.2632 0.0000e+00
      0.423      0.065     9.1004     91.055     30.523  19.619973     3.2508      8.167   238.4394 7.5226e+01     6.2933      0.414      0.601     7.2130 0.0000e+00
      0.442      0.063     9.3910     96.069     30.527  19.619869     3.3804      8.169   238.5547 7.4430e+01     6.1113      0.433      0.628     7.1790 0.0000e+00
      0.459      0.058     9.8357    100.555     30.491  19.594623     3.4585      8.169   238.7528 7.3652e+01     6.0792      0.450      0.653     7.1565 0.0000e+00
      0.475      0.051    10.3923    104.081     30.453  19.568330     3.4792      8.169   238.9424 7.3008e+01     6.1436      0.467      0.677     7.1437 0.0000e+00
      0.487      0.043    11.0073    106.437     30.435  19.555564     3.5391      8.170   239.0404 7.2515e+01     6.1730      0.479      0.694     7.1369 0.0000e+00
      0.495      0.036    11.6490    107.660     30.454  19.567072     3.6246      8.172   239.2492 7.2033e+01     6.1263      0.486      0.704     7.1327 0.0000e+00
      0.501      0.030    12.2066    107.979     30.475  19.580667     3.6735      8.173   239.4019 7.1527e+01     6.1255      0.492      0.713     7.1296 0.0000e+00
      0.507      0.025    12.6454    107.700     30.495  19.593137     3.7050      8.173   239.3383 7.1031e+01     6.1975      0.497      0.720     7.1270 0.0000e+00
      0.513      0.022    12.9292    107.149     30.492  19.591049     3.7557      8.174   239.3406 7.0567e+01     6.2125      0.504      0.731     7.1246 0.0000e+00
      0.519      0.021    13.0641    106.475     30.437  19.555418     3.7960      8.176   239.5163 7.0187e+01     6.2385      0.510      0.739     7.1237 0.0000e+00
      0.523      0.022    13.0942    105.770     30.418  19.542730     3.7921      8.176   239.7414 6.9900e+01     6.3403      0.512      0.744     7.1239 0.0000e+00
      0.527      0.026    13.0382    105.114     30.453  19.564443     3.7920      8.177   239.9970 6.9691e+01     6.4527      0.517      0.750     7.1242 0.0000e+00
      0.532      0.031    12.9723    104.513     30.454  19.564338     3.8205      8.178   240.1980 6.9486e+01     6.4704      0.520      0.756     7.1236 0.0000e+00
      0.540      0.038    12.8853    103.963     30.419  19.541462     3.8366      8.178   240.3647 6.9400e+01     6.3836      0.529      0.767     7.1226 0.0000e+00
      0.550      0.045    12.7958    103.450     30.421  19.541461     3.8534      8.179   240.5496 6.9405e+01     6.3934      0.539      0.781     7.1219 0.0000e+00
      0.564      0.051    12.7188    102.997     30.458  19.564316     3.8743      8.180   240.6276 6.8997e+01     6.4864      0.550      0.799     7.1205 0.0000e+00
      0.582      0.056    12.6449    102.635     30.459  19.564204     3.8970      8.182   240.7049 6.8309e+01     6.4839      0.572      0.829     7.1196 0.0000e+00
      0.599      0.058    12.5810    102.355     30.423  19.540101     3.9281      8.184   240.8819 6.7760e+01     6.4310      0.589      0.854     7.1194 0.0000e+00
      0.613      0.059    12.5175    102.125     30.405  19.526496     3.9264      8.185   241.0472 6.7265e+01     6.3943      0.601      0.870     7.1170 0.0000e+00
      0.627      0.062    12.4614    101.928     30.408  19.526507     3.9184      8.185   241.1546 6.6555e+01     6.4151      0.615      0.892     7.1152 0.0000e+00
      0.641      0.066    12.4184    101.774     30.433  19.540226     3.9392      8.185   241.2338 6.5617e+01     6.4776      0.628      0.911     7.1149 0.0000e+00
      0.655      0.071    12.3867    101.655     30.476  19.565567     3.9941      8.187   241.3167 6.4620e+01     6.4665      0.639      0.929     7.1127 0.0000e+00
      0.674      0.075    12.3615    101.542     30.499  19.579294     4.0743      8.188   241.3824 6.3447e+01     6.3839      0.658      0.955     7.1099 0.0000e+00
      0.697      0.077    12.3367    101.424     30.500  19.579399     4.1184      8.189   241.4260 6.2327e+01     6.3334      0.684      0.991     7.1062 0.0000e+00
      0.722      0.077    12.3205    101.320     30.481  19.566833     4.1449      8.190   241.5005 6.1522e+01     6.4024      0.710      1.029     7.1012 0.0000e+00
      0.743      0.074    12.3088    101.255     30.463  19.554163     4.1861      8.192   241.5941 6.0964e+01     6.4663      0.730      1.059     7.0980 0.0000e+00
      0.760      0.066    12.2958    101.220     30.464  19.553010     4.2088      8.192   241.6979 6.0655e+01     6.3885      0.745      1.082     7.0968 0.0000e+00
      0.775      0.055    12.2809    101.195     30.466  19.552895     4.2116      8.193   241.8084 6.0497e+01     6.3498      0.760      1.104     7.0961 0.0000e+00
      0.790      0.044    12.2665    101.157     30.467  19.552772     4.2118      8.193   241.8978 6.0491e+01     6.4420      0.777      1.126     7.0958 0.0000e+00
      0.800      0.034    12.2601    101.130     30.465  19.551515     4.1858      8.194   242.0040 6.0640e+01     6.4787      0.786      1.140     7.0944 0.0000e+00
      0.806      0.028    12.2578    101.139     30.442  19.537693     4.1383      8.196   242.0600 6.0831e+01     6.4182      0.791      1.147     7.0909 0.0000e+00
      0.809      0.026    12.2564    101.116     30.401  19.512456     4.1210      8.196   242.0600 6.0948e+01     6.3929      0.795      1.152     7.0880 0.0000e+00
      0.810      0.026    12.2534    101.066     30.381  19.499984     4.1348      8.197   242.1750 6.0884e+01     6.4133      0.795      1.152     7.0867 0.0000e+00
      0.815      0.029    12.2429    101.015     30.402  19.513702     4.1972      8.198   242.3325 6.0598e+01     6.4251      0.796      1.154     7.0869 0.0000e+00
      0.826      0.034    12.2535    100.956     30.460  19.551514     4.2926      8.198   242.4150 6.0184e+01     6.3990      0.810      1.175     7.0884 0.0000e+00
      0.839      0.038    12.2474    100.982     30.499  19.576760     4.3309      8.198   242.4845 5.9775e+01     6.3367      0.825      1.196     7.0897 0.0000e+00
      0.849      0.040    12.2365    101.038     30.481  19.565346     4.3273      8.198   242.5709 5.9379e+01     6.3208      0.832      1.207     7.0904 0.0000e+00
      0.860      0.040    12.2392    101.052     30.442  19.540309     4.3239      8.199   242.6848 5.8970e+01     6.3438      0.844      1.223     7.0911 0.0000e+00
      0.871      0.041    12.2167    101.044     30.424  19.527639     4.3231      8.200   242.7435 5.8574e+01     6.3069      0.856      1.242     7.0918 0.0000e+00
      0.880      0.045    12.2283    100.974     30.445  19.538959     4.3421      8.201   242.7645 5.8357e+01     6.2505      0.865      1.255     7.0923 0.0000e+00
      0.887      0.050    12.2406    100.899     30.466  19.550374     4.3623      8.201   242.8521 5.8302e+01     6.2422      0.868      1.259     7.0928 0.0000e+00
      0.897      0.054    12.2344    100.915     30.451  19.538845     4.3761      8.202   242.9426 5.8142e+01     6.3093      0.876      1.271     7.0925 0.0000e+00
      0.917      0.058    12.2420    100.925     30.433  19.526374     4.3851      8.202   242.9971 5.7895e+01     6.3783      0.898      1.302     7.0916 0.0000e+00
      0.938      0.062    12.2305    100.811     30.433  19.526385     4.3631      8.201   243.0817 5.7711e+01     6.3603      0.922      1.337     7.0888 0.0000e+00
      0.956      0.062    12.2136    100.694     30.453  19.538970     4.3255      8.201   243.1913 5.7594e+01     6.3647      0.941      1.364     7.0836 0.0000e+00
      0.970      0.058    12.2247    100.734     30.473  19.551744     4.3213      8.202   243.2894 5.7512e+01     6.4305      0.952      1.380     7.0804 0.0000e+00
      0.983      0.051    12.2345    100.848     30.478  19.554039     4.3962      8.203   243.4075 5.7432e+01     6.4388      0.963      1.395     7.0794 0.0000e+00
      0.996      0.042    12.2146    100.926     30.498  19.566710     4.5148      8.203   243.5009 5.7329e+01     6.3622      0.978      1.418     7.0785 0.0000e+00
      1.008      0.036    12.1853    100.947     30.516  19.578143     4.5736      8.204   243.5580 5.7193e+01     6.2907      0.990      1.436     7.0782 0.0000e+00
      1.015      0.032    12.2024    100.929     30.497  19.565473     4.5738      8.205   243.5819 5.7059e+01     6.3254      0.995      1.444     7.0780 0.0000e+00
      1.020      0.032    12.2192    100.869     30.457  19.540321     4.5682      8.206   243.5316 5.6925e+01     6.4407      1.001      1.453     7.0776 0.0000e+00
      1.024      0.035    12.2297    100.812     30.437  19.527641     4.5561      8.206   243.5522 5.6760e+01     6.4556      1.005      1.458     7.0771 0.0000e+00
      1.029      0.041    12.2307    100.852     30.455  19.538960     4.5346      8.207   243.7452 5.6627e+01     6.3680      1.005      1.458     7.0768 0.0000e+00
      1.039      0.047    12.2281    100.884     30.474  19.550374     4.5255      8.209   243.9723 5.6547e+01     6.3723      1.016      1.474     7.0765 0.0000e+00
      1.058      0.055    12.2248    100.877     30.459  19.538836     4.5035      8.209   244.0613 5.6442e+01     6.4387      1.038      1.505     7.0763 0.0000e+00
      1.078      0.062    12.2010    100.840     30.439  19.526258     4.4442      8.210   244.0469 5.6299e+01     6.4539      1.059      1.535     7.0772 0.0000e+00
      1.093      0.067    12.2227    100.715     30.438  19.525105     4.3997      8.210   244.0560 5.6209e+01     6.4200      1.072      1.555     7.0774 0.0000e+00
      1.108      0.068    12.2246    100.678     30.441  19.524898     4.3813      8.211   244.0853 5.6174e+01     6.3705      1.085      1.574     7.0748 0.0000e+00
      1.127      0.065    12.2191    100.813     30.444  19.523745     4.3800      8.212   244.1434 5.6127e+01     6.3674      1.105      1.603     7.0718 0.0000e+00
      1.147      0.060    12.2286    100.906     30.426  19.511170     4.4423      8.213   244.1559 5.6034e+01     6.3820      1.125      1.632     7.0725 0.0000e+00
      1.164      0.053    12.1968    100.879     30.406  19.499652     4.5432      8.214   244.1515 5.5937e+01     6.3763      1.143      1.658     7.0741 0.0000e+00
      1.177      0.045    12.1845    100.794     30.422  19.511283     4.5845      8.214   244.3483 5.5917e+01     6.4017      1.157      1.677     7.0688 0.0000e+00
      1.186      0.038    12.2254    100.759     30.442  19.525002     4.5923      8.215   244.6418 5.5932e+01     6.4841      1.164      1.688     7.0616 0.0000e+00
      1.192      0.033    12.2342    100.852     30.462  19.538721     4.6291      8.216   244.7742 5.5917e+01     6.5178      1.170      1.697     7.0611 0.0000e+00
      1.196      0.031    12.2275    100.946     30.479  19.550353     4.6633      8.217   244.7447 5.5936e+01     6.4337      1.173      1.702     7.0640 0.0000e+00
      1.201      0.032    12.2136    100.890     30.460  19.538844     4.6638      8.217   244.7152 5.5969e+01     6.3214      1.176      1.706     7.0663 0.0000e+00
      1.210      0.035    12.1985    100.707     30.440  19.526374     4.6447      8.218   244.7621 5.5895e+01     6.3217      1.186      1.720     7.0679 0.0000e+00
      1.222      0.038    12.2223    100.649     30.440  19.526375     4.6157      8.219   244.8815 5.5790e+01     6.4373      1.198      1.738     7.0694 0.0000e+00
      1.235      0.041    12.2369    100.778     30.460  19.538857     4.5709      8.219   245.0402 5.5741e+01     6.4551      1.211      1.757     7.0709 0.0000e+00
      1.246      0.041    12.2355    100.885     30.478  19.550489     4.5355      8.219   245.1323 5.5695e+01     6.3656      1.222      1.772     7.0716 0.0000e+00
      1.256      0.038    12.1928    100.925     30.462  19.540217     4.5282      8.220   245.1348 5.5613e+01     6.3803      1.230      1.786     7.0716 0.0000e+00
      1.266      0.032    12.1809    100.940     30.463  19.541464     4.5252      8.222   245.0706 5.5493e+01     6.4962      1.241      1.801     7.0719 0.0000e+00
      1.276      0.027    12.2173    100.956     30.500  19.565567     4.5077      8.223   245.0441 5.5423e+01     6.5373      1.252      1.816     7.0721 0.0000e+00
      1.283      0.026    12.2253    100.995     30.520  19.578039     4.4831      8.223   245.1581 5.5470e+01     6.4330      1.259      1.826     7.0718 0.0000e+00
      1.285      0.030    12.2292    101.024     30.501  19.565454     4.4682      8.224   245.2453 5.5494e+01     6.3280      1.261      1.829     7.0716 0.0000e+00
      1.286      0.040    12.2306    100.996     30.462  19.540208     4.5029      8.225   245.2376 5.5359e+01     6.3609      1.259      1.827     7.0718 0.0000e+00
      1.291      0.050    12.2298    100.940     30.443  19.526395     4.5784      8.225   245.2376 5.5118e+01     6.4212      1.262      1.831     7.0723 0.0000e+00
      1.308      0.059    12.2365    100.905     30.444  19.525241     4.6142      8.225   245.2442 5.4867e+01     6.3741      1.278      1.854     7.0725 0.0000e+00
      1.334      0.062    12.2439    100.890     30.449  19.526261     4.6033      8.225   245.2323 5.4678e+01     6.3380      1.307      1.896     7.0722 0.0000e+00
      1.361      0.061    12.2382    100.890     30.470  19.538722     4.5965      8.226   245.2661 5.4458e+01     6.3602      1.338      1.941     7.0722 0.0000e+00
      1.380      0.056    12.2283    100.934     30.486  19.549095     4.6145      8.227   245.3936 5.4194e+01     6.3355      1.359      1.970     7.0703 0.0000e+00
      1.388      0.050    12.2275    101.057     30.449  19.524878     4.6475      8.228   245.4836 5.4142e+01     6.2438      1.364      1.978     7.0656 0.0000e+00
      1.389      0.045    12.2261    101.137     30.410  19.499528     4.6537      8.229   245.4937 5.4261e+01     6.1398      1.360      1.973     7.0617 0.0000e+00
      1.394      0.043    12.2275    101.063     30.406  19.496183     4.6389      8.230   245.6021 5.4314e+01     6.1369      1.363      1.978     7.0601 0.0000e+00
      1.408      0.043    12.2265    100.962     30.389  19.484448     4.6185      8.230   245.7622 5.4281e+01     6.2087      1.379      2.000     7.0599 0.0000e+00
      1.427      0.043    12.2485    100.927     30.389  19.484439     4.5735      8.229   245.7945 5.4287e+01     6.2222      1.401      2.031     7.0602 0.0000e+00
      1.443      0.040    12.2696    100.901     30.406  19.496079     4.5356      8.228   245.8202 5.4359e+01     6.1642      1.417      2.056     7.0597 0.0000e+00
      1.454      0.032    12.2485    100.879     30.408  19.498384     4.5191      8.228   245.9008 5.4399e+01     6.1216      1.427      2.070     7.0577 0.0000e+00
      1.460      0.021    12.2319    100.864     30.428  19.512303     4.4904      8.229   245.9091 5.4372e+01     6.1507      1.433      2.079     7.0557 0.0000e+00
      1.461      0.011    12.2356    100.835     30.466  19.537568     4.4625      8.231   245.9204 5.4383e+01     6.2089      1.433      2.079     7.0555 0.0000e+00
      1.458      0.006    12.2293    100.844     30.485  19.550259     4.4487      8.231   246.0379 5.4506e+01     6.2101      1.430      2.074     7.0572 0.0000e+00
      1.455      0.007    12.2245    100.890     30.467  19.538941     4.4235      8.231   246.1251 5.4576e+01     6.1653      1.427      2.070     7.0595 0.0000e+00
      1.454      0.011    12.2273    100.906     30.449  19.527528     4.3747      8.232   246.1143 5.4528e+01     6.2137      1.425      2.067     7.0617 0.0000e+00
      1.458      0.017    12.2167    100.887     30.465  19.539075     4.3157      8.234   246.0793 5.4404e+01     6.3171      1.428      2.071     7.0631 0.0000e+00
      1.467      0.025    12.2182    100.867     30.483  19.551746     4.2760      8.234   246.1323 5.4180e+01     6.3223      1.437      2.086     7.0638 0.0000e+00
      1.478      0.034    12.2288    100.856     30.483  19.553937     4.2614      8.234   246.3243 5.3995e+01     6.3109      1.451      2.105     7.0646 0.0000e+00
      1.485      0.040    12.2301    100.857     30.496  19.565567     4.2722      8.234   246.5085 5.3925e+01     6.3852      1.458      2.114     7.0645 0.0000e+00
      1.493      0.043    12.2250    100.880     30.490  19.565567     4.3064      8.234   246.5525 5.3862e+01     6.4689      1.461      2.118     7.0652 0.0000e+00
      1.506      0.043    12.2217    100.898     30.467  19.553936     4.3338      8.234   246.5115 5.3762e+01     6.4687      1.475      2.139     7.0683 0.0000e+00
      1.523      0.041    12.2207    100.891     30.462  19.551746     4.3375      8.234   246.5298 5.3643e+01     6.4164      1.496      2.170     7.0712 0.0000e+00
      1.537      0.039    12.2157    100.811     30.442  19.539084     4.3350      8.235   246.6015 5.3560e+01     6.4180      1.510      2.190     7.0762 0.0000e+00
      1.544      0.037    12.2209    100.722     30.424  19.527642     4.3530      8.235   246.6902 5.3578e+01     6.4873      1.516      2.197     7.0847 0.0000e+00
      1.549      0.036    12.2185    100.722     30.444  19.540207     4.3807      8.236   246.7420 5.3674e+01     6.4686      1.518      2.201     7.0896 0.0000e+00
      1.554      0.037    12.2231    100.681     30.486  19.564206     4.3871      8.238   246.7110 5.3746e+01     6.3287      1.523      2.209     7.0902 0.0000e+00
      1.563      0.042    12.2129    100.577     30.495  19.564197     4.3881      8.238   246.7458 5.3758e+01     6.2651      1.532      2.221     7.0899 0.0000e+00
      1.574      0.047    12.1860    100.542     30.466  19.540093     4.5006      8.238   246.8186 5.3718e+01     6.3491      1.542      2.236     7.0901 0.0000e+00
      1.590      0.050    12.2051    100.623     30.447  19.526364     4.7165      8.239   246.9026 5.3580e+01     6.4210      1.557      2.258     7.0909 0.0000e+00
      1.609      0.052    12.1969    100.709     30.443  19.525013     4.8258      8.239   247.0736 5.3435e+01     6.3825      1.579      2.290     7.0887 0.0000e+00
      1.624      0.054    12.1808    100.739     30.440  19.523757     4.8227      8.240   247.1647 5.3436e+01     6.3275      1.596      2.316     7.0769 0.0000e+00
      1.634      0.054    12.1771    100.803     30.424  19.511171     4.8624      8.240   247.1442 5.3421e+01     6.3719      1.602      2.324     7.0639 0.0000e+00
      1.642      0.052    12.1939    100.889     30.412  19.499643     4.9477      8.240   247.0841 5.3198e+01     6.4409      1.607      2.332     7.0621 0.0000e+00
      1.657      0.051    12.2121    100.989     30.435  19.511171     4.9971      8.241   247.0400 5.2969e+01     6.4105      1.623      2.354     7.0660 0.0000e+00
      1.674      0.052    12.1988    101.069     30.456  19.523746     5.0018      8.241   247.1280 5.2831e+01     6.3799      1.644      2.383     7.0688 0.0000e+00
      1.688      0.055    12.2187    101.089     30.459  19.524889     5.0049      8.242   247.2873 5.2699e+01     6.4123      1.657      2.404     7.0657 0.0000e+00
      1.699      0.057    12.2249    100.991     30.462  19.524994     5.0179      8.242   247.4174 5.2596e+01     6.4613      1.665      2.415     7.0557 0.0000e+00
      1.712      0.057    12.2455    100.855     30.463  19.525014     5.0086      8.241   247.4107 5.2441e+01     6.4589      1.676      2.432     7.0503 0.0000e+00
      1.729      0.056    12.2526    100.778     30.463  19.525129     4.9844      8.241   247.2922 5.2253e+01     6.3840      1.695      2.459     7.0513 0.0000e+00
      1.746      0.054    12.2615    100.696     30.465  19.526375     4.9830      8.240   247.2745 5.2174e+01     6.3410      1.714      2.485     7.0500 0.0000e+00
      1.760      0.050    12.2492    100.691     30.487  19.540084     4.9999      8.240   247.3690 5.2164e+01     6.3831      1.726      2.503     7.0465 0.0000e+00
      1.773      0.044    12.2162    100.694     30.524  19.564084     5.0146      8.241   247.4875 5.2103e+01     6.4494      1.738      2.521     7.0448 0.0000e+00
      1.784      0.038    12.2291    100.669     30.522  19.562941     5.0102      8.241   247.5898 5.2020e+01     6.4596      1.750      2.540     7.0451 0.0000e+00
      1.792      0.033    12.1972    100.782     30.464  19.526261     4.9967      8.241   247.6595 5.2014e+01     6.4045      1.759      2.552     7.0454 0.0000e+00
      1.797      0.031    12.2090    100.950     30.425  19.501004     5.0094      8.241   247.6418 5.2060e+01     6.3978      1.762      2.555     7.0445 0.0000e+00
      1.802      0.031    12.2163    100.981     30.444  19.511171     5.0475      8.242   247.5486 5.2091e+01     6.4809      1.767      2.562     7.0446 0.0000e+00
      1.808      0.033    12.1913    100.916     30.465  19.522376     5.0580      8.242   247.5647 5.2002e+01     6.4870      1.773      2.572     7.0462 0.0000e+00
      1.817      0.037    12.2168    100.913     30.449  19.509686     5.0369      8.243   247.6641 5.1751e+01     6.4035      1.781      2.583     7.0472 0.0000e+00
      1.829      0.042    12.2463    100.872     30.412  19.484533     5.0088      8.243   247.7174 5.1430e+01     6.4272      1.792      2.599     7.0472 0.0000e+00
      1.843      0.048    12.2522    100.743     30.397  19.471853     4.9756      8.243   247.7790 5.1144e+01     6.5343      1.807      2.621     7.0445 0.0000e+00
      1.856      0.054    12.2266    100.656     30.422  19.483173     4.9601      8.243   247.8935 5.0945e+01     6.5718      1.821      2.642     7.0385 0.0000e+00
      1.866      0.059    12.2421    100.610     30.448  19.494597     4.9459      8.242   247.9830 5.0698e+01     6.5042      1.828      2.652     7.0343 0.0000e+00
      1.881      0.062    12.2423    100.585     30.436  19.483173     4.9043      8.241   248.0010 5.0254e+01     6.3657      1.842      2.672     7.0323 0.0000e+00
      1.901      0.062    12.2114    100.571     30.421  19.471844     4.8652      8.239   248.0246 4.9729e+01     6.2640      1.864      2.704     7.0290 0.0000e+00
      1.921      0.061    12.2128    100.569     30.442  19.484419     4.8390      8.237   248.0963 4.9270e+01     6.1961      1.884      2.732     7.0200 0.0000e+00
      1.939      0.058    12.2070    100.606     30.482  19.508419     4.8202      8.237   248.1793 4.8877e+01     6.1261      1.903      2.761     7.0090 0.0000e+00
      1.952      0.054    12.2071    100.651     30.483  19.508409     4.8793      8.238   248.1681 4.8583e+01     6.2031      1.917      2.780     7.0049 0.0000e+00
      1.962      0.051    12.2069    100.663     30.452  19.484306     5.0050      8.238   248.1321 4.8342e+01     6.3762      1.924      2.790     7.0026 0.0000e+00
      1.970      0.049    12.2034    100.633     30.448  19.470588     5.0743      8.239   248.1754 4.8021e+01     6.4422      1.931      2.801     7.0000 0.0000e+00
      1.981      0.049    12.2120    100.566     30.468  19.469342     5.0765      8.240   248.1750 4.7572e+01     6.4204      1.940      2.814     6.9986 0.0000e+00
      1.997      0.049    12.2193    100.464     30.486  19.469230     5.0645      8.241   248.2131 4.7024e+01     6.3522      1.957      2.839     6.9980 0.0000e+00
      2.014      0.049    12.2214    100.340     30.500  19.469221     5.1043      8.242   248.3785 4.6544e+01     6.3351      1.978      2.868     6.9953 0.0000e+00
      2.027      0.047    12.2237    100.222     30.510  19.469219     5.1922      8.243   248.5396 4.6199e+01     6.4177      1.989      2.884     6.9756 0.0000e+00
      2.037      0.043    12.2242    100.114     30.515  19.469204     5.2276      8.244   248.6123 4.5861e+01     6.4292      1.997      2.898     6.9461 0.0000e+00
      2.046      0.038    12.2179    100.013     30.520  19.469032     5.2160      8.244   248.5694 4.5496e+01     6.3714      2.007      2.911     6.9275 0.0000e+00
      2.055      0.034    12.2042     99.917     30.521  19.467147     5.2185      8.244   248.5364 4.5163e+01     6.3680      2.016      2.923     6.9133 0.0000e+00
      2.063      0.033    12.1939     99.812     30.492  19.446398     5.2494      8.245   248.5577 4.4855e+01     6.3880      2.024      2.935     6.9026 0.0000e+00
      2.070      0.033    12.1826     99.722     30.436  19.408359     5.2816      8.246   248.5691 4.4523e+01     6.3745      2.029      2.944     6.8993 0.0000e+00
      2.076      0.035    12.1695     99.651     30.408  19.387625     5.2750      8.246   248.6750 4.4163e+01     6.3415      2.035      2.951     6.8955 0.0000e+00
      2.085      0.038    12.1634     99.573     30.409  19.385910     5.2788      8.246   248.8057 4.3803e+01     6.3650      2.044      2.966     6.8891 0.0000e+00
      2.095      0.041    12.1480     99.479     30.413  19.387624     5.3269      8.247   248.8585 4.3413e+01     6.4526      2.054      2.980     6.8855 0.0000e+00
      2.107      0.043    12.1382     99.394     30.445  19.408342     5.3487      8.247   248.8829 4.2956e+01     6.4445      2.065      2.994     6.8834 0.0000e+00
      2.120      0.045    12.1328     99.346     30.501  19.446210     5.3343      8.247   248.9279 4.2529e+01     6.3360      2.080      3.017     6.8781 0.0000e+00
      2.133      0.045    12.1248     99.321     30.526  19.465074     5.3440      8.248   249.0592 4.2141e+01     6.3011      2.093      3.035     6.8733 0.0000e+00
      2.145      0.045    12.1139     99.310     30.496  19.446225     5.3833      8.249   249.1800 4.1765e+01     6.3304      2.104      3.050     6.8709 0.0000e+00
      2.155      0.045    12.0997     99.303     30.441  19.408512     5.4095      8.249   249.1842 4.1469e+01     6.3483      2.114      3.066     6.8719 0.0000e+00
      2.165      0.045    12.0951     99.281     30.420  19.389495     5.4025      8.248   249.1956 4.1154e+01     6.3471      2.122      3.078     6.8770 0.0000e+00
      2.175      0.044    12.0903     99.252     30.457  19.406490     5.3822      8.248   249.2318 4.0739e+01     6.3499      2.131      3.092     6.8824 0.0000e+00
      2.188      0.044    12.0880     99.230     30.492  19.423780     5.4060      8.249   249.1912 4.0338e+01     6.4162      2.145      3.112     6.8842 0.0000e+00
      2.202      0.044    12.0911     99.203     30.470  19.408344     5.4819      8.249   249.2213 4.0024e+01     6.4665      2.160      3.133     6.8793 0.0000e+00
      2.213      0.045    12.0907     99.189     30.471  19.410058     5.5176      8.250   249.3383 3.9719e+01     6.4452      2.171      3.148     6.8678 0.0000e+00
      2.221      0.048    12.0895     99.180     30.524  19.444512     5.4959      8.251   249.4012 3.9420e+01     6.4321      2.178      3.159     6.8551 0.0000e+00
      2.230      0.053    12.0919     99.133     30.526  19.444513     5.4946      8.251   249.4647 3.9137e+01     6.4450      2.186      3.171     6.8464 0.0000e+00
      2.243      0.059    12.0868     99.095     30.476  19.410061     5.5351      8.252   249.6759 3.8742e+01     6.4644      2.198      3.187     6.8451 0.0000e+00
      2.260      0.064    12.0828     99.083     30.480  19.408361     5.5771      8.252   249.8904 3.8192e+01     6.4276      2.216      3.213     6.8486 0.0000e+00
      2.282      0.066    12.0878     99.050     30.509  19.423953     5.5861      8.252   249.9064 3.7589e+01     6.3760      2.238      3.245     6.8510 0.0000e+00
      2.303      0.066    12.0763     99.012     30.487  19.408377     5.6194      8.253   249.8702 3.7024e+01     6.3860      2.260      3.278     6.8494 0.0000e+00
      2.322      0.065    12.0722     98.977     30.490  19.410234     5.7058      8.253   249.8828 3.6497e+01     6.4120      2.279      3.305     6.8434 0.0000e+00
      2.337      0.065    12.0795     98.937     30.546  19.446402     5.7475      8.253   249.9723 3.6084e+01     6.4172      2.293      3.326     6.8353 0.0000e+00
      2.346      0.069    12.0723     98.901     30.575  19.465280     5.7415      8.254   250.0919 3.5814e+01     6.3807      2.301      3.339     6.8296 0.0000e+00
      2.356      0.073    12.0698     98.879     30.549  19.448288     5.7661      8.254   250.1243 3.5400e+01     6.3464      2.307      3.345     6.8284 0.0000e+00
      2.376      0.076    12.0652     98.866     30.522  19.431151     5.8196      8.253   250.1064 3.4672e+01     6.3787      2.326      3.373     6.8295 0.0000e+00
      2.406      0.076    12.0595     98.832     30.548  19.448286     5.8650      8.252   250.1341 3.3868e+01     6.4297      2.361      3.424     6.8302 0.0000e+00
      2.436      0.073    12.0552     98.816     30.574  19.465266     5.8651      8.253   250.2002 3.3272e+01     6.4163      2.393      3.471     6.8300 0.0000e+00
      2.455      0.067    12.0507     98.830     30.544  19.446246     5.7715      8.255   250.3036 3.2912e+01     6.3874      2.411      3.497     6.8300 0.0000e+00
      2.465      0.059    12.0544     98.834     30.483  19.408517     5.6402      8.255   250.4376 3.2660e+01     6.4218      2.418      3.508     6.8299 0.0000e+00
      2.472      0.052    12.0454     98.833     30.453  19.389496     5.5926      8.255   250.5303 3.2388e+01     6.4223      2.424      3.516     6.8300 0.0000e+00
      2.481      0.049    12.0422     98.829     30.480  19.406465     5.6040      8.256   250.5637 3.2011e+01     6.3932      2.432      3.526     6.8304 0.0000e+00
      2.493      0.051    12.0485     98.816     30.510  19.423480     5.6026      8.257   250.5841 3.1526e+01     6.4117      2.442      3.541     6.8319 0.0000e+00
      2.510      0.056    12.0455     98.781     30.484  19.405030     5.6010      8.257   250.6046 3.1030e+01     6.4070      2.461      3.569     6.8335 0.0000e+00
      2.527      0.061    12.0464     98.742     30.436  19.373580     5.6177      8.258   250.6395 3.0630e+01     6.4044      2.480      3.597     6.8342 0.0000e+00
      2.541      0.065    12.0458     98.735     30.416  19.360235     5.6299      8.259   250.7474 3.0261e+01     6.4154      2.492      3.615     6.8332 0.0000e+00
      2.556      0.067    12.0463     98.740     30.431  19.370468     5.6238      8.258   250.8772 2.9799e+01     6.4025      2.505      3.634     6.8299 0.0000e+00
      2.575      0.065    12.0427     98.751     30.431  19.370506     5.6433      8.257   250.9186 2.9304e+01     6.4199      2.525      3.662     6.8267 0.0000e+00
      2.595      0.060    12.0346     98.781     30.416  19.360692     5.7082      8.257   250.9032 2.8885e+01     6.4885      2.546      3.692     6.8253 0.0000e+00
      2.613      0.054    12.0370     98.812     30.444  19.378610     5.7590      8.258   250.9489 2.8475e+01     6.5143      2.563      3.718     6.8247 0.0000e+00
      2.628      0.048    12.0375     98.832     30.473  19.396949     5.7655      8.260   251.0414 2.8143e+01     6.4243      2.580      3.741     6.8245 0.0000e+00
      2.638      0.045    12.0374     98.858     30.465  19.392225     5.7380      8.260   251.0744 2.8058e+01     6.3237      2.590      3.757     6.8246 0.0000e+00
      2.640      0.044    12.0421     98.878     30.453  19.384898     5.7013      8.259   251.0902 2.8013e+01     6.3559      2.588      3.754     6.8248 0.0000e+00
      2.645      0.044    12.0475     98.881     30.432  19.371761     5.6953      8.259   251.1469 2.7717e+01     6.4723      2.588      3.752     6.8252 0.0000e+00
      2.660      0.044    12.0473     98.883     30.414  19.360187     5.6912      8.259   251.1579 2.7213e+01     6.4670      2.605      3.779     6.8256 0.0000e+00
      2.680      0.046    12.0512     98.879     30.432  19.371762     5.6435      8.259   251.1364 2.6776e+01     6.3945      2.631      3.816     6.8256 0.0000e+00
      2.696      0.050    12.0558     98.886     30.453  19.384909     5.5926      8.261   251.1453 2.6554e+01     6.4499      2.648      3.839     6.8261 0.0000e+00
      2.704      0.054    12.0522     98.899     30.465  19.392340     5.5836      8.262   251.2649 2.6392e+01     6.5221      2.651      3.846     6.8266 0.0000e+00
      2.711      0.059    12.0561     98.899     30.474  19.398207     5.5936      8.262   251.4649 2.6139e+01     6.5156      2.656      3.852     6.8263 0.0000e+00
      2.722      0.066    12.0526     98.900     30.465  19.392452     5.6291      8.262   251.4977 2.5778e+01     6.4401      2.667      3.869     6.8264 0.0000e+00
      2.741      0.073    12.0540     98.906     30.454  19.386157     5.7052      8.262   251.4900 2.5264e+01     6.3609      2.685      3.895     6.8263 0.0000e+00
      2.766      0.076    12.0584     98.915     30.452  19.385497     5.7566      8.262   251.6292 2.4656e+01     6.4111      2.712      3.932     6.8259 0.0000e+00
      2.794      0.075    12.0554     98.920     30.450  19.384462     5.7593      8.262   251.7189 2.4086e+01     6.4324      2.741      3.975     6.8260 0.0000e+00
      2.819      0.070    12.0567     98.910     30.434  19.373651     5.7382      8.262   251.8007 2.3668e+01     6.3452      2.767      4.013     6.8263 0.0000e+00
      2.834      0.064    12.0567     98.889     30.447  19.381572     5.7092      8.262   251.9295 2.3477e+01     6.3475      2.784      4.037     6.8269 0.0000e+00
      2.842      0.059    12.0576     98.869     30.502  19.416834     5.7003      8.263   251.8996 2.3382e+01     6.4255      2.787      4.041     6.8277 0.0000e+00
      2.848      0.054    12.0594     98.846     30.506  19.419596     5.7057      8.263   251.7830 2.3159e+01     6.4686      2.789      4.045     6.8277 0.0000e+00
      2.862      0.052    12.0579     98.831     30.499  19.414976     5.6994      8.262   251.8106 2.2786e+01     6.4247      2.804      4.068     6.8274 0.0000e+00
      2.882      0.055    12.0539     98.824     30.514  19.424368     5.6650      8.262   251.8889 2.2436e+01     6.3057      2.828      4.101     6.8275 0.0000e+00
      2.898      0.060    12.0532     98.818     30.485  19.406360     5.6312      8.263   251.8699 2.2197e+01     6.2936      2.845      4.126     6.8271 0.0000e+00
      2.910      0.062    12.0491     98.822     30.455  19.387438     5.6318      8.263   251.9240 2.1965e+01     6.4139      2.854      4.139     6.8267 0.0000e+00
      2.924      0.061    12.0470     98.837     30.453  19.385783     5.6305      8.263   252.0274 2.1634e+01     6.4627      2.865      4.155     6.8268 0.0000e+00
      2.942      0.061    12.0476     98.866     30.453  19.386354     5.6157      8.264   252.0874 2.1266e+01     6.4395      2.885      4.185     6.8274 0.0000e+00
      2.961      0.063    12.0449     98.903     30.466  19.394341     5.6115      8.264   252.2189 2.1021e+01     6.4414      2.907      4.216     6.8280 0.0000e+00
      2.974      0.067    12.0462     98.910     30.505  19.418957     5.6219      8.263   252.3271 2.0822e+01     6.4514      2.918      4.232     6.8283 0.0000e+00
      2.987      0.069    12.0479     98.889     30.524  19.430380     5.6404      8.263   252.3635 2.0497e+01     6.4917      2.927      4.246     6.8281 0.0000e+00
      3.007      0.070    12.0501     98.879     30.487  19.405658     5.6278      8.264   252.3147 2.0093e+01     6.4840      2.947      4.275     6.8283 0.0000e+00
      3.029      0.071    12.0583     98.889     30.441  19.373638     5.5939      8.265   252.2534 1.9759e+01     6.4271      2.973      4.311     6.8284 0.0000e+00
      3.048      0.070    12.0590     98.884     30.427  19.360235     5.5887      8.267   252.3964 1.9521e+01     6.4532      2.990      4.337     6.8277 0.0000e+00
      3.066      0.065    12.0539     98.860     30.451  19.370397     5.5895      8.268   252.5807 1.9246e+01     6.4235      3.004      4.358     6.8263 0.0000e+00
      3.086      0.059    12.0526     98.836     30.456  19.369696     5.5704      8.268   252.6752 1.8956e+01     6.3072      3.026      4.390     6.8253 0.0000e+00
      3.101      0.056    12.0574     98.795     30.433  19.351755     5.5410      8.267   252.7642 1.8806e+01     6.2419      3.045      4.416     6.8219 0.0000e+00
      3.109      0.058    12.0602     98.732     30.428  19.343678     5.5178      8.268   252.7970 1.8740e+01     6.2148      3.049      4.422     6.8124 0.0000e+00
      3.116      0.063    12.0573     98.676     30.427  19.335429     5.5226      8.268   252.8138 1.8597e+01     6.2185      3.052      4.427     6.8030 0.0000e+00
      3.129      0.070    12.0586     98.621     30.412  19.315415     5.5322      8.269   252.8817 1.8295e+01     6.2182      3.064      4.444     6.7971 0.0000e+00
      3.151      0.080    12.0555     98.541     30.392  19.291875     5.5671      8.270   252.9294 1.7882e+01     6.2456      3.088      4.479     6.7924 0.0000e+00
      3.178      0.087    12.0472     98.453     30.427  19.304402     5.6626      8.270   252.9597 1.7431e+01     6.3796      3.116      4.520     6.7857 0.0000e+00
      3.207      0.087    12.0447     98.360     30.492  19.340069     5.7377      8.270   252.9905 1.6981e+01     6.5065      3.145      4.562     6.7723 0.0000e+00
      3.233      0.082    12.0458     98.257     30.501  19.342719     5.7508      8.270   253.0430 1.6623e+01     6.4807      3.173      4.602     6.7556 0.0000e+00
      3.255      0.071    12.0397     98.198     30.497  19.336441     5.7376      8.271   253.1643 1.6390e+01     6.3756      3.195      4.633     6.7359 0.0000e+00
      3.269      0.058    12.0339     98.169     30.490  19.327561     5.7280      8.272   253.2525 1.6253e+01     6.3296      3.208      4.653     6.7171 0.0000e+00
      3.279      0.047    12.0282     98.097     30.451  19.298744     5.7346      8.272   253.2492 1.6175e+01     6.3677      3.216      4.665     6.7098 0.0000e+00
      3.288      0.040    12.0103     98.004     30.466  19.305014     5.7508      8.272   253.2107 1.6101e+01     6.4266      3.224      4.677     6.7072 0.0000e+00
      3.296      0.037    12.0056     97.957     30.526  19.339968     5.7492      8.272   253.2175 1.6014e+01     6.3922      3.232      4.688     6.7014 0.0000e+00
      3.303      0.039    12.0113     97.944     30.535  19.340959     5.7321      8.272   253.3314 1.5899e+01     6.3623      3.239      4.697     6.6933 0.0000e+00
      3.311      0.041    12.0016     97.924     30.511  19.316989     5.7348      8.272   253.4693 1.5732e+01     6.4406      3.245      4.707     6.6859 0.0000e+00
      3.323      0.042    11.9878     97.907     30.503  19.303746     5.7412      8.272   253.5077 1.5504e+01     6.4508      3.256      4.723     6.6804 0.0000e+00
      3.339      0.045    11.9837     97.885     30.516  19.307635     5.7430      8.272   253.5373 1.5289e+01     6.3836      3.275      4.751     6.6770 0.0000e+00
      3.353      0.050    11.9884     97.864     30.512  19.300605     5.7647      8.272   253.6554 1.5189e+01     6.3792      3.291      4.774     6.6718 0.0000e+00
      3.359      0.056    11.9871     97.864     30.500  19.282141     5.7950      8.272   253.7309 1.5113e+01     6.4320      3.293      4.776     6.6551 0.0000e+00
      3.368      0.061    11.9926     97.829     30.513  19.274588     5.8180      8.272   253.6765 1.4905e+01     6.5098      3.299      4.784     6.6367 0.0000e+00
      3.387      0.067    11.9915     97.744     30.532  19.272667     5.8177      8.272   253.6000 1.4620e+01     6.4999      3.320      4.816     6.6340 0.0000e+00
      3.410      0.074    11.9848     97.650     30.528  19.258892     5.7917      8.273   253.5799 1.4335e+01     6.3803      3.345      4.851     6.6324 0.0000e+00
      3.431      0.077    11.9974     97.559     30.508  19.234836     5.7860      8.273   253.6055 1.4058e+01     6.3613      3.365      4.880     6.6110 0.0000e+00
      3.452      0.072    12.0022     97.473     30.524  19.235398     5.8079      8.273   253.7372 1.3787e+01     6.4411      3.385      4.909     6.5809 0.0000e+00
      3.475      0.063    11.9955     97.400     30.577  19.265674     5.8146      8.273   253.8827 1.3525e+01     6.4918      3.408      4.944     6.5575 0.0000e+00
      3.494      0.055    11.9892     97.336     30.604  19.283899     5.7753      8.273   253.9011 1.3390e+01     6.4959      3.430      4.976     6.5411 0.0000e+00
      3.503      0.050    11.9840     97.292     30.574  19.265549     5.7069      8.273   253.9600 1.3395e+01     6.4559      3.439      4.988     6.5225 0.0000e+00
      3.505      0.052    11.9782     97.270     30.526  19.234015     5.6794      8.274   254.1654 1.3376e+01     6.4527      3.435      4.982     6.5024 0.0000e+00
      3.510      0.059    11.9717     97.242     30.508  19.219623     5.7003      8.274   254.3194 1.3233e+01     6.4907      3.439      4.987     6.4981 0.0000e+00
      3.525      0.070    11.9608     97.200     30.513  19.218329     5.7434      8.275   254.3585 1.2987e+01     6.4717      3.454      5.009     6.5052 0.0000e+00
      3.548      0.080    11.9538     97.151     30.521  19.218365     5.8096      8.275   254.4665 1.2670e+01     6.4285      3.476      5.042     6.5064 0.0000e+00
      3.577      0.084    11.9555     97.105     30.531  19.220059     5.8599      8.274   254.5925 1.2310e+01     6.4462      3.507      5.086     6.5025 0.0000e+00
      3.609      0.082    11.9523     97.073     30.566  19.238808     5.8684      8.273   254.6772 1.2004e+01     6.4813      3.541      5.136     6.4986 0.0000e+00
      3.635      0.077    11.9494     97.047     30.594  19.254853     5.8294      8.273   254.8031 1.1854e+01     6.4424      3.571      5.180     6.4915 0.0000e+00
      3.648      0.075    11.9463     97.026     30.548  19.223843     5.7630      8.274   254.8240 1.1837e+01     6.3524      3.583      5.195     6.4812 0.0000e+00
      3.652      0.075    11.9418     97.008     30.487  19.180878     5.7393      8.274   254.8434 1.1794e+01     6.3829      3.578      5.189     6.4728 0.0000e+00
      3.662      0.078    11.9407     96.988     30.493  19.179163     5.7515      8.274   255.0376 1.1594e+01     6.5042      3.585      5.200     6.4684 0.0000e+00
      3.687      0.079    11.9370     96.951     30.539  19.203106     5.6940      8.273   255.1932 1.1274e+01     6.4868      3.612      5.239     6.4671 0.0000e+00
      3.720      0.077    11.9352     96.879     30.565  19.216757     5.5688      8.273   255.2627 1.0951e+01     6.3769      3.649      5.293     6.4652 0.0000e+00
      3.752      0.072    11.9359     96.791     30.567  19.217422     5.5104      8.273   255.2749 1.0721e+01     6.3719      3.685      5.343     6.4577 0.0000e+00
      3.773      0.063    11.9364     96.716     30.556  19.211144     5.5296      8.275   255.2547 1.0640e+01     6.4595      3.707      5.375     6.4461 0.0000e+00
      3.778      0.057    11.9375     96.673     30.544  19.204246     5.5340      8.276   255.3622 1.0671e+01     6.4796      3.709      5.378     6.4371 0.0000e+00
      3.776      0.057    11.9270     96.644     30.535  19.197425     5.5220      8.275   255.5419 1.0663e+01     6.4102      3.700      5.366     6.4331 0.0000e+00
      3.781      0.067    11.9163     96.595     30.534  19.192073     5.5348      8.274   255.7077 1.0515e+01     6.3720      3.703      5.371     6.4321 0.0000e+00
      3.800      0.083    11.9045     96.542     30.562  19.202926     5.5631      8.273   255.8182 1.0265e+01     6.3932      3.724      5.401     6.4345 0.0000e+00
      3.829      0.100    11.8992     96.509     30.570  19.201839     5.5817      8.272   255.8456 9.9534e+00     6.4279      3.751      5.441     6.4367 0.0000e+00
      3.866      0.109    11.9000     96.502     30.539  19.178927     5.6020      8.271   255.8668 9.6195e+00     6.4162      3.790      5.496     6.4354 0.0000e+00
      3.906      0.107    11.8927     96.493     30.544  19.179499     5.6418      8.269   255.9025 9.3357e+00     6.3874      3.834      5.560     6.4281 0.0000e+00
      3.939      0.096    11.8911     96.478     30.594  19.208745     5.6713      8.268   256.0182 9.1378e+00     6.4216      3.866      5.608     6.4132 0.0000e+00
      3.960      0.081    11.8884     96.468     30.606  19.215538     5.6853      8.267   256.1472 9.0323e+00     6.4883      3.887      5.637     6.4025 0.0000e+00
      3.970      0.066    11.8914     96.431     30.580  19.198237     5.6938      8.267   256.1725 8.9747e+00     6.5454      3.895      5.649     6.3988 0.0000e+00
      3.979      0.054    11.8922     96.388     30.567  19.189757     5.6823      8.267   256.1522 8.8802e+00     6.5658      3.899      5.656     6.3945 0.0000e+00
      3.990      0.049    11.8883     96.359     30.546  19.176412     5.6796      8.268   256.1596 8.7601e+00     6.6316      3.913      5.675     6.3907 0.0000e+00
      4.002      0.051    11.8927     96.324     30.525  19.163676     5.6856      8.268   256.1757 8.6756e+00     6.7600      3.927      5.694     6.3895 0.0000e+00
      4.013      0.057    11.8849     96.284     30.522  19.162571     5.6640      8.268   256.2610 8.5843e+00     6.7524      3.934      5.705     6.3890 0.0000e+00
      4.028      0.067    11.8782     96.258     30.525  19.163046     5.6255      8.269   256.5029 8.4353e+00     6.6414      3.948      5.726     6.3881 0.0000e+00
      4.047      0.079    11.8781     96.240     30.543  19.169419     5.6120      8.269   256.6059 8.2630e+00     6.5799      3.970      5.757     6.3874 0.0000e+00
      4.066      0.090    11.8715     96.206     30.563  19.176221     5.6258      8.268   256.5597 8.0872e+00     6.5899      3.988      5.783     6.3888 0.0000e+00
      4.089      0.095    11.8661     96.162     30.577  19.181880     5.6002      8.268   256.6323 7.8803e+00     6.6593      4.006      5.810     6.3906 0.0000e+00
      4.120      0.095    11.8618     96.117     30.562  19.174430     5.5196      8.269   256.7098 7.6441e+00     6.6671      4.038      5.857     6.3905 0.0000e+00
      4.155      0.091    11.8654     96.062     30.519  19.149557     5.4590      8.269   256.7213 7.4507e+00     6.6168      4.079      5.916     6.3816 0.0000e+00
      4.181      0.087    11.8644     96.022     30.494  19.134743     5.4500      8.268   256.8579 7.3411e+00     6.6314      4.106      5.954     6.3664 0.0000e+00
      4.195      0.084    11.8592     96.000     30.476  19.122119     5.4602      8.267   257.1570 7.2616e+00     6.6730      4.115      5.968     6.3628 0.0000e+00
      4.206      0.084    11.8535     95.947     30.486  19.123721     5.4242      8.267   257.3261 7.1644e+00     6.6417      4.124      5.980     6.3688 0.0000e+00
      4.220      0.085    11.8435     95.874     30.545  19.154101     5.3314      8.266   257.2680 7.0223e+00     6.5602      4.135      5.998     6.3729 0.0000e+00
      4.244      0.087    11.8370     95.838     30.583  19.172440     5.2696      8.264   257.2294 6.8100e+00     6.5407      4.157      6.030     6.3745 0.0000e+00
      4.279      0.087    11.8392     95.831     30.561  19.155245     5.2678      8.263   257.2890 6.5775e+00     6.6119      4.197      6.088     6.3731 0.0000e+00
      4.313      0.082    11.8350     95.838     30.534  19.136390     5.2263      8.263   257.2999 6.4144e+00     6.6011      4.234      6.141     6.3641 0.0000e+00
      4.334      0.073    11.8239     95.865     30.534  19.134667     5.1181      8.262   257.2754 6.3541e+00     6.4783      4.254      6.169     6.3510 0.0000e+00
      4.344      0.061    11.8254     95.916     30.535  19.134412     5.0588      8.262   257.3366 6.3525e+00     6.4250      4.261      6.181     6.3425 0.0000e+00
      4.350      0.048    11.8257     95.983     30.534  19.133307     5.0579      8.262   257.4372 6.3264e+00     6.4353      4.264      6.185     6.3374 0.0000e+00
      4.358      0.040    11.8276     96.014     30.515  19.121311     5.0157      8.262   257.4593 6.2527e+00     6.4325      4.272      6.197     6.3337 0.0000e+00
      4.370      0.039    11.8316     95.996     30.508  19.116166     4.9234      8.263   257.4319 6.1727e+00     6.3909      4.286      6.216     6.3314 0.0000e+00
      4.381      0.043    11.8376     95.999     30.538  19.134506     4.8651      8.263   257.4507 6.1205e+00     6.3419      4.298      6.233     6.3301 0.0000e+00
      4.390      0.049    11.8493     96.011     30.567  19.152855     4.8682      8.264   257.5144 6.0771e+00     6.3517      4.304      6.242     6.3292 0.0000e+00
      4.400      0.057    11.8560     95.973     30.559  19.147815     4.8784      8.264   257.6861 5.9988e+00     6.4076      4.313      6.254     6.3286 0.0000e+00
      4.415      0.066    11.8468     95.917     30.541  19.136973     4.8546      8.264   257.8911 5.9001e+00     6.5048      4.329      6.278     6.3280 0.0000e+00
      4.434      0.072    11.8481     95.859     30.561  19.148568     4.8221      8.263   257.9283 5.7944e+00     6.6390      4.347      6.305     6.3277 0.0000e+00
      4.456      0.074    11.8571     95.814     30.582  19.161201     4.8265      8.262   257.9642 5.6749e+00     6.7326      4.368      6.335     6.3277 0.0000e+00
      4.480      0.074    11.8453     95.795     30.587  19.162916     4.8419      8.262   258.1536 5.5629e+00     6.7137      4.394      6.373     6.3276 0.0000e+00
      4.503      0.073    11.8411     95.771     30.602  19.169308     4.8497      8.261   258.3253 5.4754e+00     6.6162      4.419      6.410     6.3276 0.0000e+00
      4.518      0.069    11.8327     95.748     30.618  19.175083     4.8715      8.260   258.3195 5.4156e+00     6.5783      4.433      6.429     6.3268 0.0000e+00
      4.529      0.064    11.8253     95.742     30.618  19.169330     4.8806      8.260   258.1700 5.3513e+00     6.6316      4.440      6.439     6.3256 0.0000e+00
      4.544      0.063    11.8277     95.735     30.618  19.163147     4.8756      8.260   258.0663 5.2636e+00     6.6786      4.454      6.461     6.3236 0.0000e+00
      4.563      0.070    11.8244     95.716     30.628  19.163720     4.8527      8.260   258.0118 5.1863e+00     6.7028      4.476      6.492     6.3196 0.0000e+00
      4.578      0.084    11.8219     95.662     30.658  19.176248     4.7962      8.259   257.9411 5.1277e+00     6.7202      4.492      6.514     6.3132 0.0000e+00
      4.593      0.096    11.8260     95.502     30.684  19.187823     4.7742      8.258   257.8989 5.0257e+00     6.7864      4.499      6.525     6.3029 0.0000e+00
      4.618      0.100    11.8291     95.228     30.672  19.176867     4.7952      8.258   257.9327 4.8188e+00     6.9568      4.520      6.556     6.2923 0.0000e+00
      4.658      0.096    11.8279     94.876     30.665  19.170581     4.7587      8.258   257.9192 4.5856e+00     7.3791      4.568      6.625     6.2830 0.0000e+00
      4.699      0.090    11.8315     94.454     30.674  19.175211     4.6576      8.257   257.6487 4.4491e+00     7.9982      4.616      6.696     6.2730 0.0000e+00
      4.723      0.085    11.8127     93.989     30.665  19.169449     4.6048      8.256   257.4163 4.4015e+00     8.4652      4.638      6.727     6.2644 0.0000e+00
      4.729      0.077    11.7778     93.514     30.658  19.164305     4.7281      8.255   257.5187 4.3884e+00    10.1566      4.640      6.729     6.2585 0.0000e+00
      4.733      0.065    11.7369     93.054     30.680  19.176423     6.0402      8.253   257.6812 4.3538e+00    28.4139      4.635      6.723     6.2555 0.0000e+00
      4.748      0.055    11.6824     92.650     30.702  19.189159     8.4001      8.253   257.8334 4.2412e+00    61.8646      4.648      6.743     6.2548 0.0000e+00
      4.775      0.049    11.6235     92.353     30.706  19.191502     9.6658      8.253   258.0681 4.0998e+00    80.2198      4.687      6.797     6.2548 0.0000e+00
      4.796      0.044    11.5643     92.131     30.727  19.204745     9.7242      8.252   258.1958 4.0181e+00    82.9990      4.710      6.831     6.2538 0.0000e+00
      4.803      0.035    11.5075     91.939     30.755  19.222485     9.0565      8.250   258.2591 3.9980e+00    94.6131      4.712      6.834     6.2507 0.0000e+00
      4.804      0.022    11.4530     91.805     30.744  19.215787     7.7858      8.250   258.3175 4.0085e+00   115.5024      4.711      6.833     6.2484 0.0000e+00
      4.805      0.010    11.4194     91.735     30.697  19.187158     7.0776      8.249   258.2991 4.0274e+00   126.8214      4.712      6.834     6.2481 0.0000e+00
      4.806      0.003    11.3960     91.677     30.706  19.193342     7.0017      8.249   258.2953 4.0321e+00   127.7972      4.714      6.836     6.2486 0.0000e+00
      4.806      0.000    11.3679     91.622     30.758  19.227155     6.9940      8.249   258.3571 4.0221e+00   127.6758      4.713      6.836     6.2494 0.0000e+00
      4.805 8.9210e-07    11.3511     91.606     30.738  19.215579     7.0342      8.250   258.4439 4.0126e+00   125.2178      4.712      6.835     6.2499 0.0000e+00
      4.805      0.000    11.3459     91.610     30.679  19.180185     7.1129      8.251   258.5705 4.0056e+00   120.7587      4.712      6.835     6.2503 0.0000e+00
      4.805      0.000    11.3395     91.615     30.675  19.179612     7.1633      8.251   258.7696 4.0019e+00   118.4079      4.712      6.835     6.2518 0.0000e+00
      4.805      0.001    11.3278     91.642     30.718  19.208662     7.2184      8.250   258.9582 4.0092e+00   118.2465      4.713      6.835     6.2534 0.0000e+00
      4.805      0.003    11.3277     91.691     30.725  19.214417     7.7054      8.251   259.0438 4.0115e+00   117.8165      4.712      6.834     6.2547 0.0000e+00
      4.806      0.004    11.3298     91.772     30.678  19.185798     8.5988      8.251   259.1161 4.0061e+00   116.9320      4.713      6.835     6.2578 0.0000e+00
      4.807      0.005    11.3251     91.879     30.667  19.179633     9.0898      8.251   259.2296 4.0049e+00   116.5702      4.714      6.837     6.2615 0.0000e+00
      4.809      0.006    11.3310     91.998     30.703  19.203278     9.2057      8.250   259.2978 4.0084e+00   118.9412      4.716      6.840     6.2644 0.0000e+00
      4.811      0.006    11.3336     92.157     30.724  19.218083    10.1494      8.250   259.2531 4.0233e+00   145.7029      4.718      6.843     6.2664 0.0000e+00
      4.813      0.004    11.3440     92.346     30.746  19.231839    11.8777      8.250   259.2046 4.0421e+00   194.5710      4.720      6.846     6.2673 0.0000e+00
      4.815      0.000    11.3595     92.502     30.766  19.242794    12.7899      8.250   259.3137 4.0733e+00   220.7745      4.723      6.849     6.2687 0.0000e+00
      4.816     -0.007    11.3694     92.616     30.738  19.223740    12.7139      8.249   259.5404 4.1128e+00   219.1765      4.724      6.852     6.2716 0.0000e+00
      4.816     -0.018    11.3891     92.719     30.688  19.191663    11.1172      8.248   259.8805 4.0976e+00   175.8981      4.724      6.852     6.2744 0.0000e+00
      4.811     -0.033    11.4164     92.789     30.653  19.171963     8.1753      8.248   260.2416 4.0041e+00    96.1742      4.720      6.846     6.2752 0.0000e+00
      4.803     -0.052    11.4376     92.806     30.654  19.175746     6.5572      8.248   260.4652 3.9195e+00    52.5564      4.712      6.834     6.2722 0.0000e+00
      4.789     -0.071    11.4485     92.787     30.647  19.174013     6.3591      8.247   260.6055 3.9651e+00    47.6378      4.701      6.818     6.2669 0.0000e+00
      4.768     -0.082    11.4650     92.722     30.605  19.151003     5.9801      8.245   260.7336 4.1557e+00    37.7623      4.679      6.788     6.2660 0.0000e+00
      4.738     -0.080    11.4737     92.652     30.596  19.151144     5.3375      8.243   260.8096 4.3808e+00    20.3618      4.648      6.741     6.2706 0.0000e+00
      4.703     -0.065    11.4709     92.650     30.623  19.175721     4.9900      8.243   260.8356 4.5588e+00    10.8487      4.611      6.687     6.2760 0.0000e+00
      4.675     -0.043    11.4707     92.725     30.645  19.194575     4.9488      8.242   260.8761 4.6394e+00    10.0176      4.577      6.637     6.2801 0.0000e+00
      4.667     -0.019    11.4589     92.849     30.643  19.188906     4.9152      8.241   260.9552 4.5857e+00    10.6882      4.568      6.626     6.2855 0.0000e+00
      4.680      0.003    11.4421     93.013     30.630  19.170577     4.7501      8.240   261.0177 4.4691e+00    18.7867      4.588      6.655     6.2932 0.0000e+00
      4.700      0.020    11.4396     93.230     30.631  19.163148     4.4666      8.240   261.0293 4.3916e+00    33.5710      4.613      6.690     6.3082 0.0000e+00
      4.712      0.026    11.4446     93.474     30.638  19.162473     4.3009      8.240   261.0961 4.3819e+00    41.5335      4.624      6.707     6.3236 0.0000e+00
      4.714      0.022    11.4656     93.696     30.644  19.162417     4.2700      8.240   261.2229 4.3990e+00    41.5147      4.623      6.707     6.3120 0.0000e+00
      4.714      0.013    11.4890     93.840     30.649  19.162464     4.3589      8.240   261.2718 4.4061e+00    33.3092      4.621      6.704     6.2895 0.0000e+00
      4.716      0.003    11.5216     93.864     30.652  19.163036     4.5515      8.240   261.3425 4.3998e+00    18.0191      4.625      6.709     6.2786 0.0000e+00
      4.718     -0.004    11.5563     93.797     30.662  19.169334     4.6603      8.239   261.5619 4.3991e+00     9.5756      4.629      6.712     6.2705 0.0000e+00
      4.716     -0.008    11.5869     93.643     30.671  19.175211     4.6759      8.238   261.6874 4.4135e+00     8.7613      4.624      6.706     6.2634 0.0000e+00
      4.712     -0.009    11.6115     93.432     30.663  19.170695     4.7312      8.238   261.5694 4.4348e+00     8.9587      4.621      6.703     6.2591 0.0000e+00
      4.708     -0.008    11.6086     93.218     30.675  19.178126     4.8381      8.238   261.4259 4.4640e+00     9.4692      4.618      6.697     6.2579 0.0000e+00
      4.703     -0.003    11.6035     93.015     30.713  19.201657     4.8864      8.238   261.4151 4.4836e+00     9.7077      4.611      6.687     6.2577 0.0000e+00
      4.700      0.003    11.5824     92.840     30.713  19.201610     4.8739      8.238   261.4389 4.4763e+00     9.7586      4.607      6.682     6.2584 0.0000e+00
      4.702      0.009    11.5521     92.724     30.676  19.177556     4.8951      8.238   261.4554 4.4459e+00    10.4591      4.610      6.685     6.2588 0.0000e+00
      4.709      0.013    11.5272     92.660     30.658  19.164429     4.9432      8.237   261.5286 4.4021e+00    11.6881      4.617      6.697     6.2586 0.0000e+00
      4.716      0.009    11.5004     92.616     30.668  19.169687     4.9645      8.235   261.5490 4.3643e+00    12.3211      4.626      6.710     6.2593 0.0000e+00
      4.723     -0.009    11.4770     92.590     30.680  19.177728     4.9530      8.234   261.4446 4.3445e+00    12.3389      4.632      6.718     6.2589 0.0000e+00
      4.728     -0.044    11.4635     92.581     30.708  19.198248     4.9282      8.234   261.3848 4.3405e+00    12.3818      4.639      6.727     6.2566 0.0000e+00
      4.725     -0.087    11.4592     92.552     30.748  19.227599     4.8902      8.234   261.4287 4.3998e+00    13.3526      4.640      6.731     6.2541 0.0000e+00
      4.702     -0.128    11.4536     92.502     30.723  19.215614     4.8345      8.234   261.3730 4.6154e+00    15.0932      4.622      6.704     6.2517 0.0000e+00
      4.651     -0.162    11.4498     92.467     30.663  19.180146     4.7875      8.234   261.2274 4.9731e+00    15.9371      4.569      6.626     6.2515 0.0000e+00
      4.584     -0.183    11.4497     92.437     30.661  19.179163     4.7797      8.233   261.2168 5.3323e+00    15.8703      4.493      6.517     6.2569 0.0000e+00
      4.520     -0.189    11.4445     92.417     30.701  19.203733     4.9228      8.232   261.2444 5.6102e+00    15.1043      4.426      6.420     6.2659 0.0000e+00
      4.469     -0.179    11.4320     92.442     30.736  19.223617     5.1939      8.232   261.1311 5.8257e+00    13.7129      4.378      6.350     6.2725 0.0000e+00
      4.430     -0.158    11.4297     92.506     30.748  19.229370     5.3441      8.233   260.9652 6.0082e+00    12.9501      4.342      6.299     6.2754 0.0000e+00
      4.399     -0.132    11.4254     92.588     30.719  19.209887     5.3413      8.235   260.8740 6.1724e+00    12.8843      4.314      6.257     6.2760 0.0000e+00
      4.369     -0.108    11.4204     92.672     30.669  19.178249     5.2679      8.235   260.8885 6.3324e+00    13.3271      4.285      6.215     6.2737 0.0000e+00
      4.342     -0.089    11.4261     92.746     30.647  19.163846     5.1734      8.234   260.9685 6.4629e+00    14.2385      4.256      6.172     6.2707 0.0000e+00
      4.322     -0.077    11.4349     92.801     30.644  19.162542     5.1386      8.234   260.9813 6.5481e+00    14.6810      4.235      6.143     6.2685 0.0000e+00
      4.308     -0.072    11.4473     92.833     30.640  19.162484     5.1376      8.234   260.9571 6.6165e+00    14.4424      4.224      6.126     6.2661 0.0000e+00
      4.297     -0.075    11.4580     92.855     30.633  19.163148     5.1287      8.234   261.0193 6.6702e+00    12.6512      4.213      6.111     6.2638 0.0000e+00
      4.286     -0.084    11.4680     92.886     30.634  19.170578     5.1229      8.234   261.0452 6.7534e+00     9.5226      4.204      6.098     6.2636 0.0000e+00
      4.268     -0.094    11.4746     92.942     30.652  19.188926     5.1250      8.234   261.0119 6.9486e+00     7.8364      4.193      6.081     6.2648 0.0000e+00
      4.236     -0.101    11.4772     93.053     30.647  19.194793     5.1298      8.235   260.9609 7.2461e+00     7.6346      4.158      6.030     6.2676 0.0000e+00
      4.195     -0.100    11.4762     93.240     30.607  19.178119     5.1230      8.236   260.8597 7.5480e+00     7.3557      4.112      5.962     6.2762 0.0000e+00
      4.159     -0.090    11.4764     93.497     30.593  19.177538     5.1179      8.237   260.8199 7.7583e+00     7.0264      4.074      5.908     6.2879 0.0000e+00
      4.134     -0.071    11.4784     93.825     30.599  19.187770     5.1262      8.238   260.9103 7.8580e+00     6.9330      4.050      5.874     6.3000 0.0000e+00
      4.122     -0.051    11.4861     94.195     30.572  19.175043     5.1236      8.239   261.0053 7.8811e+00     6.9100      4.040      5.859     6.3143 0.0000e+00
      4.121     -0.040    11.5068     94.551     30.528  19.150453     5.1106      8.239   261.0230 7.8516e+00     6.8170      4.038      5.858     6.3294 0.0000e+00
      4.126     -0.042    11.5332     94.898     30.514  19.144069     5.1683      8.239   261.1240 7.8264e+00     6.7304      4.047      5.870     6.3436 0.0000e+00
      4.126     -0.057    11.5715     95.237     30.539  19.161256     5.3057      8.239   261.2802 7.8937e+00     6.6479      4.053      5.877     6.3531 0.0000e+00
      4.112     -0.080    11.6205     95.535     30.549  19.168058     5.3992      8.239   261.2767 8.0953e+00     6.6397      4.038      5.857     6.3592 0.0000e+00
      4.082     -0.105    11.6602     95.786     30.539  19.162912     5.4158      8.238   261.1685 8.4064e+00     6.6660      4.005      5.810     6.3652 0.0000e+00
      4.042     -0.125    11.7014     95.989     30.535  19.162445     5.4901      8.238   261.0895 8.7587e+00     6.6577      3.964      5.750     6.3695 0.0000e+00
      4.000     -0.135    11.7460     96.127     30.530  19.162408     5.6491      8.239   261.0962 9.1063e+00     6.6767      3.922      5.688     6.3705 0.0000e+00
      3.961     -0.135    11.7819     96.202     30.524  19.162466     5.7402      8.239   261.1630 9.4298e+00     6.6557      3.883      5.632     6.3706 0.0000e+00
      3.926     -0.129    11.8122     96.242     30.519  19.163151     5.7503      8.239   261.2092 9.7159e+00     6.6098      3.849      5.584     6.3726 0.0000e+00
      3.896     -0.119    11.8373     96.245     30.525  19.170696     5.7803      8.240   261.2256 9.9761e+00     6.7704      3.820      5.541     6.3754 0.0000e+00
      3.868     -0.108    11.8541     96.228     30.550  19.190292     5.8440      8.241   261.1882 1.0235e+01     7.1285      3.793      5.503     6.3800 0.0000e+00
      3.843     -0.098    11.8574     96.213     30.576  19.209887     5.8879      8.242   261.1878 1.0500e+01     7.3867      3.769      5.466     6.3873 0.0000e+00
      3.818     -0.088    11.8622     96.202     30.584  19.217422     5.8945      8.242   261.3068 1.0750e+01     7.3982      3.745      5.431     6.3951 0.0000e+00
      3.795     -0.083    11.8599     96.240     30.582  19.218005     5.7831      8.242   261.3367 1.0939e+01     7.0967      3.720      5.395     6.4013 0.0000e+00
      3.777     -0.084    11.8530     96.325     30.577  19.216928     5.5728      8.243   261.2907 1.1048e+01     6.6798      3.700      5.367     6.4068 0.0000e+00
      3.764     -0.090    11.8529     96.395     30.555  19.204410     5.4746      8.243   261.3533 1.1192e+01     6.5248      3.693      5.357     6.4124 0.0000e+00
      3.747     -0.100    11.8455     96.451     30.536  19.193455     5.4687      8.243   261.4918 1.1473e+01     6.4866      3.680      5.338     6.4165 0.0000e+00
      3.719     -0.111    11.8489     96.528     30.563  19.211270     5.4515      8.243   261.5876 1.1842e+01     6.3545      3.649      5.293     6.4197 0.0000e+00
      3.684     -0.122    11.8642     96.613     30.592  19.229608     5.4416      8.245   261.5650 1.2258e+01     6.2600      3.614      5.242     6.4227 0.0000e+00
      3.646     -0.129    11.8709     96.665     30.583  19.224988     5.4493      8.247   261.5627 1.2728e+01     6.3003      3.577      5.189     6.4245 0.0000e+00
      3.606     -0.130    11.8746     96.684     30.570  19.218805     5.4696      8.247   261.5606 1.3207e+01     6.3968      3.535      5.128     6.4262 0.0000e+00
      3.571     -0.127    11.8848     96.681     30.565  19.218253     5.4786      8.248   261.4529 1.3596e+01     6.4030      3.498      5.075     6.4271 0.0000e+00
      3.544     -0.126    11.8981     96.667     30.560  19.218320     5.4761      8.249   261.3795 1.3887e+01     6.3753      3.474      5.039     6.4278 0.0000e+00
      3.519     -0.127    11.9031     96.659     30.556  19.219625     5.4967      8.249   261.3608 1.4204e+01     6.4375      3.453      5.008     6.4296 0.0000e+00
      3.492     -0.129    11.9038     96.649     30.569  19.234030     5.5196      8.249   261.3123 1.4638e+01     6.4722      3.427      4.970     6.4322 0.0000e+00
      3.458     -0.130    11.9031     96.644     30.604  19.265686     5.5285      8.250   261.2241 1.5228e+01     6.4189      3.394      4.922     6.4364 0.0000e+00
      3.416     -0.127    11.8967     96.671     30.614  19.285385     5.6385      8.253   261.1542 1.5896e+01     6.3739      3.349      4.858     6.4424 0.0000e+00
      3.373     -0.122    11.8966     96.753     30.582  19.282030     5.8503      8.255   261.0702 1.6432e+01     6.3724      3.303      4.791     6.4469 0.0000e+00
      3.340     -0.112    11.8918     96.891     30.560  19.288535     5.9745      8.255   260.9831 1.6762e+01     6.3999      3.271      4.744     6.4558 0.0000e+00
      3.319     -0.101    11.8847     97.056     30.546  19.300654     5.9667      8.255   260.9609 1.7019e+01     6.3999      3.253      4.719     6.4721 0.0000e+00
      3.302     -0.091    11.8810     97.252     30.521  19.301779     5.8565      8.255   260.9733 1.7301e+01     6.3044      3.239      4.697     6.4946 0.0000e+00
      3.283     -0.087    11.8812     97.475     30.503  19.302139     5.6994      8.256   261.0478 1.7630e+01     6.2009      3.222      4.673     6.5215 0.0000e+00
      3.262     -0.090    11.8923     97.683     30.495  19.305024     5.6319      8.256   261.0870 1.8013e+01     6.2070      3.200      4.641     6.5555 0.0000e+00
      3.239     -0.097    11.8979     97.831     30.536  19.336671     5.6390      8.257   261.0176 1.8422e+01     6.2417      3.176      4.606     6.5962 0.0000e+00
      3.214     -0.105    11.9147     97.907     30.576  19.367785     5.6192      8.258   260.9833 1.8894e+01     6.2455      3.153      4.574     6.6217 0.0000e+00
      3.185     -0.114    11.9391     97.951     30.561  19.364222     5.5761      8.259   261.0161 1.9477e+01     6.2520      3.126      4.535     6.6397 0.0000e+00
      3.153     -0.121    11.9621     97.995     30.543  19.357001     5.5669      8.260   261.0698 2.0058e+01     6.3206      3.090      4.482     6.6539 0.0000e+00
      3.121     -0.126    11.9803     98.035     30.516  19.343872     5.5823      8.261   261.1164 2.0616e+01     6.4257      3.061      4.439     6.6592 0.0000e+00
      3.089     -0.126    11.9827     98.060     30.492  19.332290     5.5794      8.262   261.1498 2.1325e+01     6.4300      3.034      4.400     6.6712 0.0000e+00
      3.052     -0.122    11.9837     98.083     30.506  19.343770     5.5738      8.263   261.1293 2.2094e+01     6.4063      2.992      4.340     6.6817 0.0000e+00
      3.017     -0.116    11.9880     98.129     30.522  19.355878     5.5893      8.264   260.9540 2.2706e+01     6.4810      2.954      4.285     6.6858 0.0000e+00
      2.988     -0.106    11.9919     98.182     30.512  19.351886     5.6008      8.266   260.7518 2.3203e+01     6.5479      2.928      4.247     6.6927 0.0000e+00
      2.965     -0.091    11.9923     98.215     30.521  19.358906     5.5953      8.268   260.6628 2.3697e+01     6.4975      2.908      4.218     6.7001 0.0000e+00
      2.943     -0.070    11.9919     98.248     30.547  19.377359     5.5571      8.269   260.6523 2.4220e+01     6.3836      2.888      4.188     6.7028 0.0000e+00
      2.923     -0.047    11.9976     98.274     30.551  19.384799     5.4886      8.271   260.6256 2.4617e+01     6.3667      2.863      4.153     6.7070 0.0000e+00
      2.909     -0.024    12.0054     98.292     30.538  19.385466     5.4567      8.271   260.5980 2.4703e+01     6.4639      2.849      4.131     6.7122 0.0000e+00
      2.907     -0.004    12.0059     98.334     30.523  19.385426     5.4551      8.272   260.6629 2.4543e+01     6.4655      2.849      4.130     6.7121 0.0000e+00
      2.915      0.006    12.0110     98.393     30.510  19.384330     5.4188      8.272   260.7216 2.4216e+01     6.3518      2.856      4.143     6.7136 0.0000e+00
      2.930      0.003    12.0133     98.444     30.485  19.372223     5.3675      8.273   260.7055 2.3830e+01     6.3537      2.873      4.167     6.7208 0.0000e+00
      2.943     -0.013    12.0073     98.501     30.475  19.365840     5.3508      8.274   260.6405 2.3705e+01     6.4540      2.892      4.193     6.7357 0.0000e+00
      2.943     -0.039    12.0078     98.567     30.485  19.370557     5.3584      8.274   260.5376 2.4004e+01     6.5050      2.893      4.195     6.7555 0.0000e+00
      2.927     -0.069    12.0132     98.606     30.480  19.365857     5.4008      8.275   260.4940 2.4664e+01     6.4586      2.875      4.170     6.7681 0.0000e+00
      2.897     -0.095    12.0163     98.617     30.486  19.372409     5.4723      8.277   260.5440 2.5599e+01     6.3029      2.844      4.124     6.7729 0.0000e+00
      2.859     -0.111    12.0223     98.638     30.500  19.386388     5.5154      8.277   260.5397 2.6615e+01     6.2280      2.803      4.066     6.7732 0.0000e+00
      2.821     -0.113    12.0357     98.661     30.525  19.408071     5.5309      8.277   260.5277 2.7500e+01     6.2695      2.764      4.009     6.7675 0.0000e+00
      2.788     -0.106    12.0408     98.653     30.571  19.444376     5.5436      8.277   260.5703 2.8229e+01     6.2249      2.732      3.962     6.7637 0.0000e+00
      2.761     -0.096    12.0384     98.671     30.563  19.444956     5.5610      8.278   260.5389 2.8787e+01     6.1669      2.704      3.922     6.7686 0.0000e+00
      2.744     -0.089    12.0376     98.738     30.511  19.415080     5.5744      8.279   260.4924 2.9085e+01     6.2165      2.687      3.898     6.7785 0.0000e+00
      2.733     -0.088    12.0416     98.762     30.486  19.400162     5.5724      8.280   260.5235 2.9383e+01     6.2446      2.682      3.891     6.7896 0.0000e+00
      2.717     -0.092    12.0330     98.736     30.475  19.391386     5.5710      8.282   260.5714 3.0067e+01     6.1991      2.671      3.873     6.8002 0.0000e+00
      2.691     -0.097    12.0273     98.724     30.447  19.372368     5.5742      8.284   260.5556 3.1022e+01     6.1451      2.641      3.830     6.8114 0.0000e+00
      2.657     -0.097    12.0440     98.735     30.429  19.360424     5.5773      8.285   260.5046 3.2015e+01     6.1377      2.606      3.780     6.8178 0.0000e+00
      2.623     -0.087    12.0453     98.755     30.449  19.373773     5.5837      8.284   260.4706 3.3019e+01     6.1787      2.572      3.731     6.8169 0.0000e+00
      2.593     -0.067    12.0383     98.786     30.500  19.406963     5.5757      8.284   260.4887 3.3769e+01     6.1626      2.538      3.682     6.8136 0.0000e+00
      2.574     -0.042    12.0388     98.817     30.558  19.444728     5.5305      8.285   260.5512 3.3972e+01     6.1136      2.518      3.652     6.8106 0.0000e+00
      2.572     -0.025    12.0409     98.847     30.565  19.449976     5.4706      8.286   260.6241 3.3662e+01     6.0983      2.517      3.650     6.8102 0.0000e+00
      2.585     -0.022    12.0425     98.902     30.496  19.407020     5.4425      8.288   260.6817 3.3084e+01     6.1139      2.532      3.672     6.8115 0.0000e+00
      2.601     -0.032    12.0463     98.961     30.435  19.369153     5.4567      8.288   260.6456 3.2841e+01     6.1658      2.557      3.708     6.8130 0.0000e+00
      2.601     -0.051    12.0508     98.996     30.440  19.372537     5.4595      8.289   260.6177 3.3494e+01     6.1452      2.562      3.716     6.8148 0.0000e+00
      2.574     -0.075    12.0505     99.014     30.458  19.384541     5.4176      8.290   260.6032 3.4821e+01     6.1038      2.530      3.669     6.8161 0.0000e+00
      2.533     -0.098    12.0595     99.013     30.463  19.387494     5.3907      8.292   260.4700 3.6153e+01     6.1782      2.480      3.598     6.8171 0.0000e+00
      2.496     -0.112    12.0682     98.997     30.495  19.408237     5.4015      8.293   260.3834 3.7218e+01     6.2240      2.444      3.544     6.8183 0.0000e+00
      2.467     -0.114    12.0702     98.976     30.550  19.445143     5.4310      8.293   260.4172 3.8179e+01     6.1455      2.419      3.509     6.8193 0.0000e+00
      2.441     -0.107    12.0732     98.950     30.558  19.453318     5.4648      8.293   260.4477 3.9114e+01     6.0833      2.393      3.472     6.8200 0.0000e+00
      2.416     -0.096    12.0730     98.938     30.536  19.443676     5.4769      8.294   260.4078 3.9974e+01     6.1209      2.367      3.434     6.8198 0.0000e+00
      2.393     -0.085    12.0696     98.934     30.546  19.455375     5.4863      8.295   260.2788 4.0811e+01     6.1899      2.347      3.403     6.8202 0.0000e+00
      2.371     -0.074    12.0680     98.929     30.554  19.467965     5.4369      8.295   260.1790 4.1678e+01     6.2000      2.326      3.373     6.8218 0.0000e+00
      2.350     -0.065    12.0612     98.961     30.543  19.469109     5.3040      8.296   260.1471 4.2428e+01     6.1414      2.303      3.340     6.8277 0.0000e+00
      2.335     -0.062    12.0570     99.031     30.533  19.469212     5.2363      8.298   260.1513 4.2759e+01     6.1309      2.286      3.315     6.8354 0.0000e+00
      2.328     -0.067    12.0575     99.128     30.527  19.469220     5.2514      8.298   260.2299 4.2848e+01     6.2084      2.281      3.309     6.8427 0.0000e+00
      2.322     -0.077    12.0478     99.251     30.526  19.469206     5.2446      8.298   260.3229 4.3350e+01     6.2244      2.282      3.309     6.8551 0.0000e+00
      2.305     -0.089    12.0495     99.380     30.524  19.469051     5.1872      8.300   260.3297 4.4508e+01     6.1549      2.266      3.286     6.8706 0.0000e+00
      2.274     -0.100    12.0546     99.516     30.517  19.467336     5.1155      8.302   260.2257 4.6107e+01     6.1194      2.232      3.237     6.8829 0.0000e+00
      2.237     -0.107    12.0636     99.651     30.482  19.448472     5.1015      8.302   260.0980 4.7841e+01     6.1361      2.193      3.181     6.8877 0.0000e+00
      2.199     -0.109    12.0818     99.775     30.450  19.431180     5.1353      8.303   260.0764 4.9381e+01     6.1852      2.156      3.125     6.8877 0.0000e+00
      2.169     -0.107    12.0946     99.876     30.472  19.448470     5.1906      8.303   260.1366 5.0388e+01     6.2009      2.122      3.078     6.8889 0.0000e+00
      2.149     -0.103    12.1121     99.945     30.497  19.467333     5.2707      8.304   260.1377 5.0982e+01     6.1898      2.106      3.054     6.8932 0.0000e+00
      2.134     -0.103    12.1261     99.990     30.496  19.469048     5.3215      8.305   260.0895 5.1852e+01     6.2219      2.097      3.041     6.8991 0.0000e+00
      2.112     -0.106    12.1401    100.022     30.493  19.469203     5.3385      8.306   260.0701 5.3294e+01     6.2133      2.074      3.008     6.9043 0.0000e+00
      2.082     -0.113    12.1522    100.063     30.490  19.469218     5.2853      8.306   260.0750 5.5000e+01     6.1199      2.041      2.961     6.9100 0.0000e+00
      2.048     -0.120    12.1573    100.108     30.486  19.469220     5.1531      8.307   260.0626 5.6831e+01     6.0486      2.009      2.914     6.9147 0.0000e+00
      2.011     -0.124    12.1627    100.140     30.482  19.469229     5.0713      8.309   260.0070 5.8793e+01     6.1027      1.972      2.860     6.9181 0.0000e+00
      1.975     -0.123    12.1633    100.189     30.476  19.469333     5.0610      8.311   259.9189 6.0566e+01     6.1943      1.935      2.806     6.9217 0.0000e+00
      1.943     -0.119    12.1669    100.257     30.472  19.470476     5.0288      8.311   259.8576 6.1990e+01     6.1989      1.903      2.761     6.9258 0.0000e+00
      1.917     -0.114    12.1746    100.311     30.487  19.483061     4.9570      8.312   259.8687 6.3320e+01     6.1587      1.879      2.726     6.9294 0.0000e+00
      1.892     -0.109    12.1734    100.335     30.501  19.494692     4.9258      8.312   259.7952 6.4837e+01     6.1526      1.857      2.694     6.9331 0.0000e+00
      1.866     -0.103    12.1775    100.354     30.479  19.484308     4.9509      8.313   259.6572 6.6527e+01     6.1935      1.831      2.655     6.9402 0.0000e+00
      1.837     -0.098    12.1861    100.399     30.473  19.484317     4.9689      8.315   259.6624 6.8250e+01     6.2087      1.802      2.614     6.9475 0.0000e+00
      1.809     -0.092    12.1915    100.453     30.485  19.494805     4.9595      8.316   259.6858 6.9892e+01     6.1662      1.773      2.571     6.9515 0.0000e+00
      1.786     -0.087    12.1935    100.497     30.467  19.484317     4.9383      8.316   259.6822 7.1173e+01     6.1236      1.750      2.538     6.9545 0.0000e+00
      1.766     -0.083    12.1894    100.514     30.466  19.484309     4.9293      8.316   259.7042 7.2147e+01     6.1369      1.732      2.512     6.9616 0.0000e+00
      1.750     -0.081    12.1963    100.488     30.482  19.494713     4.9421      8.316   259.6943 7.3086e+01     6.1904      1.716      2.489     6.9692 0.0000e+00
      1.734     -0.085    12.2013    100.460     30.463  19.483308     4.9595      8.317   259.7338 7.4256e+01     6.1899      1.703      2.470     6.9726 0.0000e+00
      1.714     -0.094    12.2062    100.454     30.443  19.473218     4.9740      8.317   259.7527 7.5791e+01     6.1654      1.683      2.440     6.9752 0.0000e+00
      1.689     -0.107    12.2110    100.449     30.478  19.499522     4.9916      8.319   259.6647 7.7696e+01     6.2015      1.657      2.404     6.9760 0.0000e+00
      1.660     -0.120    12.2035    100.454     30.545  19.547737     5.0141      8.321   259.5294 8.0112e+01     6.2505      1.630      2.365     6.9760 0.0000e+00
      1.625     -0.129    12.1990    100.462     30.539  19.548985     5.0554      8.323   259.4070 8.2984e+01     6.2460      1.596      2.314     6.9768 0.0000e+00
      1.586     -0.133    12.2001    100.464     30.479  19.514611     5.0998      8.324   259.3895 8.6097e+01     6.1465      1.556      2.256     6.9797 0.0000e+00
      1.548     -0.133    12.1955    100.483     30.471  19.512533     5.1097      8.325   259.4042 8.8854e+01     6.1065      1.517      2.199     6.9869 0.0000e+00
      1.513     -0.131    12.1931    100.503     30.486  19.523871     5.1078      8.325   259.3267 9.1249e+01     6.2060      1.483      2.150     6.9972 0.0000e+00
      1.483     -0.127    12.1934    100.505     30.486  19.524901     5.0852      8.326   259.2269 9.3581e+01     6.2218      1.454      2.108     7.0068 0.0000e+00
      1.455     -0.124    12.1883    100.518     30.485  19.524985     5.0287      8.328   259.2307 9.5910e+01     6.1611      1.427      2.069     7.0128 0.0000e+00
      1.425     -0.124    12.1918    100.544     30.485  19.524890     5.0067      8.329   259.2863 9.8499e+01     6.1901      1.398      2.028     7.0162 0.0000e+00
      1.393     -0.125    12.1949    100.559     30.484  19.523747     5.0188      8.330   259.2972 1.0121e+02     6.2646      1.367      1.981     7.0190 0.0000e+00
      1.360     -0.125    12.1918    100.561     30.466  19.511162     5.0161      8.331   259.1905 1.0400e+02     6.2769      1.335      1.936     7.0207 0.0000e+00
      1.326     -0.122    12.1931    100.557     30.449  19.499530     4.9996      8.332   259.0282 1.0725e+02     6.2023      1.301      1.888     7.0218 0.0000e+00
      1.291     -0.115    12.1982    100.550     30.465  19.509915     4.9865      8.332   259.0547 1.1061e+02     6.1139      1.265      1.836     7.0225 0.0000e+00
      1.260     -0.106    12.1998    100.545     30.465  19.509916     4.9982      8.333   259.2528 1.1314e+02     6.1308      1.231      1.787     7.0215 0.0000e+00
      1.235     -0.100    12.2000    100.540     30.447  19.499551     5.0077      8.333   259.4446 1.1513e+02     6.1666      1.209      1.753     7.0190 0.0000e+00
      1.217     -0.098    12.2010    100.534     30.463  19.511390     4.9358      8.333   259.5669 1.1713e+02     6.1029      1.194      1.732     7.0169 0.0000e+00
      1.198     -0.101    12.1985    100.544     30.483  19.526261     4.8200      8.334   259.6133 1.1937e+02     6.1124      1.176      1.705     7.0180 0.0000e+00
      1.175     -0.107    12.1980    100.563     30.520  19.552556     4.7645      8.334   259.5755 1.2229e+02     6.1787      1.154      1.675     7.0195 0.0000e+00
      1.147     -0.116    12.1978    100.567     30.552  19.575725     4.7556      8.335   259.4542 1.2649e+02     6.1524      1.127      1.635     7.0205 0.0000e+00
      1.112     -0.126    12.1941    100.566     30.510  19.552783     4.7118      8.336   259.2647 1.3160e+02     6.1365      1.090      1.581     7.0232 0.0000e+00
      1.075     -0.134    12.1953    100.579     30.467  19.528775     4.6186      8.336   259.0910 1.3652e+02     6.1233      1.053      1.527     7.0267 0.0000e+00
      1.038     -0.139    12.1983    100.608     30.478  19.539065     4.5604      8.337   259.0754 1.4126e+02     6.0956      1.018      1.476     7.0295 0.0000e+00
      1.003     -0.142    12.1968    100.651     30.492  19.550394     4.5569      8.338   259.1621 1.4568e+02     6.1433      0.983      1.425     7.0340 0.0000e+00
      0.968     -0.144    12.1927    100.696     30.471  19.538951     4.5264      8.340   259.1921 1.5094e+02     6.1873      0.949      1.377     7.0417 0.0000e+00
      0.934     -0.144    12.1930    100.722     30.452  19.527518     4.4593      8.341   259.1811 1.5674e+02     6.1484      0.919      1.332     7.0487 0.0000e+00
      0.894     -0.144    12.1945    100.743     30.470  19.538959     4.4197      8.341   259.1147 1.6121e+02     6.0836      0.879      1.273     7.0538 0.0000e+00
      0.853     -0.146    12.1988    100.773     30.488  19.550487     4.4046      8.342   258.9915 1.6514e+02     6.0873      0.833      1.209     7.0574 0.0000e+00
      0.817     -0.147    12.2055    100.806     30.473  19.540093     4.3185      8.343   258.9821 1.6899e+02     6.1587      0.799      1.159     7.0606 0.0000e+00
      0.784     -0.144    12.2066    100.828     30.474  19.540102     4.1527      8.345   259.0010 1.7472e+02     6.1613      0.771      1.117     7.0623 0.0000e+00
      0.746     -0.136    12.2083    100.829     30.491  19.550592     4.0478      8.346   258.9623 1.8251e+02     6.1185      0.735      1.066     7.0617 0.0000e+00
      0.704     -0.126    12.2133    100.872     30.474  19.540113     4.0408      8.346   258.9438 1.8887e+02     6.1536      0.689      1.000     7.0608 0.0000e+00
      0.668     -0.116    12.2179    100.993     30.473  19.540208     4.0515      8.346   258.9493 1.9487e+02     6.1765      0.649      0.943     7.0589 0.0000e+00
      0.644     -0.107    12.2221    101.023     30.490  19.551745     4.0440      8.347   258.9437 2.0153e+02     6.1224      0.630      0.913     7.0579 0.0000e+00
      0.625     -0.100    12.2207    100.946     30.491  19.552803     4.0326      8.348   258.8761 2.0794e+02     6.0803      0.615      0.892     7.0583 0.0000e+00
      0.605     -0.094    12.2166    100.915     30.491  19.553002     4.0307      8.349   258.8200 2.1507e+02     6.0763      0.593      0.861     7.0587 0.0000e+00
      0.582     -0.090    12.2465    100.893     30.491  19.554154     4.0215      8.349   258.7820 2.2066e+02     6.0740      0.571      0.828     7.0600 0.0000e+00
      0.556     -0.089    12.2538    100.904     30.510  19.566730     3.8964      8.349   258.6741 2.2929e+02     6.0862      0.547      0.793     7.0614 0.0000e+00
      0.528     -0.093    12.2226    100.902     30.528  19.578258     3.6576      8.350   258.4616 2.4033e+02     6.1216      0.517      0.749     7.0618 0.0000e+00
      0.505     -0.100    12.2364    100.827     30.509  19.566730     3.5231      8.350   258.2778 2.4981e+02     6.1606      0.492      0.713     7.0623 0.0000e+00
      0.489     -0.107    12.2221    100.759     30.488  19.554155     3.5099      8.350   258.2580 2.5149e+02     6.2168      0.482      0.697     7.0632 0.0000e+00
      0.468     -0.108    12.2265    100.678     30.485  19.553012     3.4564      8.350   258.3088 2.4420e+02     6.2200      0.467      0.677     7.0644 0.0000e+00
      0.432     -0.098    12.2380    100.698     30.483  19.552917     3.3434      8.352   258.3759 2.4462e+02     6.1653      0.426      0.618     7.0650 0.0000e+00
      0.388     -0.079    12.2094    100.829     30.483  19.553002     3.2744      8.353   258.4668 2.5346e+02     6.1362      0.375      0.544     7.0654 0.0000e+00
      0.356     -0.056    12.2178    100.838     30.483  19.554051     3.2724      8.353   258.4614 2.5928e+02     6.1416      0.341      0.494     7.0667 0.0000e+00
      0.348     -0.034    12.1923    100.735     30.498  19.565587     3.1942      8.353   258.2244 2.5462e+02     6.1958      0.333      0.482     7.0685 0.0000e+00
      0.359     -0.021    12.1907    100.743     30.496  19.565692     3.0027      8.353   257.8394 2.4505e+02     6.2107      0.351      0.508     7.0700 0.0000e+00
      0.377     -0.020    12.2277    100.870     30.479  19.555316     2.8716      8.353   257.6782 2.4083e+02     6.1508      0.372      0.539     7.0710 0.0000e+00
      0.387     -0.028    12.2255    100.974     30.496  19.566939     2.8573      8.354   257.9092 2.4476e+02     6.1208      0.387      0.561     7.0722 0.0000e+00
      0.376     -0.038    12.1954    101.019     30.515  19.579419     2.8478      8.355   257.9656 2.5522e+02     6.1223      0.382      0.554     7.0745 0.0000e+00
      0.339     -0.052    12.1969    101.006     30.513  19.579409     2.7975      8.355   257.3279 2.7025e+02     6.0994      0.332      0.482     7.0772 0.0000e+00
      0.303     -0.073    12.2245    100.992     30.491  19.566824     2.7570      8.355   256.5644 2.8584e+02     6.0833      0.285      0.413     7.0790 0.0000e+00
      0.293     -0.098    12.2326    101.017     30.471  19.554059     2.7406      8.355   256.2198 2.8664e+02     6.1325      0.279      0.405     7.0793 0.0000e+00
      0.299     -0.122    12.2415    101.001     30.467  19.551868     2.7323      8.355   256.0005 2.7177e+02     6.2162      0.301      0.437     7.0796 0.0000e+00
      0.284     -0.142    12.2348    100.927     30.449  19.540341     2.7146      8.355   255.7208 2.7645e+02     6.2415      0.298      0.432     7.0819 0.0000e+00
      0.229     -0.162    12.2285    100.962     30.451  19.541484     2.6848      8.356   255.4191 3.0000e+02     6.1653      0.230      0.333     7.0847 0.0000e+00
      0.154     -0.178    12.2374    101.109     30.489  19.565691     2.6802      8.357   255.1915 3.0239e+02     6.1145      0.144      0.209     7.0855 0.0000e+00
      0.090     -0.180    12.2397    101.124     30.510  19.579419     2.7002      8.358   255.1203 2.8721e+02     6.1736      0.083      0.120     7.0852 0.0000e+00
      0.043     -0.162    12.2180    101.020     30.513  19.580668     2.6692      8.359   255.0733 2.8728e+02     6.2312      0.038      0.055     7.0850 0.0000e+00
      0.009     -0.133    12.2171    100.958     30.513  19.580791     2.5714      8.359   254.8827 3.0128e+02     6.2309      0.004      0.006     7.0851 0.0000e+00
     -0.014     -0.113    12.2589    100.934     30.510  19.580906     2.5083      8.359   254.7084 3.1462e+02     6.1699     -0.017     -0.024     7.0856 0.0000e+00
     -0.027     -0.110    12.2547    100.903     30.505  19.582057     2.5053      8.358   255.2886 3.3120e+02     6.1080     -0.028     -0.042     7.0855 0.0000e+00
     -0.038     -0.125    12.2298    100.878     30.516  19.594717     2.4432      8.356   255.6173 4.0775e+02     6.0979     -0.031     -0.046     7.0846 0.0000e+00
     -0.064     -0.160    12.2281    100.902     30.531  19.607173     2.2991      8.356   254.1227 5.8058e+02     6.0811     -0.053     -0.076     7.0837 0.0000e+00
     -0.111     -0.210    12.2255    100.922     30.527  19.605871     2.2111      8.354   252.1018 7.3148e+02     6.1439     -0.109     -0.157     7.0846 0.0000e+00
     -0.170     -0.264    12.2203    100.888     30.478  19.578971     2.1699      8.351   248.0461 7.8231e+02     6.8914     -0.163     -0.236     7.0939 0.0000e+00
     -0.244     -0.308    12.2072    100.840     29.610  19.028327     1.6759      8.348   242.4271 7.8986e+02    14.5386     -0.227     -0.328     7.1068 0.0000e+00
     -0.342     -0.327    12.2148    100.802     24.184  15.547481     0.7329      8.346   240.1737 7.8531e+02    28.4415     -0.334     -0.484     7.1095 0.0000e+00
     -0.450     -0.316    12.2206    100.732     13.985   8.994018     0.1980      8.347   240.6766 7.4238e+02    35.8928     -0.444     -0.644     7.1091 0.0000e+00
     -0.554     -0.279    12.2104    100.613      6.304   4.055284     0.1438      8.349   241.9681 6.5131e+02    35.6986     -0.548     -0.794     7.1152 0.0000e+00
     -0.637     -0.224    12.1997    100.467      3.844   2.472999     0.2110      8.349   242.8846 5.5866e+02    26.4004     -0.644     -0.933     7.1282 0.0000e+00
     -0.679     -0.159    12.1913    100.227      3.249   2.090033     0.3274      8.351   242.5504 4.9810e+02     9.2095     -0.678     -0.982     7.1475 0.0000e+00
     -0.689     -0.096    12.1825     99.892      2.849   1.832050     0.3702      8.354   242.2295 4.3135e+02    -0.1963     -0.677     -0.980     7.1625 0.0000e+00
     -0.690     -0.046    12.1596     99.530      3.727   2.394348     0.3708      8.356   242.4464 3.3626e+02    -1.0033     -0.678     -0.982     7.1687 0.0000e+00
     -0.689     -0.015    12.1497     99.139      9.604   6.164666     0.3760      8.356   242.4202 2.5970e+02    -1.0259     -0.676     -0.980     7.1703 0.0000e+00
     -0.689     -0.002    12.1216     98.750     19.884  12.759177     0.2584      8.356   241.9120 2.2192e+02    -0.8463     -0.676     -0.980     7.1672 0.0000e+00
     -0.689 -8.879e-09    12.0755     98.396     27.654  17.743598     0.0471      8.356   241.7229 1.9818e+02    -0.4033     -0.676     -0.980     7.1586 0.0000e+00
     -0.689 -9.767e-08    12.0431     97.953     30.629  19.656109    -0.0555      8.356   242.0262 1.7693e+02    -0.1094     -0.676     -0.981     7.1420 0.0000e+00
     -0.689 -9.841e-08    11.9989     97.283     31.405  20.160992    -0.0667      8.356   242.2238 1.6690e+02    -0.0602     -0.676     -0.980     7.1132 0.0000e+00
     -0.689 -1.775e-08    11.9597     96.886     31.514  20.234212    -0.0717      8.356   242.2188 1.6621e+02    -0.0477     -0.676     -0.980     7.0837 0.0000e+00
     -0.689 -9.990e-29    11.9198 -9.990e-29 -9.990e-29 -9.990e-29 -9.990e-29 -9.990e-29 -9.990e-29 1.6267e+02 -9.990e-29     -0.676     -0.980     7.0740 0.0000e+00
     -0.689 -9.990e-29    11.8853 -9.990e-29 -9.990e-29 -9.990e-29 -9.990e-29 -9.990e-29 -9.990e-29 1.5648e+02 -9.990e-29     -0.676     -0.980     7.0837 0.0000e+00
     -0.689 -9.990e-29    11.7742 -9.990e-29 -9.990e-29 -9.990e-29 -9.990e-29 -9.990e-29 -9.990e-29 1.5223e+02 -9.990e-29     -0.676     -0.980     7.0991 0.0000e+00
     -0.689 -9.990e-29    11.6700 -9.990e-29 -9.990e-29 -9.990e-29 -9.990e-29 -9.990e-29 -9.990e-29 1.5073e+02 -9.990e-29     -0.676     -0.980     7.1071 0.0000e+00
