* Sea-Bird SBE19plus  Data File:
* FileName = C:\R\Reservoirs\Data\DataNotYetUploadedToEDI\Raw_CTD\RawDownloads\031025_fcr50_S7809_0005.hex
* Software version 2.8.0.119
* Temperature SN = 7809
* Conductivity SN = 7809
* System UpLoad Time = Mar 13 2025 14:43:03
* <ApplicationData>
* <Seaterm232>
* <SoftwareVersion>2.8.0.119</SoftwareVersion>
* <BuildDate>07-Nov-2018</BuildDate>
* </Seaterm232>
* </ApplicationData>
* <InstrumentState>
* <HardwareData DeviceType='SBE19plus' SerialNumber='01907809'>
*
*    <Manufacturer>Sea-Bird Electronics, Inc.</Manufacturer>
*
*    <FirmwareVersion>3.1.8</FirmwareVersion>
*
*    <FirmwareDate>Mar  9 2016 16:22:29</FirmwareDate>
*
*    <CommandSetVersion>1.4</CommandSetVersion>
*
*    <PCBAssembly PCBSerialNum='120721' AssemblyNum='41054J'/>
*
*    <PCBAssembly PCBSerialNum='120715' AssemblyNum='41967A'/>
*
*    <PCBAssembly PCBSerialNum='116699' AssemblyNum='41606'/>
*
*    <PCBAssembly PCBSerialNum='120719' AssemblyNum='41059D'/>
*
*    <MfgDate>28-Apr-2017</MfgDate>
*
*    <InternalSensors>
*
*       <Sensor id='Main Temperature'>
*
*          <type>temperature0</type>
*
*          <SerialNumber>01907809</SerialNumber>
*
*       </Sensor>
*
*       <Sensor id='Main Conductivity'>
*
*          <type>conductivity-0</type>
*
*          <SerialNumber>01907809</SerialNumber>
*
*       </Sensor>
*
*       <Sensor id='Main Pressure'>
*
*          <type>strain-0</type>
*
*          <SerialNumber>10586018</SerialNumber>
*
*       </Sensor>
*
*    </InternalSensors>
*
*    <ExternalSensors>
*
*       <Sensor id='volt 0'>
*
*          <type>pH</type>
*
*          <SerialNumber>27-0363</SerialNumber>
*
*       </Sensor>
*
*       <Sensor id='volt 1'>
*
*          <type>ORP</type>
*
*          <SerialNumber>27-0363</SerialNumber>
*
*       </Sensor>
*
*       <Sensor id='volt 2'>
*
*          <type>OXY</type>
*
*          <SerialNumber>43-0434</SerialNumber>
*
*       </Sensor>
*
*       <Sensor id='volt 3'>
*
*          <type>PAR</type>
*
*          <SerialNumber>1122</SerialNumber>
*
*       </Sensor>
*
*       <Sensor id='volt 4'>
*
*          <type>ECO AFL/FL</type>
*
*          <SerialNumber>FLNTURT-2496</SerialNumber>
*
*       </Sensor>
*
*       <Sensor id='volt 5'>
*
*          <type>ECO-NTU</type>
*
*          <SerialNumber>FLNTURT-2496</SerialNumber>
*
*       </Sensor>
*
*       <Sensor id='serial'>
*
*          <type>not assigned</type>
*
*          <SerialNumber>not assigned</SerialNumber>
*
*       </Sensor>
*
*    </ExternalSensors>
*
* </HardwareData>
* <StatusData DeviceType='SBE19plus' SerialNumber='01907809'>
*
*    <DateTime>2025-03-13T14:40:41</DateTime>
*
*    <LoggingState>not logging</LoggingState>
*
*    <EventSummary numEvents='0'/>
*
*    <Power>
*
*       <vMain>13.0</vMain>
*
*       <vLith>8.3</vLith>
*
*       <iMain>63.1</iMain>
*
*       <iPump>63.3</iPump>
*
*       <iExt01>19.8</iExt01>
*
*       <iExt2345>36.3</iExt2345>
*
*    </Power>
*
*    <MemorySummary>
*
*       <Bytes>122429</Bytes>
*
*       <Samples>5323</Samples>
*
*       <SamplesFree>2855465</SamplesFree>
*
*       <SampleLength>23</SampleLength>
*
*       <Profiles>6</Profiles>
*
*    </MemorySummary>
*
* </StatusData>
* <ConfigurationData DeviceType='SBE19plus' SerialNumber='01907809'>
*
*    <ProfileMode>
*
*       <ScansToAverage>1</ScansToAverage>
*
*       <MinimumCondFreq>0</MinimumCondFreq>
*
*       <PumpDelay>45</PumpDelay>
*
*       <AutoRun>no</AutoRun>
*
*       <IgnoreSwitch>no</IgnoreSwitch>
*
*    </ProfileMode>
*
*    <Battery>
*
*       <Type>alkaline</Type>
*
*       <CutOff>7.5</CutOff>
*
*    </Battery>
*
*    <DataChannels>
*
*       <ExtVolt0>yes</ExtVolt0>
*
*       <ExtVolt1>yes</ExtVolt1>
*
*       <ExtVolt2>yes</ExtVolt2>
*
*       <ExtVolt3>yes</ExtVolt3>
*
*       <ExtVolt4>yes</ExtVolt4>
*
*       <ExtVolt5>yes</ExtVolt5>
*
*       <SBE38>no</SBE38>
*
*       <WETLABS>no</WETLABS>
*
*       <OPTODE>no</OPTODE>
*
*       <SBE63>no</SBE63>
*
*       <SeaFET>no</SeaFET>
*
*       <GTD>no</GTD>
*
*    </DataChannels>
*
*    <EchoCharacters>yes</EchoCharacters>
*
*    <OutputExecutedTag>yes</OutputExecutedTag>
*
*    <OutputFormat>raw HEX</OutputFormat>
*
* </ConfigurationData>
* <CalibrationCoefficients DeviceType='SBE19plus' SerialNumber='01907809'>
*
*    <Calibration format='TEMP1' id='Main Temperature'>
*
*       <SerialNum>01907809</SerialNum>
*
*       <CalDate>31-Jan-23</CalDate>
*
*       <TA0>1.218232e-03</TA0>
*
*       <TA1>2.815090e-04</TA1>
*
*       <TA2>-1.578887e-06</TA2>
*
*       <TA3>1.972343e-07</TA3>
*
*       <TOFFSET>0.000000e+00</TOFFSET>
*
*    </Calibration>
*
*    <Calibration format='WBCOND0' id='Main Conductivity'>
*
*       <SerialNum>01907809</SerialNum>
*
*       <CalDate>31-Jan-23</CalDate>
*
*       <G>-1.005652e+00</G>
*
*       <H>1.267963e-01</H>
*
*       <I>-1.561708e-04</I>
*
*       <J>2.645944e-05</J>
*
*       <CPCOR>-9.570000e-08</CPCOR>
*
*       <CTCOR>3.250000e-06</CTCOR>
*
*       <CSLOPE>1.000000e+00</CSLOPE>
*
*    </Calibration>
*
*    <Calibration format='STRAIN0' id='Main Pressure'>
*
*       <SerialNum>10586018</SerialNum>
*
*       <CalDate>20-Jan-23</CalDate>
*
*       <PA0>4.416439e-02</PA0>
*
*       <PA1>4.850502e-04</PA1>
*
*       <PA2>-3.090426e-12</PA2>
*
*       <PTCA0>5.254757e+05</PTCA0>
*
*       <PTCA1>1.050255e+01</PTCA1>
*
*       <PTCA2>-2.922435e-01</PTCA2>
*
*       <PTCB0>2.516687e+01</PTCB0>
*
*       <PTCB1>3.750000e-04</PTCB1>
*
*       <PTCB2>0.000000e+00</PTCB2>
*
*       <PTEMPA0>-5.470820e+01</PTEMPA0>
*
*       <PTEMPA1>5.485421e+01</PTEMPA1>
*
*       <PTEMPA2>-3.446578e-01</PTEMPA2>
*
*       <POFFSET>8.500000e-01</POFFSET>
*
*       <PRANGE>1.600000e+02</PRANGE>
*
*    </Calibration>
*
*    <Calibration format='VOLT0' id='Volt 0'>
*
*       <OFFSET>-4.920000e-02</OFFSET>
*
*       <SLOPE>1.248122e+00</SLOPE>
*
*    </Calibration>
*
*    <Calibration format='VOLT0' id='Volt 1'>
*
*       <OFFSET>-4.784000e-02</OFFSET>
*
*       <SLOPE>1.248871e+00</SLOPE>
*
*    </Calibration>
*
*    <Calibration format='VOLT0' id='Volt 2'>
*
*       <OFFSET>-4.864632e-02</OFFSET>
*
*       <SLOPE>1.248714e+00</SLOPE>
*
*    </Calibration>
*
*    <Calibration format='VOLT0' id='Volt 3'>
*
*       <OFFSET>-4.743790e-02</OFFSET>
*
*       <SLOPE>1.248571e+00</SLOPE>
*
*    </Calibration>
*
*    <Calibration format='VOLT0' id='Volt 4'>
*
*       <OFFSET>-4.671263e-02</OFFSET>
*
*       <SLOPE>1.248951e+00</SLOPE>
*
*    </Calibration>
*
*    <Calibration format='VOLT0' id='Volt 5'>
*
*       <OFFSET>-4.871053e-02</OFFSET>
*
*       <SLOPE>1.249136e+00</SLOPE>
*
*    </Calibration>
*
*    <Calibration format='FREQ0' id='external frequency channel'>
*
*       <EXTFREQSF>1.000014e+00</EXTFREQSF>
*
*    </Calibration>
*
* </CalibrationCoefficients>
* <EventCounters DeviceType='SBE19plus' SerialNumber='01907809'>
*
*    <EventSummary numEvents='0'/>
*
* </EventCounters></InstrumentState>
* <Headers>
*
* cast   5 10 Mar 2025 13:39:22 samples 3227 to 4155, avg = 1, stop = mag switch
*
# nquan = 15
# nvalues = 929                         
# units = specified
# name 0 = depFM: Depth [fresh water, m]
# name 1 = dz/dtM: Descent Rate [m/s]
# name 2 = sbeox0Mg/L: Oxygen, SBE 43 [mg/l]
# name 3 = sbeox0PS: Oxygen, SBE 43 [% saturation]
# name 4 = specc: Specific Conductance [uS/cm]
# name 5 = c0uS/cm: Conductivity [uS/cm]
# name 6 = flECO-AFL: Fluorescence, WET Labs ECO-AFL/FL [mg/m^3]
# name 7 = ph: pH
# name 8 = orp: Oxidation Reduction Potential [mV]
# name 9 = par/sat/log: PAR/Logarithmic, Satlantic
# name 10 = turbWETntu0: Turbidity, WET Labs ECO [NTU]
# name 11 = prdM: Pressure, Strain Gauge [db]
# name 12 = prdE: Pressure, Strain Gauge [psi]
# name 13 = tv290C: Temperature [ITS-90, deg C]
# name 14 = flag:  0.000e+00
# span 0 =     -0.693,      5.665       
# span 1 =     -0.317,      0.213       
# span 2 =     8.3171,    13.1328       
# span 3 =     69.294,    108.749       
# span 4 =      2.835,     32.039       
# span 5 =   1.832856,  20.050578       
# span 6 =    -0.2760,     6.8289       
# span 7 =      8.204,      8.722       
# span 8 =   222.7146,   365.5627       
# span 9 = 1.9540e+00, 8.9222e+02       
# span 10 =    -0.2489,   193.3030      
# span 11 =     -0.681,      5.556      
# span 12 =     -0.987,      8.058      
# span 13 =     6.2508,     7.4924      
# span 14 = 0.0000e+00, 0.0000e+00      
# interval = seconds: 0.25
# start_time = Mar 10 2025 13:39:22 [Instrument's time stamp, header]
# bad_flag = -9.990e-29
# <Sensors count="9" >
#   <sensor Channel="1" >
#     <!-- Count, Temperature -->
#     <TemperatureSensor SensorID="58" >
#       <SerialNumber>7809</SerialNumber>
#       <CalibrationDate>31-Jan-23</CalibrationDate>
#       <A0>1.21823180e-003</A0>
#       <A1>2.81508993e-004</A1>
#       <A2>-1.57888696e-006</A2>
#       <A3>1.97234302e-007</A3>
#       <Slope>1.00000000</Slope>
#       <Offset>0.0000</Offset>
#     </TemperatureSensor>
#   </sensor>
#   <sensor Channel="2" >
#     <!-- Frequency 0, Conductivity -->
#     <ConductivitySensor SensorID="3" >
#       <SerialNumber>7809</SerialNumber>
#       <CalibrationDate>31-Jan-23</CalibrationDate>
#       <UseG_J>1</UseG_J>
#       <!-- Cell const and series R are applicable only for wide range sensors. -->
#       <SeriesR>0.0000</SeriesR>
#       <CellConst>2000.0000</CellConst>
#       <ConductivityType>0</ConductivityType>
#       <Coefficients equation="0" >
#         <A>0.00000000e+000</A>
#         <B>0.00000000e+000</B>
#         <C>0.00000000e+000</C>
#         <D>0.00000000e+000</D>
#         <M>0.0</M>
#         <CPcor>-9.57000000e-008</CPcor>
#       </Coefficients>
#       <Coefficients equation="1" >
#         <G>-1.00565232e+000</G>
#         <H>1.26796307e-001</H>
#         <I>-1.56170788e-004</I>
#         <J>2.64594368e-005</J>
#         <CPcor>-9.57000000e-008</CPcor>
#         <CTcor>3.2500e-006</CTcor>
#         <!-- WBOTC not applicable unless ConductivityType = 1. -->
#         <WBOTC>0.00000000e+000</WBOTC>
#       </Coefficients>
#       <Slope>1.00000000</Slope>
#       <Offset>0.00000</Offset>
#     </ConductivitySensor>
#   </sensor>
#   <sensor Channel="3" >
#     <!-- Count, Pressure, Strain Gauge -->
#     <PressureSensor SensorID="46" >
#       <SerialNumber>7809</SerialNumber>
#       <CalibrationDate>20-Jan-23</CalibrationDate>
#       <PA0>4.41643944e-002</PA0>
#       <PA1>4.85050239e-004</PA1>
#       <PA2>-3.09042623e-012</PA2>
#       <PTEMPA0>-5.47081996e+001</PTEMPA0>
#       <PTEMPA1>5.48542136e+001</PTEMPA1>
#       <PTEMPA2>-3.44657813e-001</PTEMPA2>
#       <PTCA0>5.25475731e+005</PTCA0>
#       <PTCA1>1.05025484e+001</PTCA1>
#       <PTCA2>-2.92243463e-001</PTCA2>
#       <PTCB0>2.51668750e+001</PTCB0>
#       <PTCB1>3.75000000e-004</PTCB1>
#       <PTCB2>0.00000000e+000</PTCB2>
#       <Offset>0.000000</Offset>
#     </PressureSensor>
#   </sensor>
#   <sensor Channel="4" >
#     <!-- A/D voltage 0, Oxygen, SBE 43 -->
#     <OxygenSensor SensorID="38" >
#       <SerialNumber>0434</SerialNumber>
#       <CalibrationDate>18-Feb-23</CalibrationDate>
#       <Use2007Equation>1</Use2007Equation>
#       <CalibrationCoefficients equation="0" >
#         <!-- Coefficients for Owens-Millard equation. -->
#         <Boc>0.0000</Boc>
#         <Soc>0.0000e+000</Soc>
#         <offset>0.0000</offset>
#         <Pcor>0.00e+000</Pcor>
#         <Tcor>0.0000</Tcor>
#         <Tau>0.0</Tau>
#       </CalibrationCoefficients>
#       <CalibrationCoefficients equation="1" >
#         <!-- Coefficients for Sea-Bird equation - SBE calibration in 2007 and later. -->
#         <Soc>5.1878e-001</Soc>
#         <offset>-0.5046</offset>
#         <A>-4.2788e-003</A>
#         <B> 1.5372e-004</B>
#         <C>-2.1853e-006</C>
#         <D0> 2.5826e+000</D0>
#         <D1> 1.92634e-004</D1>
#         <D2>-4.64803e-002</D2>
#         <E> 3.6000e-002</E>
#         <Tau20> 0.9900</Tau20>
#         <H1>-3.3000e-002</H1>
#         <H2> 5.0000e+003</H2>
#         <H3> 1.4500e+003</H3>
#       </CalibrationCoefficients>
#     </OxygenSensor>
#   </sensor>
#   <sensor Channel="5" >
#     <!-- A/D voltage 1, PAR/Logarithmic, Satlantic -->
#     <PARLog_SatlanticSensor SensorID="76" >
#       <SerialNumber>1122</SerialNumber>
#       <CalibrationDate>08-Sep-2021</CalibrationDate>
#       <a0>9.6751e-001</a0>
#       <a1>8.0992e-001</a1>
#       <Im>1.3589e+000</Im>
#       <Multiplier>1.0000e+000</Multiplier>
#     </PARLog_SatlanticSensor>
#   </sensor>
#   <sensor Channel="6" >
#     <!-- A/D voltage 2, pH -->
#     <pH_Sensor SensorID="43" >
#       <SerialNumber>0363</SerialNumber>
#       <CalibrationDate>28-Feb-23</CalibrationDate>
#       <Slope>4.7364</Slope>
#       <Offset>2.5433</Offset>
#     </pH_Sensor>
#   </sensor>
#   <sensor Channel="7" >
#     <!-- A/D voltage 3, Oxidation Reduction Potential -->
#     <OxidationReductionPotentialSensor SensorID="41" >
#       <SerialNumber>0363</SerialNumber>
#       <CalibrationDate>28-Feb-23</CalibrationDate>
#       <B>2.499480</B>
#       <M>-0.496195</M>
#       <Offset>0.0</Offset>
#     </OxidationReductionPotentialSensor>
#   </sensor>
#   <sensor Channel="8" >
#     <!-- A/D voltage 4, Fluorometer, WET Labs ECO-AFL/FL -->
#     <FluoroWetlabECO_AFL_FL_Sensor SensorID="20" >
#       <SerialNumber>FLNTURT-2496</SerialNumber>
#       <CalibrationDate>02-Sep-2021</CalibrationDate>
#       <ScaleFactor>4.80000000e+001</ScaleFactor>
#       <!-- Dark output -->
#       <Vblank>0.0550</Vblank>
#     </FluoroWetlabECO_AFL_FL_Sensor>
#   </sensor>
#   <sensor Channel="9" >
#     <!-- A/D voltage 5, Turbidity Meter, WET Labs, ECO-NTU -->
#     <TurbidityMeter SensorID="67" >
#       <SerialNumber>FLNTURT--2496</SerialNumber>
#       <CalibrationDate>02-Sep-2021</CalibrationDate>
#       <ScaleFactor>197.000000</ScaleFactor>
#       <!-- Dark output -->
#       <DarkVoltage>0.070000</DarkVoltage>
#     </TurbidityMeter>
#   </sensor>
# </Sensors>
# datcnv_date = Mar 13 2025 14:54:46, 7.26.7.129 [datcnv_vars = 14]
# datcnv_in = C:\R\Reservoirs\Data\DataNotYetUploadedToEDI\Raw_CTD\RawDownloads\031025_fcr40_S7809005.hex C:\R\Reservoirs\Data\DataNotYetUploadedToEDI\Raw_CTD\RawDownloads\SBE19plusV2_7809_start20230701.xmlcon
# datcnv_skipover = 0
# datcnv_ox_hysteresis_correction = yes
# datcnv_ox_tau_correction = yes
# filter_date = Mar 13 2025 14:55:12, 7.26.7.129
# filter_in = C:\R\Reservoirs\Data\DataNotYetUploadedToEDI\Raw_CTD\RawDownloads\031025_fcr40_S7809005.cnv
# filter_low_pass_tc_A = 0.030
# filter_low_pass_tc_B = 0.150
# filter_low_pass_A_vars = sbeox0Mg/L prdM prdE tv290C
# filter_low_pass_B_vars = depFM dz/dtM sbeox0PS specc c0uS/cm flECO-AFL ph orp par/sat/log turbWETntu0
# alignctd_date = Mar 13 2025 14:55:58, 7.26.7.129
# alignctd_in = C:\R\Reservoirs\Data\DataNotYetUploadedToEDI\Raw_CTD\RawDownloads\031025_fcr40_S7809005.cnv
# alignctd_adv = dz/dtM 1.000, sbeox0PS 1.000, specc 1.000, c0uS/cm 1.000, flECO-AFL 1.000, ph 1.000, orp 1.000, turbWETntu0 1.000                                                                                                   
# file_type = ascii
*END*
     -0.690      0.019    10.5472     87.831      8.357   5.393262    -0.1362      8.422   365.5627 4.0570e+02     2.0739     -0.678     -0.982     7.2424 0.0000e+00
     -0.690      0.041    10.5613     87.957     14.029   9.062266    -0.1511      8.435   239.3067 3.8932e+02     2.0430     -0.676     -0.981     7.2424 0.0000e+00
     -0.688      0.063    10.5706     88.055     16.679  10.790317    -0.1375      8.390   226.4005 3.9698e+02     2.4790     -0.679     -0.984     7.2429 0.0000e+00
     -0.673      0.078    10.5791     88.138     17.295  11.206005     0.1786      8.356   224.6578 4.3068e+02     3.3490     -0.674     -0.978     7.2427 0.0000e+00
     -0.633      0.088    10.5976     88.194     18.399  11.933592     0.7750      8.332   224.1728 4.5665e+02     3.7829     -0.622     -0.903     7.2442 0.0000e+00
     -0.587      0.091    10.6046     88.236     22.465  14.580654     1.0971      8.315   225.9571 4.6785e+02     3.7972     -0.565     -0.819     7.2790 0.0000e+00
     -0.561      0.086    10.5967     88.326     28.088  18.236850     1.1096      8.303   227.6481 4.7675e+02     3.8295     -0.544     -0.789     7.3465 0.0000e+00
     -0.551      0.077    10.5939     88.453     30.708  19.944366     1.1105      8.293   225.6026 4.8356e+02     3.7979     -0.540     -0.784     7.3995 0.0000e+00
     -0.543      0.068    10.5942     88.602     30.803  20.011953     1.1152      8.283   223.4231 4.9121e+02     3.6536     -0.535     -0.776     7.4297 0.0000e+00
     -0.533      0.067    10.5875     88.812     30.689  19.941693     1.1007      8.273   222.9779 5.1376e+02     3.5540     -0.523     -0.759     7.4488 0.0000e+00
     -0.519      0.077    10.5974     89.069     30.653  19.919096     1.0926      8.268   222.7146 6.1610e+02     3.5150     -0.513     -0.744     7.4616 0.0000e+00
     -0.495      0.097    10.6119     89.277     30.671  19.928943     1.1257      8.267   225.1445 7.8070e+02     3.5245     -0.491     -0.711     7.4730 0.0000e+00
     -0.465      0.127    10.6222     89.356     30.684  19.933942     1.1765      8.262   228.3524 8.6610e+02     3.5996     -0.454     -0.659     7.4834 0.0000e+00
     -0.436      0.163    10.6469     89.345     30.762  19.979536     1.1900      8.254   227.3441 8.6240e+02     3.6037     -0.427     -0.619     7.4906 0.0000e+00
     -0.404      0.193    10.6819     89.330     30.854  20.036377     1.1810      8.245   225.5151 8.1479e+02     3.5395     -0.405     -0.587     7.4907 0.0000e+00
     -0.350      0.209    10.7140     89.374     30.874  20.050578     1.2092      8.239   225.5103 6.3696e+02     3.5750     -0.355     -0.515     7.4870 0.0000e+00
     -0.269      0.213    10.7211     89.535     30.824  20.024430     1.2558      8.236   225.7375 3.6077e+02     3.6239     -0.265     -0.384     7.4817 0.0000e+00
     -0.187      0.205    10.7177     89.839     30.740  19.973843     1.2707      8.232   225.9393 1.8777e+02     3.5502     -0.169     -0.244     7.4731 0.0000e+00
     -0.133      0.184    10.7169     90.297     30.703  19.946163     1.2726      8.225   226.2295 1.3772e+02     3.4692     -0.119     -0.174     7.4640 0.0000e+00
     -0.104      0.147    10.7178     90.903     30.713  19.943365     1.2951      8.217   226.7509 1.1629e+02     3.4636     -0.103     -0.150     7.4663 0.0000e+00
     -0.079      0.101    10.7325     91.594     30.722  19.940003     1.3354      8.211   227.1676 1.0693e+02     3.5513     -0.078     -0.112     7.4822 0.0000e+00
     -0.054      0.058    10.7664     92.295     30.681  19.905504     1.3519      8.207   227.3955 1.0583e+02     3.6074     -0.049     -0.072     7.4924 0.0000e+00
     -0.039      0.029    10.8218     92.904     30.597  19.843244     1.3447      8.205   228.0431 1.0418e+02     3.5267     -0.031     -0.046     7.4837 0.0000e+00
     -0.039      0.010    10.9042     93.288     30.576  19.821241     1.3398      8.204   234.3966 1.0447e+02     3.4641     -0.032     -0.046     7.4645 0.0000e+00
     -0.053     -0.002    10.9941     93.451     30.599  19.829667     1.3425      8.205   245.4506 1.0841e+02     3.4653     -0.052     -0.076     7.4486 0.0000e+00
     -0.066     -0.010    11.0837     93.502     30.589  19.818311     1.3450      8.208   250.3602 1.1063e+02     3.4731     -0.070     -0.103     7.4378 0.0000e+00
     -0.069     -0.010    11.1701     93.478     30.582  19.810741     1.3285      8.211   249.4486 1.1218e+02     3.4896     -0.070     -0.102     7.4250 0.0000e+00
     -0.064     -0.004    11.2195     93.382     30.572  19.801526     1.3169      8.212   247.7643 1.1477e+02     3.4943     -0.062     -0.089     7.4100 0.0000e+00
     -0.059      0.004    11.2340     93.272     30.527  19.770297     1.3467      8.214   242.5568 1.1879e+02     3.5299     -0.058     -0.084     7.3989 0.0000e+00
     -0.058      0.010    11.2417     93.161     30.501  19.750157     1.3970      8.214   234.6676 1.2045e+02     3.5781     -0.056     -0.082     7.3921 0.0000e+00
     -0.058      0.013    11.2428     93.008     30.503  19.748223     1.4171      8.213   230.4137 1.1586e+02     3.5315     -0.057     -0.081     7.3872 0.0000e+00
     -0.057      0.014    11.2266     92.779     30.507  19.746918     1.4150      8.212   229.7550 1.1288e+02     3.4789     -0.057     -0.082     7.3831 0.0000e+00
     -0.053      0.017    11.2143     92.486     30.494  19.734370     1.4210      8.211   229.5434 1.1374e+02     3.5228     -0.053     -0.078     7.3794 0.0000e+00
     -0.046      0.019    11.2051     92.200     30.483  19.723310     1.4236      8.211   229.5760 1.1120e+02     3.5491     -0.046     -0.066     7.3754 0.0000e+00
     -0.038      0.021    11.1891     92.001     30.513  19.739981     1.4045      8.210   229.6327 1.0729e+02     3.4891     -0.036     -0.052     7.3694 0.0000e+00
     -0.032      0.021    11.1646     91.921     30.527  19.745734     1.3825      8.210   229.6265 1.0470e+02     3.4468     -0.031     -0.045     7.3624 0.0000e+00
     -0.028      0.020    11.1263     91.938     30.507  19.729472     1.3983      8.210   229.6735 1.0152e+02     3.4815     -0.027     -0.040     7.3557 0.0000e+00
     -0.025      0.018    11.0907     92.003     30.518  19.733561     1.4453      8.211   230.2005 9.9018e+01     3.5334     -0.024     -0.035     7.3501 0.0000e+00
     -0.020      0.016    11.0655     92.042     30.521  19.731763     1.4684      8.211   234.9661 9.8245e+01     3.5278     -0.020     -0.029     7.3450 0.0000e+00
     -0.015      0.015    11.0600     91.995     30.489  19.707728     1.4610      8.212   242.8974 9.8061e+01     3.4819     -0.013     -0.020     7.3400 0.0000e+00
     -0.010      0.015    11.0641     91.873     30.475  19.696561     1.4641      8.215   245.9093 9.7183e+01     3.4912     -0.008     -0.013     7.3351 0.0000e+00
     -0.008      0.016    11.0771     91.685     30.519  19.723541     1.4727      8.217   244.5381 9.6364e+01     3.5370     -0.009     -0.012     7.3293 0.0000e+00
     -0.006      0.021    11.0880     91.457     30.609  19.780333     1.4650      8.218   243.1816 9.6364e+01     3.5237     -0.006     -0.008     7.3233 0.0000e+00
     -0.001      0.028    11.0805     91.255     30.660  19.812608     1.4540      8.218   239.9192 9.5014e+01     3.4672     -0.001     -0.002     7.3180 0.0000e+00
      0.004      0.035    11.0677     91.115     30.636  19.796771     1.4481      8.218   234.6898 9.2348e+01     3.4343      0.001      0.002     7.3139 0.0000e+00
      0.014      0.042    11.0453     91.028     30.609  19.779061     1.4601      8.217   231.7493 8.9106e+01     3.4680      0.010      0.016     7.3114 0.0000e+00
      0.031      0.047    11.0144     90.974     30.625  19.788676     1.4912      8.217   231.2961 8.6487e+01     3.4984      0.031      0.044     7.3097 0.0000e+00
      0.049      0.049    10.9881     90.879     30.622  19.786220     1.5079      8.218   231.1901 8.5985e+01     3.4605      0.052      0.075     7.3084 0.0000e+00
      0.060      0.045    10.9737     90.678     30.566  19.749361     1.5121      8.218   231.1559 8.5099e+01     3.4538      0.059      0.086     7.3078 0.0000e+00
      0.070      0.036    10.9623     90.390     30.527  19.723428     1.5345      8.219   231.0548 8.2567e+01     3.4856      0.067      0.096     7.3073 0.0000e+00
      0.082      0.024    10.9597     90.005     30.533  19.726276     1.5703      8.221   230.9134 7.9762e+01     3.5041      0.083      0.120     7.3068 0.0000e+00
      0.089      0.014    10.9540     89.497     30.526  19.720398     1.5797      8.223   230.9083 7.8001e+01     3.5056      0.090      0.131     7.3060 0.0000e+00
      0.089      0.007    10.9256     88.946     30.521  19.715757     1.5646      8.224   230.9932 7.7659e+01     3.5040      0.090      0.130     7.3049 0.0000e+00
      0.084      0.001    10.8926     88.461     30.550  19.733562     1.5699      8.226   230.9938 7.8261e+01     3.5538      0.083      0.120     7.3036 0.0000e+00
      0.079     -0.005    10.8503     88.098     30.570  19.745472     1.5859      8.227   231.0013 7.9088e+01     3.5609      0.074      0.108     7.3019 0.0000e+00
      0.080     -0.010    10.7843     87.851     30.551  19.732954     1.5829      8.229   231.0843 7.9694e+01     3.4868      0.076      0.111     7.2993 0.0000e+00
      0.083     -0.013    10.7134     87.732     30.516  19.709012     1.5839      8.231   231.1374 8.0898e+01     3.5121      0.084      0.121     7.2969 0.0000e+00
      0.081     -0.014    10.6526     87.788     30.518  19.709594     1.6147      8.232   231.1263 8.3298e+01     3.5936      0.083      0.120     7.2952 0.0000e+00
      0.072     -0.014    10.6109     88.034     30.567  19.739985     1.6477      8.232   231.1216 8.5785e+01     3.5836      0.071      0.103     7.2940 0.0000e+00
      0.062     -0.013    10.5814     88.441     30.599  19.759457     1.6501      8.233   231.1672 8.6465e+01     3.5286      0.058      0.085     7.2928 0.0000e+00
      0.057     -0.010    10.5636     88.893     30.594  19.754826     1.6344      8.234   231.2476 8.6040e+01     3.4743      0.053      0.077     7.2913 0.0000e+00
      0.057     -0.006    10.5718     89.253     30.584  19.747395     1.6164      8.236   231.3195 8.6064e+01     3.4745      0.054      0.079     7.2894 0.0000e+00
      0.061     -0.001    10.6011     89.470     30.563  19.733010     1.6069      8.236   231.4340 8.5869e+01     3.5310      0.059      0.086     7.2874 0.0000e+00
      0.065      0.003    10.6565     89.543     30.525  19.707707     1.6033      8.237   231.5998 8.5541e+01     3.5425      0.065      0.095     7.2855 0.0000e+00
      0.065      0.005    10.7195     89.486     30.506  19.695065     1.5892      8.238   231.6897 8.5891e+01     3.5452      0.065      0.095     7.2839 0.0000e+00
      0.062      0.007    10.7637     89.341     30.526  19.706955     1.5857      8.240   231.7465 8.6384e+01     3.5977      0.060      0.087     7.2828 0.0000e+00
      0.061      0.010    10.7901     89.157     30.555  19.724655     1.6029      8.241   231.8565 8.6064e+01     3.5617      0.058      0.084     7.2816 0.0000e+00
      0.065      0.015    10.7989     88.953     30.547  19.718881     1.6057      8.242   231.9866 8.4933e+01     3.3830      0.063      0.093     7.2801 0.0000e+00
      0.071      0.019    10.7906     88.753     30.519  19.700540     1.5861      8.244   232.1152 8.3596e+01     3.2484      0.070      0.101     7.2789 0.0000e+00
      0.078      0.021    10.7705     88.594     30.508  19.693100     1.5743      8.245   232.2072 8.2362e+01     3.2661      0.076      0.109     7.2774 0.0000e+00
      0.087      0.021    10.7488     88.469     30.507  19.692321     1.5959      8.246   232.2377 8.1125e+01     3.3918      0.084      0.124     7.2760 0.0000e+00
      0.094      0.016    10.7241     88.352     30.506  19.691123     1.6231      8.246   232.2269 7.9858e+01     3.5045      0.094      0.137     7.2749 0.0000e+00
      0.098      0.009    10.6967     88.261     30.487  19.678613     1.6196      8.247   232.2484 7.8526e+01     3.5013      0.098      0.141     7.2739 0.0000e+00
      0.099      0.003    10.6791     88.210     30.471  19.667875     1.6204      8.247   232.3252 7.7171e+01     3.4898      0.098      0.141     7.2735 0.0000e+00
      0.098     -0.002    10.6661     88.185     30.503  19.688090     1.6418      8.248   232.3807 7.6339e+01     3.5367      0.098      0.142     7.2729 0.0000e+00
      0.093     -0.004    10.6506     88.187     30.573  19.732828     1.6531      8.250   232.4898 7.6255e+01     3.5555      0.093      0.134     7.2724 0.0000e+00
      0.088     -0.004    10.6386     88.211     30.623  19.764983     1.6410      8.250   232.6123 7.7250e+01     3.5127      0.085      0.124     7.2720 0.0000e+00
      0.087     -0.005    10.6343     88.215     30.615  19.759859     1.6195      8.251   232.5709 7.9540e+01     3.4971      0.084      0.122     7.2716 0.0000e+00
      0.090     -0.005    10.6306     88.156     30.575  19.734274     1.6100      8.253   232.5058 8.2069e+01     3.5718      0.088      0.127     7.2709 0.0000e+00
      0.093     -0.003    10.6308     88.019     30.536  19.709245     1.6010      8.253   232.5989 8.4589e+01     3.5957      0.093      0.135     7.2700 0.0000e+00
      0.091      0.001    10.6365     87.831     30.539  19.710852     1.5762      8.253   232.7507 8.8333e+01     3.5130      0.092      0.134     7.2696 0.0000e+00
      0.085      0.002    10.6384     87.628     30.606  19.753697     1.5612      8.254   232.8782 9.2310e+01     3.4610      0.084      0.120     7.2700 0.0000e+00
      0.083      0.002    10.6325     87.443     30.653  19.783470     1.5856      8.255   233.1084 9.3830e+01     3.5125      0.078      0.114     7.2707 0.0000e+00
      0.088      0.002    10.6141     87.296     30.607  19.753821     1.6293      8.257   233.2972 9.3114e+01     3.6236      0.086      0.125     7.2706 0.0000e+00
      0.095      0.003    10.5904     87.175     30.542  19.712225     1.6407      8.258   233.3536 9.1946e+01     3.6431      0.096      0.139     7.2698 0.0000e+00
      0.097      0.005    10.5644     87.020     30.561  19.724354     1.6243      8.259   233.4456 9.2010e+01     3.5430      0.099      0.142     7.2689 0.0000e+00
      0.094      0.005    10.5414     86.804     30.638  19.773669     1.6228      8.259   233.4634 9.3099e+01     3.5069      0.092      0.132     7.2688 0.0000e+00
      0.090      0.003    10.5229     86.535     30.681  19.801269     1.6302      8.259   233.3967 9.3959e+01     3.5139      0.086      0.124     7.2691 0.0000e+00
      0.092     -0.001    10.5128     86.210     30.687  19.804459     1.6302      8.259   233.4134 9.5957e+01     3.4565      0.089      0.129     7.2691 0.0000e+00
      0.097     -0.002    10.4956     85.810     30.698  19.812231     1.6302      8.261   233.4071 1.0156e+02     3.4284      0.097      0.141     7.2685 0.0000e+00
      0.100     -0.002    10.4675     85.335     30.727  19.831839     1.6314      8.262   233.3213 1.1074e+02     3.4474      0.102      0.147     7.2678 0.0000e+00
      0.097     -0.003    10.4367     84.843     30.754  19.851333     1.6359      8.263   233.4082 1.1919e+02     3.4807      0.096      0.139     7.2676 0.0000e+00
      0.090     -0.005    10.3974     84.368     30.761  19.857726     1.6350      8.264   233.6837 1.2643e+02     3.5240      0.086      0.126     7.2674 0.0000e+00
      0.087     -0.005    10.3514     83.919     30.740  19.845734     1.6212      8.265   233.8989 1.3242e+02     3.5269      0.083      0.122     7.2673 0.0000e+00
      0.087     -0.004    10.2881     83.494     30.719  19.833140     1.6262      8.266   233.9455 1.3514e+02     3.5503      0.085      0.124     7.2692 0.0000e+00
      0.089     -0.002    10.2279     83.076     30.717  19.832269     1.6630      8.266   233.9883 1.3692e+02     3.6011      0.087      0.126     7.2730 0.0000e+00
      0.091      0.000    10.1693     82.676     30.721  19.835203     1.6912      8.266   234.0720 1.3833e+02     3.5602      0.090      0.129     7.2763 0.0000e+00
      0.091      0.002    10.1141     82.292     30.773  19.868608     1.6837      8.268   234.0972 1.4092e+02     3.4660      0.090      0.130     7.2781 0.0000e+00
      0.089      0.003    10.0654     81.923     30.851  19.919159     1.6720      8.269   234.2072 1.4688e+02     3.4188      0.086      0.126     7.2793 0.0000e+00
      0.088      0.003    10.0116     81.567     30.881  19.939191     1.7003      8.269   234.3692 1.5895e+02     3.4673      0.084      0.122     7.2805 0.0000e+00
      0.089      0.003     9.9651     81.210     30.851  19.920604     1.7517      8.269   234.4219 1.9200e+02     3.5402      0.086      0.125     7.2812 0.0000e+00
      0.094      0.002     9.9183     80.845     30.793  19.884629     1.7685      8.270   234.4140 2.5495e+02     3.5146      0.092      0.134     7.2810 0.0000e+00
      0.096      0.002     9.8737     80.483     30.789  19.884644     1.7542      8.272   234.5316 3.3506e+02     3.4993      0.097      0.140     7.2804 0.0000e+00
      0.095      0.001     9.8322     80.139     30.840  19.920784     1.7449      8.272   234.7260 3.8266e+02     3.4918      0.095      0.137     7.2807 0.0000e+00
      0.092      0.000     9.7882     79.789     30.868  19.941192     1.7394      8.272   234.7846 3.6453e+02     3.4239      0.090      0.130     7.2827 0.0000e+00
      0.091     -0.002     9.7438     79.427     30.864  19.941177     1.7370      8.272   234.8102 3.3261e+02     3.4309      0.088      0.127     7.2861 0.0000e+00
      0.092     -0.002     9.6968     79.083     30.830  19.920612     1.7420      8.273   234.8647 3.2958e+02     3.4735      0.089      0.130     7.2910 0.0000e+00
      0.093     -0.001     9.6563     78.733     30.770  19.882743     1.7495      8.273   234.9269 3.7025e+02     3.4944      0.092      0.134     7.2958 0.0000e+00
      0.093      0.001     9.6147     78.365     30.742  19.863723     1.7605      8.273   235.0452 4.0824e+02     3.5470      0.092      0.132     7.2993 0.0000e+00
      0.091      0.001     9.5660     78.038     30.770  19.880858     1.7662      8.273   235.0910 3.8764e+02     3.5632      0.089      0.129     7.3030 0.0000e+00
      0.090      0.001     9.5263     77.763     30.800  19.899709     1.7610      8.275   235.0501 3.5676e+02     3.5198      0.087      0.127     7.3063 0.0000e+00
      0.092      0.000     9.4865     77.488     30.801  19.901447     1.7645      8.277   235.0668 3.5205e+02     3.5340      0.090      0.131     7.3074 0.0000e+00
      0.095      0.000     9.4369     77.197     30.800  19.901874     1.7669      8.278   235.1211 3.6694e+02     3.5650      0.095      0.138     7.3058 0.0000e+00
      0.095     -0.000     9.3977     76.910     30.804  19.904864     1.7568      8.279   235.1904 3.9825e+02     3.5190      0.095      0.137     7.3032 0.0000e+00
      0.093     -0.001     9.3691     76.643     30.854  19.937605     1.7505      8.279   235.3027 4.3767e+02     3.4890      0.092      0.132     7.3024 0.0000e+00
      0.091     -0.001     9.3358     76.407     30.921  19.980729     1.7485      8.280   235.3599 4.3227e+02     3.5099      0.089      0.128     7.3042 0.0000e+00
      0.090     -0.001     9.2985     76.197     30.924  19.982459     1.7572      8.281   235.3662 4.0256e+02     3.5668      0.087      0.126     7.3068 0.0000e+00
      0.091     -0.001     9.2631     75.971     30.886  19.958513     1.7565      8.281   235.4645 4.1936e+02     3.5973      0.088      0.129     7.3080 0.0000e+00
      0.093      0.000     9.2312     75.725     30.864  19.944808     1.7397      8.282   235.6016 4.5571e+02     3.5359      0.091      0.132     7.3077 0.0000e+00
      0.094      0.001     9.2013     75.510     30.861  19.943563     1.7453      8.283   235.7335 4.6542e+02     3.5074      0.093      0.134     7.3068 0.0000e+00
      0.093      0.002     9.1798     75.321     30.861  19.943459     1.7665      8.284   235.8555 4.6198e+02     3.5262      0.092      0.132     7.3067 0.0000e+00
      0.091      0.003     9.1531     75.109     30.861  19.943552     1.7713      8.285   235.8713 4.5343e+02     3.5246      0.089      0.128     7.3077 0.0000e+00
      0.091      0.003     9.1184     74.886     30.863  19.944695     1.7535      8.287   235.8389 4.0447e+02     3.5225      0.088      0.127     7.3094 0.0000e+00
      0.094      0.003     9.0930     74.676     30.881  19.957271     1.7420      8.289   235.8939 3.6551e+02     3.5003      0.092      0.133     7.3103 0.0000e+00
      0.098      0.002     9.0745     74.451     30.896  19.968808     1.7493      8.289   236.0195 3.8711e+02     3.4610      0.097      0.139     7.3100 0.0000e+00
      0.099     -0.000     9.0477     74.230     30.876  19.957384     1.7920      8.289   236.1536 4.0997e+02     3.4233      0.098      0.142     7.3092 0.0000e+00
      0.099     -0.002     9.0176     74.031     30.856  19.945951     1.8745      8.290   236.2254 3.9487e+02     3.4206      0.098      0.142     7.3097 0.0000e+00
      0.095     -0.003     8.9966     73.830     30.874  19.957369     1.9231      8.291   236.2852 3.7647e+02     3.4964      0.093      0.135     7.3114 0.0000e+00
      0.091     -0.003     8.9665     73.660     30.893  19.968637     1.9309      8.291   236.3593 3.9693e+02     3.6228      0.087      0.127     7.3142 0.0000e+00
      0.089     -0.002     8.9363     73.530     30.873  19.955385     1.9268      8.291   236.3473 4.2606e+02     3.6844      0.086      0.125     7.3173 0.0000e+00
      0.090      0.000     8.9172     73.384     30.825  19.923945     1.8976      8.291   236.3993 4.2539e+02     3.6265      0.088      0.127     7.3190 0.0000e+00
      0.093      0.001     8.8887     73.219     30.797  19.905510     1.8695      8.291   236.4718 4.1289e+02     3.5379      0.091      0.132     7.3189 0.0000e+00
      0.095      0.000     8.8672     73.067     30.825  19.922698     1.8710      8.291   236.4493 4.0429e+02     3.5354      0.094      0.136     7.3178 0.0000e+00
      0.095     -0.001     8.8571     72.907     30.855  19.941563     1.8903      8.292   236.4708 4.1078e+02     3.5610      0.095      0.137     7.3168 0.0000e+00
      0.094     -0.003     8.8388     72.732     30.858  19.943390     1.8947      8.293   236.5606 4.2839e+02     3.5069      0.094      0.136     7.3159 0.0000e+00
      0.092     -0.004     8.8160     72.567     30.861  19.944791     1.8742      8.295   236.6741 4.3619e+02     3.4609      0.090      0.130     7.3152 0.0000e+00
      0.088     -0.004     8.8003     72.401     30.883  19.958501     1.8671      8.295   236.7240 4.3229e+02     3.5183      0.087      0.126     7.3143 0.0000e+00
      0.087     -0.004     8.7826     72.215     30.920  19.982347     1.9009      8.295   236.7335 4.3959e+02     3.6193      0.085      0.122     7.3135 0.0000e+00
      0.087     -0.004     8.7579     72.013     30.915  19.979499     1.9415      8.295   236.7891 4.6804e+02     3.5903      0.084      0.123     7.3126 0.0000e+00
      0.090     -0.004     8.7409     71.833     30.828  19.924070     1.9497      8.296   236.8796 4.6751e+02     3.4744      0.089      0.129     7.3118 0.0000e+00
      0.090      0.001     8.7209     71.692     30.764  19.882779     1.9418      8.296   236.9677 4.3134e+02     3.4822      0.091      0.131     7.3110 0.0000e+00
      0.085      0.006     8.6993     71.572     30.829  19.924069     1.9295      8.296   236.9948 4.3783e+02     3.5471      0.083      0.121     7.3106 0.0000e+00
      0.081      0.010     8.6724     71.464     30.914  19.979499     1.9003      8.297   237.0350 4.6991e+02     3.5423      0.076      0.110     7.3120 0.0000e+00
      0.085      0.011     8.6485     71.359     30.914  19.982346     1.8719      8.297   237.1099 4.4766e+02     3.4924      0.080      0.116     7.3136 0.0000e+00
      0.097      0.010     8.6349     71.272     30.868  19.958501     1.8696      8.297   237.1262 3.9754e+02     3.4898      0.095      0.139     7.3130 0.0000e+00
      0.107      0.009     8.6189     71.212     30.838  19.944805     1.8731      8.298   237.2317 3.9223e+02     3.5109      0.109      0.159     7.3122 0.0000e+00
      0.107      0.006     8.6080     71.180     30.829  19.943561     1.8640      8.299   237.4382 4.0583e+02     3.5088      0.108      0.157     7.3118 0.0000e+00
      0.102 4.4935e-08     8.5930     71.169     30.824  19.943458     1.8590      8.300   237.4723 3.9407e+02     3.5327      0.098      0.143     7.3152 0.0000e+00
      0.098     -0.005     8.5795     71.146     30.819  19.943561     1.8620      8.300   237.3857 3.9972e+02     3.5266      0.094      0.137     7.3272 0.0000e+00
      0.096     -0.005     8.5705     71.113     30.819  19.944816     1.8756      8.299   237.4240 4.1372e+02     3.5371      0.095      0.138     7.3385 0.0000e+00
      0.095      0.000     8.5645     71.091     30.840  19.958638     1.8656      8.299   237.5910 3.9863e+02     3.5580      0.094      0.135     7.3438 0.0000e+00
      0.094      0.006     8.5651     71.050     30.879  19.983870     1.8246      8.300   237.6840 4.1588e+02     3.5059      0.091      0.131     7.3493 0.0000e+00
      0.096      0.007     8.5609     70.968     30.898  19.996290     1.8123      8.301   237.6017 4.3981e+02     3.5218      0.093      0.134     7.3546 0.0000e+00
      0.103      0.005     8.5538     70.876     30.873  19.982000     1.8167      8.302   237.5428 4.1997e+02     3.6135      0.100      0.145     7.3572 0.0000e+00
      0.109      0.001     8.5536     70.788     30.803  19.937900     1.8194      8.303   237.5746 4.0211e+02     3.6589      0.109      0.158     7.3566 0.0000e+00
      0.110     -0.003     8.5513     70.703     30.756  19.906900     1.8290      8.303   237.6423 3.8376e+02     3.6257      0.112      0.161     7.3550 0.0000e+00
      0.105     -0.006     8.5378     70.636     30.784  19.924182     1.8158      8.304   237.7589 3.9252e+02     3.5202      0.104      0.151     7.3558 0.0000e+00
      0.096     -0.009     8.5257     70.589     30.835  19.956651     1.8099      8.305   237.7798 4.2055e+02     3.5107      0.092      0.132     7.3603 0.0000e+00
      0.091     -0.010     8.5154     70.556     30.875  19.982469     1.8489      8.306   237.8086 3.9372e+02     3.5789      0.086      0.123     7.3634 0.0000e+00
      0.092     -0.008     8.5039     70.538     30.875  19.982739     1.8799      8.307   238.0212 3.3937e+02     3.5240      0.091      0.131     7.3616 0.0000e+00
      0.094     -0.003     8.4967     70.522     30.839  19.959906     1.8759      8.308   238.1992 3.3293e+02     3.4629      0.094      0.136     7.3590 0.0000e+00
      0.093      0.002     8.4920     70.486     30.839  19.960011     1.8592      8.310   238.2407 3.6914e+02     3.4889      0.092      0.133     7.3569 0.0000e+00
      0.090      0.007     8.4874     70.446     30.878  19.984011     1.8279      8.310   238.2645 3.8179e+02     3.5312      0.088      0.128     7.3569 0.0000e+00
      0.090      0.008     8.4855     70.446     30.897  19.996474     1.7893      8.310   238.2289 3.6505e+02     3.5305      0.085      0.124     7.3594 0.0000e+00
      0.095      0.007     8.4849     70.431     30.875  19.983898     1.7586      8.311   238.1542 3.4631e+02     3.4804      0.092      0.133     7.3612 0.0000e+00
      0.103      0.005     8.4805     70.312     30.834  19.958764     1.7481      8.312   238.2216 3.3549e+02     3.5057      0.103      0.150     7.3595 0.0000e+00
      0.108      0.004     8.4721     70.145     30.814  19.946189     1.7620      8.315   238.3556 3.4572e+02     3.5974      0.109      0.158     7.3568 0.0000e+00
      0.105     -0.000     8.4745     70.028     30.834  19.958661     1.7764      8.317   238.3986 3.4997e+02     3.5979      0.106      0.153     7.3564 0.0000e+00
      0.099     -0.005     8.4801     69.936     30.871  19.982755     1.7813      8.317   238.3966 3.7125e+02     3.5114      0.096      0.139     7.3599 0.0000e+00
      0.095     -0.009     8.4604     69.848     30.871  19.983899     1.7874      8.317   238.4174 4.0370e+02     3.4407      0.092      0.134     7.3648 0.0000e+00
      0.095     -0.009     8.4321     69.783     30.853  19.972494     1.7997      8.317   238.4774 3.8235e+02     3.4597      0.096      0.139     7.3650 0.0000e+00
      0.094     -0.003     8.4236     69.723     30.853  19.971664     1.8144      8.317   238.6061 3.3825e+02     3.5031      0.095      0.137     7.3627 0.0000e+00
      0.089      0.004     8.4137     69.680     30.858  19.973861     1.8152      8.318   238.7689 3.0633e+02     3.4866      0.086      0.125     7.3627 0.0000e+00
      0.088      0.009     8.3988     69.663     30.898  19.999056     1.8009      8.318   238.8116 3.2612e+02     3.4994      0.084      0.121     7.3656 0.0000e+00
      0.093      0.011     8.3943     69.619     30.934  20.022686     1.8002      8.318   238.6921 3.5757e+02     3.5559      0.091      0.131     7.3667 0.0000e+00
      0.103      0.011     8.3863     69.546     30.906  20.005966     1.7972      8.319   238.6143 3.1317e+02     3.5540      0.102      0.147     7.3643 0.0000e+00
      0.111      0.010     8.3791     69.495     30.778  19.923701     1.7728      8.321   238.7317 2.6298e+02     3.4761      0.111      0.160     7.3620 0.0000e+00
      0.113      0.007     8.3824     69.424     30.575  19.788846     1.7554      8.322   238.9071 2.3880e+02     3.4336      0.113      0.164     7.3610 0.0000e+00
      0.109      0.005     8.3775     69.294     30.464  19.706897     1.7541      8.323   239.0140 1.9537e+02     3.4849      0.107      0.154     7.3620 0.0000e+00
      0.104      0.004     8.3619     69.360     30.463  19.693674     1.7901      8.324   239.0780 1.5827e+02     3.5499      0.099      0.143     7.3650 0.0000e+00
      0.104      0.005     8.3591     70.270     30.476  19.692361     1.8491      8.324   239.1650 1.4223e+02     3.5355      0.100      0.144     7.3676 0.0000e+00
      0.108      0.008     8.3562     72.657     30.482  19.691010     1.8689      8.325   239.2914 1.3349e+02     3.4820      0.106      0.153     7.3642 0.0000e+00
      0.113      0.009     8.3369     76.650     30.465  19.677332     1.8704      8.327   239.3157 1.2753e+02     3.5187      0.111      0.161     7.3451 0.0000e+00
      0.118      0.008     8.3171     81.890     30.429  19.653790     1.8849      8.328   239.2007 1.2203e+02     3.5696      0.117      0.170     7.3191 0.0000e+00
      0.122      0.006     8.3971     87.858     30.439  19.659973     1.9100      8.328   239.1908 1.1807e+02     3.5170      0.121      0.176     7.3030 0.0000e+00
      0.121      0.004     8.6815     93.940     30.483  19.688688     1.9500      8.328   239.3680 1.1540e+02     3.4622      0.120      0.174     7.2957 0.0000e+00
      0.117      0.003     9.1838     99.432     30.476  19.683963     1.9769      8.328   239.5360 1.1375e+02     3.4879      0.115      0.166     7.2926 0.0000e+00
      0.115      0.000     9.8375    103.792     30.450  19.666250     1.9856      8.328   239.6735 1.1264e+02     3.5539      0.110      0.160     7.2920 0.0000e+00
      0.117     -0.002    10.5789    106.735     30.448  19.664734     1.9553      8.330   239.7407 1.1069e+02     3.5779      0.115      0.166     7.2922 0.0000e+00
      0.122     -0.003    11.3479    108.279     30.450  19.665631     1.8847      8.331   239.7463 1.0890e+02     3.5394      0.124      0.179     7.2924 0.0000e+00
      0.122     -0.003    12.0308    108.749     30.470  19.677093     1.8561      8.331   239.8278 1.0816e+02     3.5319      0.122      0.177     7.2921 0.0000e+00
      0.116     -0.003    12.5692    108.536     30.473  19.676511     1.8764      8.331   239.9512 1.0692e+02     3.5561      0.114      0.165     7.2911 0.0000e+00
      0.111     -0.003    12.9251    107.963     30.448  19.658591     1.8881      8.332   240.1192 1.0415e+02     3.5590      0.107      0.155     7.2901 0.0000e+00
      0.111     -0.001    13.0928    107.283     30.438  19.650626     1.8811      8.333   240.2251 1.0084e+02     3.5659      0.108      0.156     7.2903 0.0000e+00
      0.114      0.004    13.1328    106.619     30.429  19.643614     1.8671      8.333   240.1995 9.8079e+01     3.5374      0.112      0.163     7.2884 0.0000e+00
      0.117      0.009    13.0968    105.977     30.420  19.637213     1.8602      8.332   240.1533 9.6280e+01     3.5217      0.115      0.166     7.2833 0.0000e+00
      0.119      0.011    13.0161    105.357     30.421  19.636633     1.8648      8.332   240.0964 9.5518e+01     3.5471      0.116      0.168     7.2799 0.0000e+00
      0.123      0.008    12.9300    104.772     30.422  19.636585     1.8640      8.332   240.1134 9.6133e+01     3.5021      0.120      0.174     7.2781 0.0000e+00
      0.128      0.003    12.8522    104.237     30.422  19.636633     1.8594      8.332   240.1874 9.7708e+01     3.4901      0.125      0.182     7.2763 0.0000e+00
      0.130     -0.002    12.7750    103.763     30.424  19.637213     1.8666      8.333   240.2160 9.9678e+01     3.6077      0.130      0.188     7.2746 0.0000e+00
      0.128     -0.006    12.7000    103.339     30.437  19.643604     1.8847      8.333   240.2876 1.0159e+02     3.6947      0.128      0.185     7.2724 0.0000e+00
      0.122     -0.007    12.6299    102.978     30.450  19.650501     1.8871      8.333   240.3650 1.0248e+02     3.6187      0.120      0.174     7.2717 0.0000e+00
      0.116     -0.007    12.5633    102.687     30.462  19.657209     1.8624      8.333   240.4635 1.0204e+02     3.4741      0.113      0.164     7.2725 0.0000e+00
      0.113     -0.004    12.5084    102.427     30.469  19.661306     1.8526      8.334   240.6187 1.0048e+02     3.4496      0.110      0.160     7.2715 0.0000e+00
      0.113      0.001    12.4576    102.191     30.429  19.636632     1.8605      8.334   240.6927 9.8810e+01     3.4938      0.110      0.161     7.2683 0.0000e+00
      0.116      0.007    12.4127    101.988     30.389  19.612481     1.8403      8.334   240.6692 9.7705e+01     3.4626      0.114      0.166     7.2649 0.0000e+00
      0.120      0.009    12.3833    101.825     30.404  19.622913     1.8080      8.334   240.5929 9.6868e+01     3.4478      0.117      0.169     7.2622 0.0000e+00
      0.124      0.007    12.3506    101.716     30.423  19.635957     1.8037      8.335   240.5452 9.7351e+01     3.5199      0.121      0.175     7.2619 0.0000e+00
      0.129      0.002    12.3209    101.628     30.433  19.643387     1.8211      8.336   240.6079 1.0017e+02     3.5822      0.128      0.186     7.2644 0.0000e+00
      0.130     -0.002    12.2964    101.524     30.441  19.649358     1.8356      8.335   240.7485 1.0368e+02     3.5524      0.131      0.190     7.2670 0.0000e+00
      0.126     -0.005    12.2739    101.484     30.431  19.644756     1.8284      8.334   240.8685 1.0597e+02     3.5013      0.125      0.181     7.2686 0.0000e+00
      0.120     -0.006    12.2617    101.510     30.438  19.651149     1.8093      8.334   240.9414 1.0760e+02     3.5445      0.115      0.168     7.2700 0.0000e+00
      0.115     -0.005    12.2564    101.472     30.455  19.663249     1.8050      8.334   241.0271 1.0843e+02     3.6311      0.112      0.162     7.2711 0.0000e+00
      0.115     -0.003    12.2360    101.374     30.455  19.664250     1.7926      8.334   241.1301 1.0690e+02     3.5926      0.112      0.162     7.2727 0.0000e+00
      0.116      0.001    12.2267    101.277     30.453  19.663259     1.7601      8.335   241.1541 1.0498e+02     3.4884      0.114      0.165     7.2758 0.0000e+00
      0.119      0.004    12.2440    101.245     30.435  19.651264     1.7608      8.335   241.1451 1.0496e+02     3.4986      0.117      0.169     7.2794 0.0000e+00
      0.123      0.005    12.2311    101.259     30.427  19.646015     1.7850      8.335   241.1944 1.0588e+02     3.5784      0.121      0.175     7.2823 0.0000e+00
      0.124      0.004    12.2191    101.237     30.455  19.663203     1.7695      8.335   241.2343 1.0812e+02     3.6341      0.123      0.178     7.2835 0.0000e+00
      0.123      0.001    12.2036    101.241     30.465  19.668871     1.7230      8.335   241.2824 1.1152e+02     3.5919      0.121      0.175     7.2832 0.0000e+00
      0.123     -0.003    12.1974    101.272     30.438  19.651151     1.6890      8.336   241.3464 1.1514e+02     3.5115      0.120      0.174     7.2823 0.0000e+00
      0.122     -0.005    12.2127    101.299     30.420  19.639156     1.6826      8.337   241.4061 1.1924e+02     3.5167      0.121      0.176     7.2816 0.0000e+00
      0.120     -0.005    12.1974    101.334     30.438  19.650645     1.6872      8.338   241.4871 1.2142e+02     3.4836      0.119      0.172     7.2804 0.0000e+00
      0.117     -0.004    12.2031    101.358     30.458  19.663260     1.6865      8.338   241.5518 1.2051e+02     3.3153      0.115      0.167     7.2791 0.0000e+00
      0.115     -0.002    12.2087    101.351     30.461  19.664870     1.6904      8.339   241.5860 1.1871e+02     3.2250      0.112      0.163     7.2784 0.0000e+00
      0.115     -0.001    12.2090    101.325     30.469  19.670119     1.6930      8.340   241.5563 1.1846e+02     3.2795      0.112      0.162     7.2782 0.0000e+00
      0.116     -0.001    12.2163    101.311     30.458  19.663316     1.6842      8.341   241.5371 1.1951e+02     3.2917      0.113      0.164     7.2779 0.0000e+00
      0.119     -0.003    12.2192    101.307     30.431  19.646016     1.6766      8.341   241.6124 1.2089e+02     3.3033      0.116      0.169     7.2775 0.0000e+00
      0.120     -0.006    12.2194    101.307     30.439  19.651161     1.6765      8.342   241.6917 1.2254e+02     3.3860      0.118      0.172     7.2773 0.0000e+00
      0.118     -0.011    12.2122    101.297     30.456  19.662116     1.6910      8.343   241.7214 1.2404e+02     3.4720      0.116      0.168     7.2772 0.0000e+00
      0.113     -0.017    12.2131    101.280     30.439  19.651676     1.7098      8.343   241.7130 1.2596e+02     3.5567      0.112      0.162     7.2773 0.0000e+00
      0.106     -0.023    12.2110    101.274     30.439  19.651731     1.6878      8.344   241.7622 1.2821e+02     3.5909      0.104      0.151     7.2779 0.0000e+00
      0.099     -0.029    12.2125    101.257     30.456  19.662791     1.6332      8.345   241.8857 1.3056e+02     3.5782      0.096      0.140     7.2783 0.0000e+00
      0.094     -0.030    12.2118    101.222     30.448  19.658590     1.6072      8.346   242.0027 1.3221e+02     3.5733      0.093      0.135     7.2781 0.0000e+00
      0.085     -0.025    12.2067    101.202     30.456  19.664345     1.6229      8.346   242.0584 1.3471e+02     3.5656      0.087      0.125     7.2782 0.0000e+00
      0.071     -0.017    12.2087    101.204     30.463  19.668965     1.6480      8.347   242.0433 1.3874e+02     3.5528      0.069      0.100     7.2784 0.0000e+00
      0.061     -0.010    12.2073    101.221     30.436  19.651056     1.6447      8.348   241.9913 1.4255e+02     3.5220      0.053      0.078     7.2789 0.0000e+00
      0.064     -0.002    12.1992    101.243     30.415  19.638013     1.6325      8.349   241.9467 1.4578e+02     3.5348      0.059      0.085     7.2799 0.0000e+00
      0.074      0.008    12.1977    101.242     30.415  19.638065     1.6421      8.348   241.9347 1.4733e+02     3.6053      0.075      0.109     7.2811 0.0000e+00
      0.080      0.019    12.1978    101.217     30.435  19.651685     1.6441      8.348   241.9317 1.4912e+02     3.5891      0.083      0.120     7.2814 0.0000e+00
      0.080      0.027    12.1996    101.176     30.473  19.675882     1.6321      8.349   241.9962 1.5004e+02     3.4753      0.078      0.113     7.2808 0.0000e+00
      0.081      0.030    12.2053    101.140     30.476  19.677024     1.6212      8.351   242.1983 1.4507e+02     3.4255      0.075      0.110     7.2812 0.0000e+00
      0.092      0.027    12.2034    101.145     30.458  19.665497     1.6209      8.352   242.3102 1.3628e+02     3.4982      0.088      0.128     7.2824 0.0000e+00
      0.110      0.023    12.2002    101.165     30.454  19.663315     1.6372      8.352   242.2311 1.3132e+02     3.5688      0.110      0.160     7.2830 0.0000e+00
      0.122      0.020    12.1952    101.162     30.434  19.650645     1.6349      8.353   242.2738 1.2814e+02     3.5275      0.124      0.180     7.2824 0.0000e+00
      0.123      0.018    12.1880    101.177     30.414  19.639100     1.6093      8.353   242.3969 1.2099e+02     3.4774      0.124      0.179     7.2809 0.0000e+00
      0.116      0.015    12.1901    101.217     30.431  19.650527     1.6025      8.353   242.4290 1.1571e+02     3.5097      0.114      0.165     7.2805 0.0000e+00
      0.112      0.011    12.1970    101.242     30.449  19.662011     1.6198      8.353   242.4891 1.1544e+02     3.5423      0.105      0.153     7.2814 0.0000e+00
      0.117      0.007    12.1909    101.265     30.432  19.651151     1.6349      8.353   242.6073 1.1900e+02     3.5303      0.111      0.162     7.2824 0.0000e+00
      0.129     -0.001    12.1924    101.278     30.423  19.646015     1.6269      8.352   243.0845 1.2510e+02     3.5005      0.128      0.186     7.2840 0.0000e+00
      0.139     -0.015    12.2012    101.276     30.449  19.663316     1.6060      8.352   247.8285 1.3801e+02     3.4896      0.140      0.204     7.2851 0.0000e+00
      0.137     -0.036    12.2007    101.290     30.457  19.670128     1.6080      8.353   252.3006 1.5515e+02     3.5356      0.140      0.203     7.2855 0.0000e+00
      0.123     -0.059    12.2049    101.320     30.446  19.664983     1.6260      8.354   248.2866 1.6010e+02     3.5441      0.124      0.179     7.2858 0.0000e+00
      0.098     -0.076    12.2074    101.348     30.442  19.664511     1.6239      8.355   243.6914 1.5890e+02     3.4547      0.099      0.144     7.2862 0.0000e+00
      0.066     -0.083    12.2038    101.384     30.439  19.664426     1.6235      8.356   243.2018 1.5558e+02     3.4464      0.066      0.097     7.2871 0.0000e+00
      0.032     -0.082    12.2054    101.409     30.437  19.663954     1.6379      8.356   243.2260 1.4267e+02     3.5462      0.026      0.038     7.2889 0.0000e+00
      0.009     -0.077    12.2104    101.420     30.428  19.658809     1.6313      8.358   243.2955 1.2962e+02     3.5337      0.002      0.003     7.2926 0.0000e+00
      0.001     -0.071    12.2093    101.439     30.436  19.665622     1.5941      8.359   243.2690 1.2628e+02     3.3983      0.002      0.001     7.2975 0.0000e+00
     -0.006     -0.065    12.2151    101.462     30.459  19.682922     1.5631      8.359   243.2495 1.3597e+02     3.3098     -0.001     -0.002     7.3006 0.0000e+00
     -0.021     -0.062    12.2189    101.494     30.447  19.677787     1.5646      8.359   243.2322 1.4793e+02     3.3170     -0.018     -0.026     7.3010 0.0000e+00
     -0.042     -0.063    12.2170    101.521     30.426  19.666936     1.5450      8.360   243.1456 1.6128e+02     3.3829     -0.041     -0.059     7.3010 0.0000e+00
     -0.064     -0.067    12.2205    101.512     30.441  19.678530     1.4845      8.361   243.0630 1.8310e+02     3.4584     -0.064     -0.093     7.3045 0.0000e+00
     -0.081     -0.068    12.2201    101.470     30.460  19.691173     1.4579      8.362   243.0939 2.1570e+02     3.5464     -0.080     -0.117     7.3095 0.0000e+00
     -0.096     -0.065    12.2234    101.422     30.462  19.693002     1.4728      8.363   243.1746 2.6199e+02     3.6260     -0.093     -0.134     7.3131 0.0000e+00
     -0.112     -0.058    12.2282    101.383     30.474  19.700641     1.4727      8.362   243.1782 3.2894e+02     3.6364     -0.110     -0.158     7.3171 0.0000e+00
     -0.127     -0.048    12.2249    101.347     30.504  19.720133     1.4398      8.362   243.1381 4.1216e+02     3.5695     -0.126     -0.183     7.3207 0.0000e+00
     -0.142     -0.038    12.2183    101.312     30.531  19.738473     1.3995      8.363   243.2059 4.3597e+02     3.4657     -0.141     -0.205     7.3221 0.0000e+00
     -0.152     -0.027    12.2116    101.281     30.521  19.732175     1.3936      8.365   243.3092 4.0309e+02     3.4745     -0.152     -0.220     7.3216 0.0000e+00
     -0.155     -0.014    12.2084    101.268     30.482  19.707387     1.4182      8.367   243.3544 3.9779e+02     3.5739     -0.153     -0.222     7.3211 0.0000e+00
     -0.155      0.002    12.2030    101.286     30.457  19.692373     1.4223      8.369   243.4085 4.3432e+02     3.5404     -0.151     -0.220     7.3220 0.0000e+00
     -0.154      0.021    12.1992    101.305     30.432  19.677454     1.4013      8.369   243.4469 4.9239e+02     3.4789     -0.152     -0.220     7.3230 0.0000e+00
     -0.150      0.042    12.1943    101.291     30.396  19.653808     1.3981      8.369   243.4744 5.0411e+02     3.5482     -0.151     -0.217     7.3231 0.0000e+00
     -0.140      0.062    12.1909    101.250     30.409  19.660077     1.4163      8.369   243.4831 4.5519e+02     3.5925     -0.141     -0.205     7.3246 0.0000e+00
     -0.120      0.080    12.1947    101.225     30.457  19.689839     1.4389      8.369   243.5523 4.2005e+02     3.5353     -0.121     -0.175     7.3267 0.0000e+00
     -0.092      0.095    12.1978    101.238     30.464  19.696650     1.4545      8.369   243.7097 4.1208e+02     3.4723     -0.091     -0.132     7.3291 0.0000e+00
     -0.059      0.103    12.1963    101.280     30.430  19.679033     1.4641      8.369   243.6651 3.7525e+02     3.4793     -0.058     -0.084     7.3307 0.0000e+00
     -0.028      0.100    12.1895    101.324     30.407  19.667038     1.4801      8.370   243.5285 3.0578e+02     3.5172     -0.027     -0.039     7.3246 0.0000e+00
     -0.000      0.089    12.1879    101.363     30.422  19.678424     1.5057      8.372   243.6073 2.7380e+02     3.5207      0.001      0.001     7.3202 0.0000e+00
      0.025      0.074    12.1875    101.411     30.440  19.689904     1.5411      8.372   243.7572 2.7550e+02     3.4875      0.026      0.038     7.3257 0.0000e+00
      0.042      0.062    12.1919    101.462     30.426  19.679034     1.5671      8.372   243.7922 2.6325e+02     3.4918      0.046      0.066     7.3337 0.0000e+00
      0.048      0.053    12.1961    101.475     30.423  19.673795     1.5785      8.373   243.7732 2.6028e+02     3.5733      0.049      0.071     7.3393 0.0000e+00
      0.051      0.046    12.1988    101.430     30.456  19.689953     1.6116      8.375   243.8712 2.5275e+02     3.6180      0.046      0.068     7.3412 0.0000e+00
      0.061      0.040    12.2048    101.355     30.457  19.684190     1.6604      8.375   244.0298 2.0483e+02     3.5880      0.057      0.083     7.3407 0.0000e+00
      0.078      0.032    12.2137    101.265     30.441  19.667517     1.6766      8.376   244.0567 1.6167e+02     3.5866      0.077      0.113     7.3397 0.0000e+00
      0.094      0.024    12.2188    101.182     30.461  19.678557     1.6821      8.376   244.0246 1.4515e+02     3.6351      0.095      0.138     7.3340 0.0000e+00
      0.102      0.017    12.2128    101.141     30.476  19.690877     1.7021      8.376   244.1581 1.3328e+02     3.5944      0.103      0.149     7.3238 0.0000e+00
      0.100      0.014    12.2083    101.147     30.471  19.689667     1.7112      8.376   244.2942 1.2409e+02     3.5038      0.101      0.147     7.3125 0.0000e+00
      0.092      0.018    12.2001    101.181     30.433  19.663935     1.7248      8.377   244.2069 1.1848e+02     3.5643      0.089      0.130     7.2998 0.0000e+00
      0.085      0.030    12.1891    101.222     30.391  19.633353     1.7508      8.377   244.1350 1.1373e+02     3.6778      0.081      0.116     7.2962 0.0000e+00
      0.090      0.046    12.1815    101.251     30.402  19.636917     1.7584      8.377   244.1140 1.1178e+02     3.6796      0.081      0.118     7.3046 0.0000e+00
      0.111      0.063    12.1822    101.259     30.417  19.643616     1.7589      8.377   244.2100 1.1331e+02     3.6205      0.104      0.152     7.3098 0.0000e+00
      0.143      0.078    12.1875    101.268     30.432  19.650944     1.7735      8.377   244.6075 1.1679e+02     3.5440      0.141      0.206     7.3065 0.0000e+00
      0.172      0.087    12.1953    101.275     30.452  19.662108     1.8017      8.377   244.9623 1.2189e+02     3.5063      0.171      0.249     7.3006 0.0000e+00
      0.193      0.088    12.2022    101.276     30.440  19.651799     1.8336      8.377   245.1443 1.2559e+02     3.5743      0.191      0.277     7.2937 0.0000e+00
      0.210      0.080    12.2025    101.286     30.446  19.653105     1.8605      8.378   245.2590 1.2734e+02     3.6143      0.202      0.294     7.2870 0.0000e+00
      0.230      0.067    12.2053    101.308     30.485  19.677893     1.8935      8.378   245.2308 1.2899e+02     3.5468      0.224      0.326     7.2850 0.0000e+00
      0.252      0.052    12.2068    101.320     30.512  19.697899     1.9162      8.379   245.3204 1.2724e+02     3.5098      0.249      0.362     7.2837 0.0000e+00
      0.268      0.040    12.2078    101.315     30.519  19.704795     1.9181      8.379   245.7402 1.2141e+02     3.5424      0.265      0.385     7.2771 0.0000e+00
      0.275      0.033    12.2101    101.311     30.507  19.697878     1.9332      8.378   246.1767 1.1638e+02     3.5647      0.274      0.397     7.2715 0.0000e+00
      0.273      0.028    12.2148    101.304     30.476  19.677664     1.9654      8.377   246.4676 1.1231e+02     3.5400      0.268      0.389     7.2718 0.0000e+00
      0.269      0.028    12.2149    101.288     30.436  19.650589     1.9907      8.378   246.7625 1.0891e+02     3.5516      0.260      0.377     7.2767 0.0000e+00
      0.275      0.033    12.2109    101.265     30.398  19.624134     2.0072      8.380   247.0749 1.0655e+02     3.6023      0.264      0.383     7.2823 0.0000e+00
      0.291      0.042    12.2107    101.229     30.381  19.611396     2.0483      8.381   247.3200 1.0475e+02     3.5723      0.285      0.415     7.2843 0.0000e+00
      0.308      0.055    12.2106    101.179     30.403  19.623381     2.1124      8.381   247.5754 1.0490e+02     3.5308      0.305      0.443     7.2830 0.0000e+00
      0.322      0.070    12.2090    101.127     30.437  19.642234     2.1419      8.383   247.9255 1.0753e+02     3.5100      0.316      0.458     7.2799 0.0000e+00
      0.334      0.080    12.2076    101.077     30.454  19.649142     2.1467      8.384   248.1970 1.1071e+02     3.4576      0.325      0.472     7.2774 0.0000e+00
      0.354      0.084    12.2043    101.030     30.451  19.643492     2.1539      8.384   248.2767 1.1230e+02     3.4440      0.342      0.498     7.2751 0.0000e+00
      0.384      0.085    12.1984    100.983     30.444  19.637318     2.1866      8.384   248.3735 1.1226e+02     3.4485      0.376      0.546     7.2707 0.0000e+00
      0.415      0.085    12.1940    100.941     30.447  19.637891     2.2599      8.384   248.5926 1.1158e+02     3.4773      0.411      0.595     7.2652 0.0000e+00
      0.439      0.081    12.1901    100.950     30.467  19.650419     2.3154      8.386   248.7743 1.1018e+02     3.5535      0.434      0.629     7.2581 0.0000e+00
      0.454      0.077    12.1860    101.012     30.485  19.661994     2.3428      8.387   248.9359 1.0711e+02     3.5504      0.446      0.647     7.2519 0.0000e+00
      0.467      0.074    12.1824    101.064     30.469  19.651038     2.3998      8.387   249.0838 1.0309e+02     3.4738      0.457      0.662     7.2489 0.0000e+00
      0.481      0.073    12.1747    101.108     30.461  19.644750     2.4966      8.388   249.1865 9.9625e+01     3.4478      0.472      0.684     7.2474 0.0000e+00
      0.498      0.073    12.1740    101.169     30.470  19.649371     2.5643      8.388   249.4031 9.7117e+01     3.4742      0.487      0.705     7.2465 0.0000e+00
      0.522      0.073    12.1883    101.231     30.463  19.643503     2.5851      8.389   249.6390 9.5436e+01     3.5198      0.509      0.738     7.2464 0.0000e+00
      0.549      0.071    12.1924    101.267     30.454  19.637206     2.6406      8.390   249.7145 9.4777e+01     3.5556      0.542      0.786     7.2462 0.0000e+00
      0.570      0.067    12.1964    101.279     30.454  19.636634     2.7358      8.390   249.8003 9.4955e+01     3.5313      0.563      0.816     7.2443 0.0000e+00
      0.581      0.063    12.2066    101.314     30.454  19.636586     2.7950      8.391   249.9872 9.5611e+01     3.5330      0.570      0.827     7.2412 0.0000e+00
      0.590      0.057    12.2151    101.346     30.454  19.636624     2.8243      8.392   250.0815 9.6550e+01     3.5758      0.577      0.837     7.2390 0.0000e+00
      0.601      0.052    12.2219    101.323     30.455  19.637090     2.8731      8.392   250.0805 9.7073e+01     3.5367      0.588      0.852     7.2383 0.0000e+00
      0.617      0.048    12.2180    101.274     30.463  19.642224     2.9359      8.392   250.1469 9.6879e+01     3.4702      0.604      0.877     7.2381 0.0000e+00
      0.635      0.044    12.2244    101.245     30.452  19.635299     2.9675      8.392   250.2819 9.5979e+01     3.4549      0.626      0.907     7.2376 0.0000e+00
      0.648      0.042    12.2331    101.232     30.423  19.616761     2.9810      8.393   250.4232 9.4466e+01     3.4886      0.640      0.927     7.2373 0.0000e+00
      0.653      0.041    12.2269    101.193     30.412  19.608282     3.0075      8.394   250.5640 9.3481e+01     3.5361      0.642      0.930     7.2375 0.0000e+00
      0.657      0.040    12.2185    101.128     30.398  19.596183     3.0300      8.394   250.6936 9.3627e+01     3.5166      0.643      0.932     7.2380 0.0000e+00
      0.665      0.040    12.2152    101.082     30.406  19.597275     3.0440      8.395   250.7859 9.3892e+01     3.4911      0.649      0.943     7.2382 0.0000e+00
      0.679      0.040    12.2166    101.072     30.449  19.621476     3.0522      8.397   250.9056 9.3876e+01     3.5359      0.664      0.964     7.2382 0.0000e+00
      0.695      0.041    12.2124    101.059     30.473  19.635194     3.0543      8.398   251.0221 9.4402e+01     3.5456      0.683      0.991     7.2370 0.0000e+00
      0.708      0.041    12.2033    101.059     30.475  19.636339     3.0867      8.397   251.0757 9.5191e+01     3.5059      0.696      1.009     7.2314 0.0000e+00
      0.716      0.039    12.1981    101.100     30.474  19.635309     3.1607      8.396   251.2105 9.5187e+01     3.4997      0.703      1.020     7.2234 0.0000e+00
      0.722      0.037    12.2033    101.135     30.455  19.622744     3.2163      8.397   251.3615 9.4626e+01     3.5394      0.707      1.026     7.2176 0.0000e+00
      0.729      0.036    12.2013    101.153     30.439  19.611217     3.2435      8.398   251.3523 9.3977e+01     3.6098      0.713      1.033     7.2150 0.0000e+00
      0.739      0.038    12.1967    101.173     30.458  19.622745     3.2897      8.399   251.3576 9.3565e+01     3.6673      0.725      1.051     7.2145 0.0000e+00
      0.750      0.042    12.2082    101.156     30.479  19.635311     3.3504      8.399   251.5121 9.3359e+01     3.7229      0.736      1.068     7.2143 0.0000e+00
      0.761      0.048    12.2116    101.103     30.484  19.636349     3.3861      8.399   251.6707 9.3229e+01     3.8037      0.745      1.080     7.2137 0.0000e+00
      0.773      0.054    12.2117    101.080     30.488  19.635300     3.4136      8.400   251.7270 9.3376e+01     3.8587      0.758      1.099     7.2124 0.0000e+00
      0.786      0.059    12.2183    101.080     30.474  19.622620     3.5166      8.401   251.8480 9.3527e+01     3.8408      0.771      1.119     7.2111 0.0000e+00
      0.802      0.061    12.2173    101.061     30.459  19.609836     3.6657      8.402   252.1876 9.3542e+01     3.7925      0.784      1.138     7.2099 0.0000e+00
      0.822      0.060    12.2061    101.050     30.459  19.607531     3.7266      8.402   252.4780 9.3657e+01     3.7873      0.808      1.171     7.2063 0.0000e+00
      0.842      0.056    12.2063    101.069     30.439  19.594747     3.7370      8.403   252.5190 9.3943e+01     3.8122      0.830      1.203     7.2005 0.0000e+00
      0.856      0.050    12.2124    101.105     30.418  19.582067     3.7752      8.403   252.5113 9.4358e+01     3.7173      0.840      1.220     7.1936 0.0000e+00
      0.866      0.044    12.2088    101.140     30.415  19.581027     3.7962      8.403   252.5577 9.5055e+01     3.5280      0.849      1.233     7.1871 0.0000e+00
      0.873      0.037    12.2073    101.169     30.416  19.582170     3.7919      8.403   252.5634 9.5996e+01     3.4711      0.856      1.242     7.1844 0.0000e+00
      0.880      0.030    12.2105    101.199     30.438  19.595890     3.7978      8.402   252.5795 9.6841e+01     3.5419      0.862      1.251     7.1854 0.0000e+00
      0.889      0.025    12.2149    101.233     30.476  19.620105     3.8090      8.402   252.6666 9.7435e+01     3.5979      0.873      1.265     7.1870 0.0000e+00
      0.897      0.020    12.2196    101.257     30.480  19.621352     3.8107      8.403   252.7571 9.7675e+01     3.5681      0.881      1.277     7.1883 0.0000e+00
      0.903      0.015    12.2221    101.247     30.465  19.610969     3.8020      8.405   252.8129 9.7935e+01     3.4881      0.887      1.286     7.1885 0.0000e+00
      0.905      0.012    12.2255    101.206     30.483  19.621364     3.7957      8.407   252.8250 9.8385e+01     3.4852      0.890      1.290     7.1881 0.0000e+00
      0.904      0.013    12.2309    101.178     30.481  19.620221     3.8096      8.407   252.9037 9.8816e+01     3.5676      0.886      1.285     7.1877 0.0000e+00
      0.903      0.019    12.2349    101.184     30.445  19.597156     3.8540      8.407   253.0758 9.9300e+01     3.5954      0.884      1.282     7.1861 0.0000e+00
      0.905      0.028    12.2357    101.204     30.442  19.596097     3.9158      8.407   253.1849 9.9396e+01     3.5488      0.885      1.284     7.1840 0.0000e+00
      0.913      0.039    12.2272    101.203     30.461  19.607417     3.9658      8.407   253.1901 9.8961e+01     3.5501      0.892      1.293     7.1824 0.0000e+00
      0.928      0.051    12.2236    101.169     30.462  19.607218     4.0011      8.407   253.1386 9.8682e+01     3.6112      0.909      1.318     7.1822 0.0000e+00
      0.947      0.063    12.2246    101.117     30.443  19.593688     4.0592      8.406   253.1649 9.8217e+01     3.6730      0.930      1.349     7.1835 0.0000e+00
      0.964      0.073    12.2292    101.069     30.410  19.570633     4.1436      8.406   253.2502 9.7060e+01     3.7161      0.945      1.370     7.1840 0.0000e+00
      0.982      0.081    12.2300    101.049     30.430  19.582067     4.1896      8.407   253.3093 9.6283e+01     3.7570      0.961      1.393     7.1834 0.0000e+00
      1.002      0.085    12.2241    101.020     30.469  19.605122     4.2077      8.408   253.4491 9.5813e+01     3.7918      0.981      1.424     7.1822 0.0000e+00
      1.026      0.083    12.2200    100.973     30.458  19.595787     4.2624      8.409   253.5638 9.4957e+01     3.6931      1.004      1.456     7.1792 0.0000e+00
      1.053      0.078    12.2106    100.963     30.460  19.595995     4.3352      8.409   253.5780 9.3879e+01     3.5194      1.033      1.498     7.1761 0.0000e+00
      1.079      0.070    12.2135    101.018     30.479  19.607635     4.3810      8.410   253.6205 9.3399e+01     3.5019      1.062      1.541     7.1737 0.0000e+00
      1.097      0.062    12.2123    101.122     30.482  19.609723     4.3990      8.411   253.7334 9.3620e+01     3.5849      1.080      1.568     7.1701 0.0000e+00
      1.105      0.053    12.2020    101.184     30.501  19.621241     4.4361      8.411   253.8245 9.3495e+01     3.6684      1.085      1.574     7.1663 0.0000e+00
      1.110      0.045    12.2031    101.175     30.502  19.620097     4.5056      8.412   253.8625 9.3190e+01     3.7258      1.085      1.574     7.1639 0.0000e+00
      1.120      0.041    12.2070    101.147     30.466  19.595890     4.5320      8.413   253.9337 9.2946e+01     3.6979      1.095      1.588     7.1639 0.0000e+00
      1.134      0.042    12.2271    101.135     30.446  19.582162     4.5303      8.413   253.9977 9.2797e+01     3.7078      1.113      1.614     7.1650 0.0000e+00
      1.146      0.047    12.2363    101.149     30.444  19.580914     4.5434      8.413   254.0340 9.2739e+01     3.7767      1.125      1.632     7.1632 0.0000e+00
      1.156      0.054    12.2307    101.124     30.445  19.580801     4.5401      8.414   254.1145 9.3035e+01     3.7787      1.132      1.642     7.1597 0.0000e+00
      1.167      0.063    12.2300    101.061     30.446  19.580792     4.5329      8.414   254.1961 9.2924e+01     3.7326      1.144      1.659     7.1579 0.0000e+00
      1.181      0.073    12.2235    101.028     30.447  19.580800     4.5309      8.413   254.1605 9.1920e+01     3.6967      1.158      1.679     7.1572 0.0000e+00
      1.200      0.081    12.2332    101.027     30.448  19.580905     4.5322      8.413   254.1149 9.0650e+01     3.7210      1.174      1.702     7.1565 0.0000e+00
      1.226      0.086    12.2296    101.009     30.450  19.582058     4.5487      8.414   254.1605 8.9198e+01     3.7195      1.200      1.740     7.1559 0.0000e+00
      1.258      0.086    12.2161    100.972     30.469  19.594738     4.5556      8.416   254.1960 8.8500e+01     3.5764      1.236      1.791     7.1553 0.0000e+00
      1.285      0.082    12.2146    100.984     30.489  19.607418     4.5403      8.416   254.1997 8.8759e+01     3.4599      1.264      1.834     7.1540 0.0000e+00
      1.303      0.074    12.2163    101.037     30.490  19.608571     4.5384      8.416   254.2908 8.8719e+01     3.5057      1.279      1.856     7.1531 0.0000e+00
      1.315      0.063    12.2173    101.076     30.490  19.608676     4.5586      8.417   254.4375 8.8620e+01     3.5494      1.289      1.870     7.1529 0.0000e+00
      1.328      0.051    12.2045    101.075     30.490  19.608685     4.5847      8.417   254.4245 8.8714e+01     3.5097      1.302      1.888     7.1531 0.0000e+00
      1.341      0.042    12.2092    101.068     30.490  19.608676     4.5967      8.417   254.3062 8.8239e+01     3.4704      1.315      1.907     7.1535 0.0000e+00
      1.353      0.038    12.2177    101.070     30.490  19.608571     4.5867      8.418   254.2970 8.7878e+01     3.4835      1.328      1.927     7.1535 0.0000e+00
      1.361      0.038    12.2242    101.044     30.488  19.607418     4.5887      8.418   254.3991 8.8627e+01     3.5660      1.338      1.941     7.1536 0.0000e+00
      1.365      0.043    12.2223    101.042     30.468  19.594739     4.6034      8.418   254.5954 9.0289e+01     3.5793      1.338      1.942     7.1537 0.0000e+00
      1.370      0.050    12.2174    101.064     30.448  19.582069     4.5978      8.419   254.7770 9.0482e+01     3.4737      1.340      1.944     7.1538 0.0000e+00
      1.383      0.058    12.2254    101.014     30.446  19.581020     4.5883      8.419   254.7880 8.9102e+01     3.4508      1.353      1.962     7.1542 0.0000e+00
      1.404      0.066    12.2153    100.949     30.449  19.582058     4.5882      8.418   254.8144 8.7731e+01     3.5409      1.376      1.996     7.1547 0.0000e+00
      1.429      0.070    12.2130    100.936     30.469  19.594624     4.5795      8.418   254.9246 8.6356e+01     3.6075      1.403      2.035     7.1548 0.0000e+00
      1.451      0.069    12.2271    100.906     30.487  19.606151     4.5667      8.419   255.0018 8.5355e+01     3.6070      1.425      2.067     7.1546 0.0000e+00
      1.469      0.062    12.2146    100.876     30.469  19.594622     4.5577      8.421   255.0593 8.4549e+01     3.5352      1.441      2.090     7.1545 0.0000e+00
      1.484      0.053    12.1996    100.875     30.449  19.582037     4.5550      8.421   255.0175 8.3885e+01     3.4564      1.456      2.112     7.1543 0.0000e+00
      1.496      0.048    12.2091    100.850     30.447  19.580791     4.6000      8.421   254.9266 8.3730e+01     3.4404      1.469      2.131     7.1540 0.0000e+00
      1.502      0.047    12.2007    100.863     30.445  19.579552     4.6776      8.421   254.9926 8.3759e+01     3.4431      1.474      2.138     7.1538 0.0000e+00
      1.507      0.049    12.1934    100.975     30.426  19.567062     4.7028      8.421   255.0408 8.3279e+01     3.4894      1.475      2.139     7.1537 0.0000e+00
      1.519      0.054    12.2017    101.064     30.410  19.556573     4.7038      8.420   254.9934 8.1985e+01     3.5907      1.485      2.155     7.1538 0.0000e+00
      1.539      0.061    12.1930    101.025     30.446  19.579533     4.7486      8.420   255.1084 8.0792e+01     3.6437      1.510      2.190     7.1539 0.0000e+00
      1.558      0.069    12.1877    100.939     30.465  19.591060     4.8033      8.421   255.3120 8.0457e+01     3.6176      1.530      2.219     7.1538 0.0000e+00
      1.574      0.074    12.2112    100.920     30.431  19.569149     4.8158      8.422   255.3897 7.9713e+01     3.5485      1.540      2.235     7.1534 0.0000e+00
      1.594      0.075    12.2284    100.955     30.430  19.568206     4.8078      8.423   255.3606 7.8158e+01     3.5241      1.561      2.264     7.1526 0.0000e+00
      1.617      0.070    12.2188    101.015     30.449  19.579658     4.8154      8.424   255.3045 7.6947e+01     3.5621      1.588      2.303     7.1524 0.0000e+00
      1.638      0.062    12.1995    101.095     30.452  19.580812     4.8247      8.425   255.2274 7.6116e+01     3.5639      1.607      2.331     7.1528 0.0000e+00
      1.654      0.052    12.2013    101.159     30.454  19.582152     4.8118      8.426   255.2031 7.5417e+01     3.5114      1.622      2.353     7.1523 0.0000e+00
      1.667      0.042    12.2084    101.207     30.476  19.595870     4.8094      8.426   255.3538 7.5050e+01     3.5094      1.638      2.376     7.1505 0.0000e+00
      1.674      0.036    12.2127    101.206     30.513  19.619870     4.8622      8.426   255.5872 7.5171e+01     3.5733      1.646      2.387     7.1492 0.0000e+00
      1.674      0.034    12.2284    101.103     30.512  19.618727     4.9255      8.426   255.7022 7.5423e+01     3.6013      1.640      2.379     7.1482 0.0000e+00
      1.676      0.035    12.2334    101.008     30.457  19.582048     4.9422      8.427   255.7119 7.5046e+01     3.5738      1.639      2.377     7.1479 0.0000e+00
      1.688      0.039    12.2393    100.964     30.420  19.556803     4.9307      8.427   255.7043 7.4090e+01     3.5147      1.653      2.398     7.1482 0.0000e+00
      1.705      0.046    12.2477    100.891     30.439  19.567084     4.9118      8.427   255.6106 7.3227e+01     3.5010      1.673      2.426     7.1482 0.0000e+00
      1.721      0.056    12.2251    100.809     30.463  19.579546     4.8723      8.427   255.5257 7.2800e+01     3.5447      1.689      2.450     7.1475 0.0000e+00
      1.731      0.063    12.2102    100.736     30.469  19.580679     4.8275      8.427   255.6241 7.2292e+01     3.5315      1.697      2.461     7.1449 0.0000e+00
      1.743      0.066    12.2171    100.696     30.473  19.580782     4.8114      8.427   255.7681 7.1187e+01     3.5118      1.707      2.475     7.1422 0.0000e+00
      1.763      0.069    12.2018    100.742     30.476  19.580791     4.8184      8.428   255.8899 6.9796e+01     3.5461      1.728      2.507     7.1402 0.0000e+00
      1.786      0.071    12.1943    100.797     30.478  19.580783     4.8376      8.429   255.9782 6.8578e+01     3.5693      1.754      2.543     7.1364 0.0000e+00
      1.805      0.070    12.1881    100.791     30.478  19.580679     4.8684      8.428   255.9748 6.7634e+01     3.5541      1.772      2.570     7.1311 0.0000e+00
      1.823      0.066    12.1766    100.788     30.478  19.579535     4.8825      8.428   256.0208 6.6622e+01     3.4983      1.787      2.590     7.1264 0.0000e+00
      1.842      0.064    12.1907    100.827     30.459  19.566960     4.8835      8.429   256.1044 6.5528e+01     3.5094      1.807      2.621     7.1232 0.0000e+00
      1.858      0.068    12.2030    100.863     30.442  19.555433     4.8971      8.430   256.1249 6.4936e+01     3.6554      1.826      2.649     7.1212 0.0000e+00
      1.867      0.074    12.1964    100.884     30.462  19.566959     4.8971      8.430   256.1827 6.4600e+01     3.7600      1.829      2.652     7.1197 0.0000e+00
      1.878      0.079    12.1940    100.895     30.483  19.579525     4.8754      8.430   256.2869 6.3464e+01     3.7486      1.835      2.662     7.1187 0.0000e+00
      1.903      0.079    12.2036    100.882     30.485  19.580564     4.8590      8.431   256.3526 6.1428e+01     3.7570      1.863      2.701     7.1185 0.0000e+00
      1.938      0.077    12.2073    100.864     30.484  19.579515     4.8487      8.432   256.3748 5.9573e+01     3.7254      1.903      2.760     7.1182 0.0000e+00
      1.967      0.075    12.2096    100.856     30.464  19.566836     4.8431      8.432   256.3831 5.8548e+01     3.6049      1.936      2.808     7.1162 0.0000e+00
      1.981      0.071    12.2135    100.806     30.444  19.554072     4.8327      8.432   256.3677 5.8197e+01     3.5300      1.947      2.824     7.1140 0.0000e+00
      1.985      0.067    12.2113    100.744     30.441  19.551985     4.8140      8.432   256.3606 5.7852e+01     3.5374      1.945      2.820     7.1123 0.0000e+00
      1.995      0.067    12.2064    100.774     30.426  19.541600     4.8172      8.433   256.4690 5.7033e+01     3.6256      1.953      2.833     7.1117 0.0000e+00
      2.013      0.071    12.2103    100.864     30.449  19.555319     4.8288      8.433   256.5596 5.6011e+01     3.7094      1.973      2.863     7.1131 0.0000e+00
      2.035      0.075    12.2043    100.908     30.506  19.591054     4.8223      8.433   256.5102 5.4922e+01     3.6960      1.993      2.891     7.1136 0.0000e+00
      2.062      0.074    12.1863    100.896     30.511  19.593255     4.8220      8.433   256.4742 5.3726e+01     3.6689      2.021      2.931     7.1127 0.0000e+00
      2.089      0.066    12.1954    100.870     30.493  19.581926     4.8331      8.434   256.5533 5.2596e+01     3.6549      2.052      2.978     7.1112 0.0000e+00
      2.109      0.057    12.2124    100.803     30.491  19.580887     4.8401      8.435   256.6932 5.1985e+01     3.5944      2.072      3.007     7.1091 0.0000e+00
      2.116      0.051    12.2195    100.706     30.490  19.580689     4.8321      8.435   256.7893 5.2002e+01     3.5188      2.079      3.016     7.1074 0.0000e+00
      2.115      0.048    12.2118    100.610     30.488  19.579536     4.8107      8.434   256.8548 5.2054e+01     3.4573      2.074      3.008     7.1065 0.0000e+00
      2.118      0.048    12.2144    100.521     30.469  19.566951     4.8062      8.434   256.8832 5.1513e+01     3.4667      2.071      3.003     7.1064 0.0000e+00
      2.134      0.053    12.2044    100.483     30.451  19.555320     4.8452      8.434   256.8739 5.0401e+01     3.5641      2.090      3.031     7.1072 0.0000e+00
      2.159      0.060    12.1889    100.478     30.468  19.565704     4.8991      8.436   256.9145 4.9399e+01     3.5759      2.121      3.076     7.1082 0.0000e+00
      2.180      0.067    12.1813    100.479     30.469  19.565704     4.9162      8.436   256.9438 4.8790e+01     3.4716      2.141      3.105     7.1085 0.0000e+00
      2.195      0.072    12.1634    100.544     30.453  19.555319     4.9189      8.436   256.9697 4.8333e+01     3.4307      2.153      3.123     7.1080 0.0000e+00
      2.209      0.073    12.1632    100.689     30.473  19.566940     4.9399      8.437   257.0554 4.7818e+01     3.4919      2.166      3.141     7.1073 0.0000e+00
      2.225      0.074    12.1642    100.769     30.494  19.579411     4.9615      8.438   257.1201 4.7046e+01     3.5628      2.180      3.161     7.1068 0.0000e+00
      2.246      0.077    12.1618    100.758     30.496  19.579298     4.9559      8.438   257.1493 4.6082e+01     3.5694      2.201      3.193     7.1061 0.0000e+00
      2.270      0.082    12.1639    100.744     30.476  19.565580     4.9308      8.438   257.2369 4.5176e+01     3.5382      2.227      3.230     7.1057 0.0000e+00
      2.291      0.086    12.1955    100.713     30.438  19.540342     4.9157      8.438   257.3191 4.4428e+01     3.5275      2.248      3.260     7.1043 0.0000e+00
      2.312      0.086    12.2072    100.685     30.420  19.527758     4.9072      8.439   257.2821 4.3612e+01     3.5084      2.265      3.285     7.1014 0.0000e+00
      2.335      0.082    12.1949    100.667     30.440  19.540229     4.9023      8.439   257.2200 4.2648e+01     3.5115      2.290      3.321     7.0992 0.0000e+00
      2.360      0.075    12.2022    100.612     30.478  19.564322     4.8982      8.439   257.1707 4.1808e+01     3.5307      2.317      3.360     7.0981 0.0000e+00
      2.380      0.068    12.1939    100.557     30.480  19.565456     4.9159      8.440   257.1164 4.1118e+01     3.6382      2.335      3.385     7.0967 0.0000e+00
      2.396      0.061    12.1899    100.552     30.462  19.553938     4.9664      8.440   257.1654 4.0642e+01     3.8888      2.351      3.409     7.0955 0.0000e+00
      2.407      0.055    12.1937    100.565     30.460  19.551861     4.9848      8.440   257.2469 4.0362e+01     3.9990      2.362      3.426     7.0948 0.0000e+00
      2.417      0.052    12.1837    100.553     30.443  19.540343     4.9715      8.440   257.2417 4.0002e+01     3.9461      2.368      3.434     7.0940 0.0000e+00
      2.427      0.052    12.1732    100.531     30.446  19.541477     4.9723      8.441   257.2737 3.9565e+01     3.8980      2.380      3.450     7.0937 0.0000e+00
      2.440      0.055    12.1755    100.507     30.487  19.565570     4.9941      8.442   257.3765 3.9120e+01     3.7931      2.392      3.469     7.0938 0.0000e+00
      2.455      0.058    12.1808    100.461     30.511  19.578042     5.0349      8.442   257.4527 3.8570e+01     3.6682      2.407      3.491     7.0929 0.0000e+00
      2.473      0.061    12.1765    100.406     30.496  19.565467     5.0580      8.442   257.4198 3.7996e+01     3.5838      2.426      3.519     7.0923 0.0000e+00
      2.490      0.061    12.1741    100.375     30.459  19.540334     5.0411      8.443   257.4086 3.7575e+01     3.4907      2.443      3.543     7.0917 0.0000e+00
      2.505      0.057    12.1745    100.352     30.440  19.527758     4.9880      8.443   257.5752 3.7176e+01     3.4640      2.456      3.562     7.0873 0.0000e+00
      2.521      0.050    12.1698    100.302     30.459  19.540221     4.9320      8.443   257.7142 3.6698e+01     3.5000      2.471      3.584     7.0816 0.0000e+00
      2.536      0.042    12.1620    100.244     30.495  19.564219     4.9053      8.443   257.7127 3.6313e+01     3.4822      2.489      3.610     7.0772 0.0000e+00
      2.546      0.036    12.1596    100.201     30.494  19.564313     4.8899      8.443   257.6431 3.6179e+01     3.4532      2.500      3.625     7.0743 0.0000e+00
      2.551      0.033    12.1611    100.178     30.457  19.541353     4.9118      8.443   257.5606 3.6236e+01     3.4908      2.502      3.628     7.0735 0.0000e+00
      2.553      0.033    12.1521    100.184     30.455  19.540219     4.9710      8.442   257.5765 3.6189e+01     3.5619      2.502      3.629     7.0740 0.0000e+00
      2.558      0.035    12.1431    100.198     30.471  19.550604     4.9984      8.442   257.6621 3.5891e+01     3.5611      2.506      3.636     7.0757 0.0000e+00
      2.570      0.040    12.1390    100.197     30.456  19.540107     4.9929      8.442   257.7360 3.5423e+01     3.5161      2.519      3.654     7.0777 0.0000e+00
      2.585      0.047    12.1334    100.212     30.459  19.540106     4.9955      8.443   257.7814 3.4973e+01     3.5299      2.536      3.678     7.0791 0.0000e+00
      2.598      0.053    12.1358    100.256     30.478  19.550595     5.0135      8.444   257.7809 3.4688e+01     3.5904      2.550      3.699     7.0792 0.0000e+00
      2.610      0.056    12.1401    100.316     30.463  19.540116     5.0200      8.445   257.7299 3.4366e+01     3.5992      2.559      3.711     7.0788 0.0000e+00
      2.625      0.056    12.1367    100.369     30.463  19.540211     5.0070      8.445   257.6811 3.3858e+01     3.5339      2.572      3.732     7.0779 0.0000e+00
      2.643      0.057    12.1393    100.380     30.481  19.551748     5.0222      8.445   257.7070 3.3403e+01     3.5180      2.594      3.762     7.0746 0.0000e+00
      2.658      0.057    12.1472    100.366     30.483  19.552797     5.0632      8.445   257.7848 3.3093e+01     3.5776      2.608      3.782     7.0710 0.0000e+00
      2.670      0.057    12.1541    100.349     30.484  19.552892     5.0778      8.445   257.8471 3.2749e+01     3.6057      2.616      3.796     7.0703 0.0000e+00
      2.684      0.054    12.1645    100.313     30.484  19.552900     5.0655      8.445   257.8580 3.2303e+01     3.5506      2.631      3.816     7.0709 0.0000e+00
      2.701      0.053    12.1637    100.266     30.484  19.552891     5.0485      8.446   257.9167 3.1893e+01     3.4920      2.650      3.843     7.0701 0.0000e+00
      2.715      0.054    12.1601    100.222     30.485  19.552796     5.1040      8.447   258.0403 3.1639e+01     3.5114      2.664      3.866     7.0695 0.0000e+00
      2.725      0.056    12.1612    100.189     30.486  19.551747     5.2297      8.448   258.0623 3.1390e+01     3.5466      2.673      3.876     7.0692 0.0000e+00
      2.737      0.057    12.1549    100.176     30.475  19.540210     5.2866      8.448   258.0098 3.0972e+01     3.5076      2.682      3.889     7.0685 0.0000e+00
      2.753      0.057    12.1496    100.182     30.483  19.540096     5.2755      8.448   258.0947 3.0448e+01     3.4841      2.700      3.915     7.0681 0.0000e+00
      2.772      0.057    12.1436    100.186     30.506  19.550368     5.2959      8.449   258.2278 2.9971e+01     3.5356      2.719      3.943     7.0682 0.0000e+00
      2.788      0.056    12.1397    100.187     30.491  19.537593     5.3580      8.449   258.2423 2.9632e+01     3.5494      2.735      3.966     7.0664 0.0000e+00
      2.801      0.053    12.1400    100.200     30.455  19.512432     5.4016      8.449   258.1843 2.9342e+01     3.5142      2.747      3.984     7.0587 0.0000e+00
      2.813      0.051    12.1454    100.202     30.437  19.499761     5.3992      8.449   258.1293 2.9033e+01     3.4853      2.759      4.002     7.0485 0.0000e+00
      2.824      0.051    12.1492    100.197     30.457  19.511186     5.3289      8.449   258.1796 2.8840e+01     3.5079      2.771      4.020     7.0408 0.0000e+00
      2.834      0.053    12.1473    100.184     30.477  19.523761     5.2085      8.449   258.2762 2.8659e+01     3.5479      2.778      4.030     7.0356 0.0000e+00
      2.847      0.058    12.1540    100.138     30.480  19.525008     5.1344      8.449   258.3513 2.8243e+01     3.5250      2.789      4.045     7.0333 0.0000e+00
      2.863      0.062    12.1529    100.073     30.485  19.526254     5.1152      8.449   258.3990 2.7736e+01     3.5041      2.809      4.072     7.0316 0.0000e+00
      2.883      0.065    12.1525    100.018     30.509  19.538830     5.1507      8.449   258.4230 2.7302e+01     3.5691      2.828      4.101     7.0288 0.0000e+00
      2.902      0.065    12.1542     99.972     30.530  19.550254     5.2315      8.449   258.4689 2.6869e+01     3.6957      2.846      4.127     7.0278 0.0000e+00
      2.921      0.062    12.1465     99.908     30.512  19.537574     5.2848      8.450   258.5244 2.6471e+01     3.8059      2.866      4.155     7.0287 0.0000e+00
      2.937      0.056    12.1386     99.827     30.473  19.512320     5.2950      8.451   258.5769 2.6214e+01     3.8084      2.882      4.180     7.0256 0.0000e+00
      2.949      0.051    12.1329     99.765     30.451  19.498515     5.2802      8.451   258.5877 2.6010e+01     3.7597      2.892      4.195     7.0197 0.0000e+00
      2.960      0.046    12.1309     99.743     30.448  19.497467     5.2890      8.451   258.5691 2.5780e+01     3.7980      2.903      4.210     7.0158 0.0000e+00
      2.970      0.043    12.1237     99.749     30.450  19.499649     5.3273      8.451   258.5240 2.5574e+01     3.8269      2.913      4.226     7.0138 0.0000e+00
      2.979      0.043    12.1119     99.778     30.487  19.524894     5.3351      8.451   258.4725 2.5369e+01     3.7679      2.921      4.237     7.0130 0.0000e+00
      2.988      0.046    12.1029     99.808     30.524  19.549100     5.3241      8.451   258.5495 2.5127e+01     3.7334      2.930      4.249     7.0139 0.0000e+00
      3.000      0.050    12.1012     99.823     30.509  19.538725     5.3528      8.452   258.6803 2.4846e+01     3.7857      2.942      4.268     7.0155 0.0000e+00
      3.014      0.054    12.1007     99.841     30.491  19.526255     5.4167      8.452   258.7630 2.4535e+01     3.8532      2.955      4.287     7.0173 0.0000e+00
      3.029      0.058    12.1045     99.856     30.491  19.525121     5.4634      8.452   258.8614 2.4184e+01     3.8324      2.970      4.308     7.0199 0.0000e+00
      3.045      0.059    12.1098     99.835     30.492  19.525010     5.4683      8.452   258.9225 2.3834e+01     3.7739      2.987      4.332     7.0213 0.0000e+00
      3.062      0.059    12.1095     99.792     30.493  19.524905     5.4754      8.453   258.9005 2.3536e+01     3.7946      3.003      4.356     7.0201 0.0000e+00
      3.077      0.058    12.1126     99.752     30.493  19.523854     5.5079      8.454   258.8528 2.3255e+01     3.8781      3.019      4.378     7.0183 0.0000e+00
      3.092      0.056    12.1182     99.723     30.476  19.512309     5.5105      8.455   258.8618 2.2968e+01     3.8611      3.032      4.398     7.0162 0.0000e+00
      3.106      0.054    12.1144     99.721     30.476  19.512110     5.4912      8.454   258.9248 2.2708e+01     3.7253      3.045      4.418     7.0146 0.0000e+00
      3.119      0.052    12.1076     99.743     30.491  19.521445     5.4661      8.452   259.0108 2.2496e+01     3.6022      3.059      4.437     7.0135 0.0000e+00
      3.131      0.050    12.1047     99.773     30.454  19.498379     5.4224      8.452   259.1273 2.2275e+01     3.5343      3.070      4.453     7.0112 0.0000e+00
      3.144      0.047    12.0996     99.791     30.435  19.486833     5.3968      8.453   259.1287 2.2030e+01     3.5543      3.082      4.470     7.0094 0.0000e+00
      3.157      0.044    12.1001     99.794     30.470  19.508640     5.3808      8.454   259.0281 2.1804e+01     3.5705      3.096      4.491     7.0100 0.0000e+00
      3.169      0.042    12.1025     99.783     30.472  19.508441     5.2716      8.454   259.0303 2.1621e+01     3.5254      3.109      4.510     7.0107 0.0000e+00
      3.179      0.042    12.1079     99.734     30.439  19.484424     5.0918      8.454   259.1549 2.1499e+01     3.5554      3.119      4.523     7.0106 0.0000e+00
      3.186      0.045    12.1095     99.658     30.425  19.471857     5.0123      8.454   259.3309 2.1409e+01     3.5912      3.125      4.531     7.0121 0.0000e+00
      3.194      0.049    12.1087     99.592     30.446  19.483289     5.0177      8.453   259.4368 2.1264e+01     3.5492      3.131      4.541     7.0130 0.0000e+00
      3.206      0.051    12.1109     99.557     30.467  19.495846     5.0081      8.453   259.4029 2.0962e+01     3.4909      3.140      4.555     7.0103 0.0000e+00
      3.223      0.051    12.1053     99.549     30.467  19.496884     5.0039      8.454   259.3509 2.0569e+01     3.4664      3.159      4.582     7.0047 0.0000e+00
      3.243      0.050    12.0962     99.559     30.465  19.495837     5.0328      8.455   259.4105 2.0311e+01     3.5274      3.185      4.619     6.9982 0.0000e+00
      3.258      0.047    12.0882     99.582     30.445  19.483177     5.0665      8.455   259.5215 2.0218e+01     3.5445      3.199      4.640     6.9937 0.0000e+00
      3.265      0.044    12.0851     99.617     30.427  19.470620     5.0703      8.456   259.4889 2.0141e+01     3.4686      3.202      4.644     6.9927 0.0000e+00
      3.271      0.039    12.0842     99.661     30.427  19.470820     5.0624      8.457   259.4459 2.0026e+01     3.4640      3.207      4.651     6.9944 0.0000e+00
      3.279      0.035    12.0849     99.697     30.448  19.485587     5.0706      8.457   259.6039 1.9866e+01     3.5565      3.215      4.664     6.9967 0.0000e+00
      3.290      0.035    12.0875     99.711     30.503  19.522370     5.0780      8.457   259.7642 1.9660e+01     3.6303      3.225      4.679     6.9962 0.0000e+00
      3.302      0.037    12.0930     99.706     30.522  19.535154     5.0858      8.457   259.7502 1.9504e+01     3.6049      3.239      4.697     6.9931 0.0000e+00
      3.311      0.041    12.0989     99.697     30.488  19.513357     5.1400      8.457   259.6059 1.9444e+01     3.5566      3.249      4.711     6.9936 0.0000e+00
      3.318      0.045    12.1033     99.698     30.487  19.512422     5.2254      8.457   259.5683 1.9353e+01     3.6617      3.253      4.718     6.9967 0.0000e+00
      3.327      0.047    12.1043     99.708     30.506  19.523855     5.2684      8.457   259.7263 1.9134e+01     3.8160      3.260      4.728     6.9991 0.0000e+00
      3.342      0.050    12.1017     99.703     30.509  19.524792     5.2697      8.457   259.8816 1.8877e+01     3.8167      3.277      4.753     7.0007 0.0000e+00
      3.358      0.053    12.1007     99.673     30.509  19.523744     5.2823      8.457   259.8976 1.8655e+01     3.7733      3.296      4.780     7.0004 0.0000e+00
      3.373      0.054    12.1002     99.625     30.492  19.511176     5.3212      8.456   259.8328 1.8427e+01     3.8034      3.309      4.800     6.9999 0.0000e+00
      3.387      0.053    12.1035     99.570     30.477  19.499640     5.3566      8.456   259.7859 1.8198e+01     3.8396      3.322      4.819     6.9991 0.0000e+00
      3.400      0.052    12.1037     99.532     30.496  19.511063     5.3700      8.457   259.7614 1.8013e+01     3.8347      3.335      4.837     6.9972 0.0000e+00
      3.412      0.052    12.1004     99.528     30.516  19.522485     5.3669      8.457   259.7954 1.7852e+01     3.7441      3.346      4.853     6.9951 0.0000e+00
      3.424      0.051    12.0952     99.527     30.501  19.510948     5.3517      8.457   259.8523 1.7647e+01     3.5991      3.357      4.870     6.9919 0.0000e+00
      3.437      0.050    12.0886     99.511     30.482  19.498373     5.3440      8.458   259.9333 1.7383e+01     3.5494      3.371      4.887     6.9888 0.0000e+00
      3.452      0.049    12.0826     99.514     30.480  19.497230     5.3495      8.458   260.0860 1.7128e+01     3.5539      3.386      4.911     6.9870 0.0000e+00
      3.467      0.048    12.0847     99.509     30.480  19.497126     5.3429      8.458   260.1499 1.6938e+01     3.5169      3.401      4.933     6.9844 0.0000e+00
      3.478      0.045    12.0886     99.482     30.479  19.497117     5.2558      8.458   260.1036 1.6772e+01     3.5116      3.411      4.947     6.9821 0.0000e+00
      3.488      0.042    12.0808     99.455     30.478  19.497126     5.1038      8.459   260.1284 1.6610e+01     3.5924      3.420      4.961     6.9814 0.0000e+00
      3.497      0.037    12.0853     99.403     30.477  19.497241     5.0199      8.460   260.1923 1.6457e+01     3.6735      3.430      4.975     6.9815 0.0000e+00
      3.507      0.033    12.0859     99.352     30.478  19.498497     5.0073      8.461   260.1876 1.6301e+01     3.6389      3.439      4.988     6.9820 0.0000e+00
      3.516      0.031    12.0780     99.341     30.498  19.512321     4.9848      8.461   260.1569 1.6177e+01     3.5155      3.449      5.002     6.9828 0.0000e+00
      3.524      0.031    12.0790     99.334     30.537  19.537577     4.9555      8.461   260.2516 1.6105e+01     3.4792      3.457      5.013     6.9844 0.0000e+00
      3.529      0.031    12.0701     99.324     30.557  19.550267     4.9529      8.460   260.3864 1.6017e+01     3.5408      3.460      5.019     6.9859 0.0000e+00
      3.534      0.032    12.0595     99.350     30.541  19.538948     4.9612      8.460   260.4109 1.5868e+01     3.5434      3.465      5.025     6.9865 0.0000e+00
      3.543      0.032    12.0623     99.395     30.524  19.527524     5.0063      8.461   260.4614 1.5675e+01     3.5793      3.473      5.038     6.9878 0.0000e+00
      3.554      0.032    12.0617     99.432     30.541  19.538947     5.0986      8.461   260.4802 1.5486e+01     3.7014      3.486      5.056     6.9893 0.0000e+00
      3.565      0.032    12.0558     99.481     30.558  19.550257     5.1540      8.461   260.4663 1.5350e+01     3.7564      3.497      5.072     6.9881 0.0000e+00
      3.573      0.031    12.0629     99.535     30.538  19.537472     5.1684      8.461   260.5508 1.5255e+01     3.7994      3.505      5.084     6.9855 0.0000e+00
      3.579      0.029    12.0702     99.583     30.497  19.511167     5.1392      8.461   260.5561 1.5171e+01     3.7433      3.510      5.091     6.9851 0.0000e+00
      3.584      0.029    12.0716     99.633     30.457  19.485807     5.0754      8.462   260.5303 1.5075e+01     3.5565      3.515      5.098     6.9864 0.0000e+00
      3.590      0.031    12.0785     99.663     30.456  19.484455     5.0540      8.462   260.5833 1.4967e+01     3.5218      3.521      5.106     6.9871 0.0000e+00
      3.598      0.036    12.0861     99.659     30.473  19.494821     5.0554      8.463   260.5939 1.4845e+01     3.5624      3.528      5.117     6.9873 0.0000e+00
      3.607      0.042    12.0904     99.645     30.458  19.484332     5.0504      8.463   260.5727 1.4690e+01     3.5352      3.536      5.129     6.9874 0.0000e+00
      3.617      0.047    12.0977     99.619     30.461  19.484436     5.1107      8.463   260.5849 1.4481e+01     3.5687      3.546      5.143     6.9870 0.0000e+00
      3.632      0.052    12.1036     99.576     30.482  19.496077     5.2436      8.464   260.6561 1.4209e+01     3.6947      3.560      5.163     6.9859 0.0000e+00
      3.649      0.056    12.1005     99.551     30.487  19.498279     5.3345      8.464   260.7448 1.3958e+01     3.7951      3.578      5.191     6.9850 0.0000e+00
      3.665      0.057    12.0998     99.537     30.507  19.511054     5.3521      8.464   260.7970 1.3780e+01     3.7911      3.596      5.215     6.9841 0.0000e+00
      3.678      0.057    12.0992     99.502     30.527  19.523742     5.4141      8.463   260.7715 1.3604e+01     3.7156      3.607      5.231     6.9806 0.0000e+00
      3.692      0.053    12.0918     99.470     30.530  19.524885     5.5510      8.462   260.7801 1.3394e+01     3.7006      3.619      5.249     6.9765 0.0000e+00
      3.707      0.048    12.0894     99.471     30.530  19.524877     5.6342      8.462   260.9011 1.3191e+01     3.7814      3.635      5.273     6.9761 0.0000e+00
      3.721      0.043    12.0910     99.486     30.528  19.523639     5.6380      8.463   260.9445 1.3046e+01     3.8048      3.651      5.296     6.9766 0.0000e+00
      3.731      0.039    12.0843     99.493     30.506  19.509921     5.7303      8.463   260.8745 1.2963e+01     3.7436      3.660      5.309     6.9758 0.0000e+00
      3.738      0.034    12.0788     99.487     30.469  19.485807     5.9266      8.463   260.8291 1.2872e+01     3.6909      3.666      5.316     6.9751 0.0000e+00
      3.745      0.029    12.0807     99.470     30.469  19.485692     6.0467      8.463   260.8251 1.2752e+01     3.7140      3.673      5.327     6.9747 0.0000e+00
      3.752      0.027    12.0838     99.475     30.505  19.508523     6.0922      8.464   260.8260 1.2649e+01     3.7850      3.680      5.337     6.9752 0.0000e+00
      3.759      0.029    12.0836     99.516     30.506  19.508252     6.2024      8.464   260.8396 1.2574e+01     3.7967      3.687      5.346     6.9758 0.0000e+00
      3.764      0.032    12.0843     99.524     30.473  19.482407     6.3721      8.464   260.9046 1.2507e+01     3.8556      3.691      5.354     6.9751 0.0000e+00
      3.770      0.034    12.0806     99.468     30.445  19.449643     6.4702      8.464   261.0100 1.2407e+01     4.0195      3.696      5.360     6.9747 0.0000e+00
      3.779      0.035    12.0778     99.385     30.452  19.429096     6.4901      8.465   261.0806 1.2247e+01     4.1040      3.704      5.372     6.9742 0.0000e+00
      3.793      0.036    12.0898     99.317     30.483  19.424155     6.5037      8.465   261.1558 1.2082e+01     3.9887      3.720      5.396     6.9744 0.0000e+00
      3.806      0.037    12.0916     99.249     30.459  19.389878     6.5192      8.465   261.2303 1.1978e+01     3.7871      3.735      5.418     6.9719 0.0000e+00
      3.814      0.039    12.0896     99.140     30.414  19.331653     6.5352      8.466   261.2078 1.1928e+01     3.7163      3.741      5.427     6.9493 0.0000e+00
      3.819      0.039    12.0925     98.990     30.424  19.290733     6.5483      8.466   261.1428 1.1865e+01     3.7470      3.743      5.429     6.8991 0.0000e+00
      3.826      0.041    12.0985     98.777     30.475  19.275481     6.5438      8.466   261.1318 1.1724e+01     3.7489      3.749      5.438     6.8507 0.0000e+00
      3.839      0.045    12.1004     98.493     30.522  19.273988     6.5059      8.467   261.1613 1.1556e+01     3.7050      3.764      5.460     6.8339 0.0000e+00
      3.853      0.050    12.0950     98.167     30.544  19.272658     6.4562      8.467   261.2409 1.1425e+01     3.6950      3.779      5.482     6.7959 0.0000e+00
      3.866      0.054    12.1093     97.832     30.539  19.259386     6.4340      8.468   261.4057 1.1283e+01     3.7641      3.791      5.498     6.6998 0.0000e+00
      3.881      0.056    12.1099     97.506     30.527  19.240313     6.4380      8.469   261.4341 1.1126e+01     3.8228      3.806      5.520     6.6105 0.0000e+00
      3.895      0.056    12.0875     97.200     30.537  19.232236     6.5295      8.468   261.2394 1.0987e+01     3.8246      3.822      5.543     6.5643 0.0000e+00
      3.909      0.056    12.0526     96.945     30.545  19.225112     6.6994      8.468   261.2030 1.0840e+01     3.8199      3.833      5.559     6.5437 0.0000e+00
      3.923      0.056    12.0127     96.745     30.551  19.217568     6.8027      8.468   261.4243 1.0684e+01     3.8334      3.847      5.579     6.5342 0.0000e+00
      3.938      0.055    11.9801     96.596     30.550  19.204413     6.8289      8.469   261.5923 1.0545e+01     3.8174      3.862      5.602     6.5140 0.0000e+00
      3.952      0.055    11.9476     96.489     30.550  19.192838     6.7999      8.470   261.5994 1.0409e+01     3.7639      3.876      5.622     6.4852 0.0000e+00
      3.966      0.054    11.9228     96.418     30.581  19.204403     6.7359      8.470   261.5098 1.0269e+01     3.7671      3.889      5.640     6.4678 0.0000e+00
      3.980      0.052    11.9027     96.378     30.610  19.217444     6.7122      8.469   261.4551 1.0137e+01     3.8566      3.903      5.661     6.4514 0.0000e+00
      3.994      0.050    11.8920     96.372     30.626  19.223713     6.7131      8.469   261.5404 1.0009e+01     3.9234      3.916      5.680     6.4283 0.0000e+00
      4.007      0.049    11.8849     96.399     30.619  19.216797     6.6634      8.469   261.6812 9.8931e+00     3.9250      3.929      5.698     6.4081 0.0000e+00
      4.018      0.050    11.8798     96.433     30.591  19.197219     6.5777      8.470   261.7808 9.8162e+00     3.9110      3.941      5.717     6.3956 0.0000e+00
      4.027      0.051    11.8779     96.502     30.565  19.177195     6.5431      8.471   261.7980 9.7369e+00     3.9584      3.949      5.728     6.3887 0.0000e+00
      4.038      0.051    11.8771     96.633     30.553  19.164887     6.5527      8.471   261.8025 9.5968e+00     4.0534      3.958      5.739     6.3819 0.0000e+00
      4.055      0.051    11.8852     96.737     30.575  19.175205     6.5351      8.472   261.9214 9.4332e+00     4.0704      3.976      5.766     6.3784 0.0000e+00
      4.072      0.050    11.8883     96.772     30.580  19.175147     6.4887      8.472   262.0312 9.3124e+00     4.0273      3.996      5.796     6.3777 0.0000e+00
      4.085      0.050    11.8934     96.787     30.566  19.164172     6.4746      8.471   262.0122 9.2314e+00     4.0440      4.008      5.813     6.3703 0.0000e+00
      4.095      0.049    11.9211     96.775     30.577  19.169307     6.4891      8.471   262.0359 9.1531e+00     4.1017      4.016      5.824     6.3611 0.0000e+00
      4.105      0.049    11.9377     96.715     30.587  19.173832     6.4730      8.471   262.2311 9.0764e+00     4.0762      4.025      5.838     6.3553 0.0000e+00
      4.116      0.049    11.9375     96.633     30.560  19.155485     6.3543      8.472   262.4798 8.9836e+00     3.9746      4.035      5.853     6.3508 0.0000e+00
      4.129      0.052    11.9427     96.551     30.535  19.137670     6.1689      8.472   262.5487 8.8556e+00     3.9667      4.048      5.872     6.3479 0.0000e+00
      4.144      0.054    11.9435     96.477     30.555  19.148636     6.0882      8.472   262.4612 8.7287e+00     4.0491      4.064      5.895     6.3454 0.0000e+00
      4.160      0.054    11.9348     96.432     30.578  19.161269     6.1026      8.472   262.5399 8.6124e+00     4.0479      4.079      5.917     6.3422 0.0000e+00
      4.175      0.053    11.9245     96.421     30.583  19.163612     6.1264      8.472   262.8120 8.4913e+00     3.9862      4.095      5.940     6.3397 0.0000e+00
      4.190      0.050    11.9158     96.413     30.605  19.176966     6.1674      8.473   262.9976 8.3856e+00     3.9858      4.110      5.961     6.3363 0.0000e+00
      4.202      0.048    11.9065     96.391     30.635  19.195934     6.1993      8.473   262.9766 8.3088e+00     4.0442      4.122      5.978     6.3323 0.0000e+00
      4.211      0.047    11.9004     96.361     30.645  19.202746     6.2125      8.472   262.9026 8.2478e+00     4.1107      4.130      5.990     6.3302 0.0000e+00
      4.221      0.046    11.9026     96.311     30.630  19.195936     6.2515      8.472   262.9642 8.1628e+00     4.1073      4.138      6.002     6.3278 0.0000e+00
      4.233      0.047    11.9019     96.226     30.598  19.176988     6.3135      8.472   263.0324 8.0536e+00     4.0369      4.150      6.020     6.3279 0.0000e+00
      4.246      0.048    11.8984     96.145     30.579  19.163843     6.3545      8.472   263.0393 7.9668e+00     4.0109      4.165      6.040     6.3281 0.0000e+00
      4.259      0.049    11.8952     96.084     30.583  19.163806     6.3807      8.472   263.1331 7.8818e+00     4.0320      4.177      6.058     6.3280 0.0000e+00
      4.272      0.049    11.8894     96.014     30.607  19.176541     6.4305      8.472   263.3061 7.7853e+00     4.0190      4.189      6.075     6.3335 0.0000e+00
      4.285      0.047    11.8754     95.960     30.631  19.191020     6.4901      8.472   263.4963 7.6938e+00     3.9904      4.202      6.094     6.3371 0.0000e+00
      4.299      0.042    11.8635     95.934     30.664  19.212074     6.5101      8.472   263.5403 7.6061e+00     3.9939      4.216      6.114     6.3334 0.0000e+00
      4.310      0.038    11.8634     95.929     30.707  19.240892     6.5144      8.472   263.4079 7.5481e+00     3.9926      4.228      6.132     6.3284 0.0000e+00
      4.319      0.036    11.8504     95.948     30.673  19.222458     6.5095      8.472   263.4446 7.5241e+00     3.9747      4.236      6.144     6.3254 0.0000e+00
      4.324      0.035    11.8455     95.976     30.598  19.179388     6.4595      8.472   263.6404 7.4953e+00     3.9485      4.242      6.150     6.3230 0.0000e+00
      4.329      0.036    11.8427     96.007     30.567  19.163946     6.4098      8.472   263.7094 7.4286e+00     3.9836      4.245      6.156     6.3245 0.0000e+00
      4.338      0.038    11.8393     96.042     30.562  19.162555     6.4068      8.472   263.7626 7.3379e+00     4.0911      4.252      6.168     6.3280 0.0000e+00
      4.350      0.042    11.8428     96.076     30.563  19.162574     6.4235      8.472   263.9394 7.2506e+00     4.1211      4.265      6.186     6.3325 0.0000e+00
      4.363      0.043    11.8431     96.091     30.568  19.164174     6.3531      8.472   264.1263 7.1576e+00     4.0396      4.279      6.205     6.3396 0.0000e+00
      4.377      0.043    11.8460     96.084     30.600  19.181894     6.2051      8.472   264.2157 7.0629e+00     3.9595      4.293      6.226     6.3457 0.0000e+00
      4.388      0.040    11.8480     96.082     30.610  19.186619     6.1327      8.472   264.2462 6.9933e+00     3.9718      4.305      6.244     6.3502 0.0000e+00
      4.398      0.036    11.8545     96.097     30.565  19.157904     6.1348      8.472   264.3231 6.9390e+00     4.0515      4.314      6.256     6.3499 0.0000e+00
      4.407      0.034    11.8570     96.115     30.555  19.151712     6.0813      8.472   264.5422 6.8967e+00     4.0691      4.322      6.269     6.3456 0.0000e+00
      4.413      0.035    11.8564     96.131     30.594  19.175149     5.9599      8.472   264.7447 6.8812e+00     4.0142      4.328      6.278     6.3413 0.0000e+00
      4.418      0.038    11.8557     96.135     30.616  19.187669     5.8987      8.472   264.7063 6.8537e+00     4.0367      4.330      6.281     6.3379 0.0000e+00
      4.425      0.042    11.8597     96.124     30.600  19.176292     5.9157      8.472   264.5948 6.7787e+00     4.1357      4.336      6.290     6.3375 0.0000e+00
      4.439      0.045    11.8611     96.114     30.583  19.164400     5.9329      8.472   264.6008 6.6667e+00     4.1190      4.351      6.311     6.3381 0.0000e+00
      4.456      0.047    11.8644     96.095     30.595  19.170689     5.9394      8.472   264.6935 6.5535e+00     4.0059      4.371      6.339     6.3362 0.0000e+00
      4.473      0.047    11.8667     96.056     30.626  19.188925     5.9446      8.471   264.7688 6.4830e+00     3.9639      4.389      6.365     6.3334 0.0000e+00
      4.484      0.047    11.8629     95.999     30.637  19.194678     5.9543      8.471   264.7358 6.4512e+00     3.9868      4.399      6.381     6.3322 0.0000e+00
      4.490      0.045    11.8645     95.957     30.609  19.176853     5.9728      8.471   264.7258 6.4172e+00     4.0094      4.402      6.385     6.3307 0.0000e+00
      4.498      0.041    11.8616     95.908     30.589  19.163602     5.9941      8.470   264.8198 6.3512e+00     3.9982      4.409      6.394     6.3285 0.0000e+00
      4.511      0.041    11.8600     95.858     30.587  19.161259     6.0117      8.470   264.8397 6.2679e+00     4.0218      4.424      6.417     6.3265 0.0000e+00
      4.525      0.044    11.8485     95.878     30.569  19.148523     6.0273      8.470   264.7938 6.2000e+00     4.0902      4.439      6.438     6.3249 0.0000e+00
      4.535      0.048    11.8463     95.904     30.553  19.136414     6.0332      8.469   264.7813 6.1589e+00     4.0735      4.449      6.452     6.3240 0.0000e+00
      4.544      0.050    11.8435     95.882     30.563  19.141654     6.0748      8.469   264.7748 6.1153e+00     3.9903      4.454      6.461     6.3230 0.0000e+00
      4.555      0.051    11.8274     95.863     30.575  19.148466     6.1725      8.469   264.8023 6.0316e+00     3.9373      4.464      6.474     6.3206 0.0000e+00
      4.573      0.052    11.8389     95.864     30.586  19.155373     6.2328      8.469   264.8551 5.9366e+00     3.9803      4.484      6.504     6.3179 0.0000e+00
      4.590      0.054    11.8459     95.849     30.595  19.161764     6.2546      8.469   264.8965 5.8719e+00     4.0996      4.504      6.532     6.3156 0.0000e+00
      4.602      0.054    11.8387     95.829     30.595  19.162345     6.2779      8.469   264.9589 5.8110e+00     4.0824      4.513      6.545     6.3134 0.0000e+00
      4.614      0.053    11.8358     95.819     30.594  19.162404     6.2899      8.469   265.0069 5.7398e+00     3.9426      4.523      6.561     6.3120 0.0000e+00
      4.628      0.052    11.8405     95.801     30.594  19.162470     6.3074      8.469   265.0478 5.6824e+00     3.9467      4.538      6.583     6.3119 0.0000e+00
      4.642      0.051    11.8359     95.791     30.595  19.163146     6.3227      8.469   265.1088 5.6259e+00     4.0627      4.552      6.602     6.3128 0.0000e+00
      4.655      0.053    11.8314     95.787     30.608  19.170577     6.3087      8.469   265.1414 5.5571e+00     4.1159      4.564      6.619     6.3144 0.0000e+00
      4.667      0.056    11.8337     95.780     30.638  19.188916     6.2720      8.469   265.1845 5.4868e+00     4.0778      4.577      6.638     6.3162 0.0000e+00
      4.679      0.060    11.8269     95.777     30.649  19.194679     6.2448      8.469   265.1997 5.4123e+00     4.0120      4.588      6.654     6.3166 0.0000e+00
      4.694      0.065    11.8285     95.799     30.622  19.176864     6.2462      8.469   265.1528 5.3172e+00     4.0035      4.601      6.673     6.3158 0.0000e+00
      4.712      0.069    11.8276     95.839     30.602  19.163718     6.2468      8.470   265.1338 5.2126e+00     4.0090      4.621      6.702     6.3149 0.0000e+00
      4.733      0.072    11.8277     95.871     30.603  19.162528     6.2185      8.470   265.1424 5.1161e+00     3.9764      4.642      6.732     6.3138 0.0000e+00
      4.753      0.072    11.8255     95.876     30.607  19.162472     6.1956      8.469   265.1710 5.0089e+00     3.9845      4.661      6.760     6.3126 0.0000e+00
      4.773      0.070    11.8290     95.858     30.611  19.163034     6.2030      8.469   265.2208 4.8959e+00     4.0386      4.682      6.790     6.3117 0.0000e+00
      4.791      0.066    11.8362     95.828     30.623  19.169321     6.2250      8.468   265.3148 4.8019e+00     4.0841      4.701      6.818     6.3102 0.0000e+00
      4.806      0.061    11.8415     95.758     30.633  19.175094     6.2532      8.467   265.4470 4.7245e+00     4.0909      4.714      6.837     6.3063 0.0000e+00
      4.820      0.056    11.8446     95.655     30.624  19.169424     6.2692      8.467   265.5285 4.6676e+00     4.0185      4.726      6.855     6.3024 0.0000e+00
      4.834      0.053    11.8396     95.546     30.615  19.164166     6.2606      8.467   265.6125 4.6183e+00     3.9945      4.741      6.877     6.2991 0.0000e+00
      4.847      0.052    11.8418     95.446     30.632  19.174922     6.2403      8.467   265.6025 4.5548e+00     4.0395      4.753      6.893     6.2967 0.0000e+00
      4.858      0.053    11.8311     95.372     30.629  19.172674     6.1657      8.467   265.4928 4.4938e+00     4.0161      4.763      6.908     6.2960 0.0000e+00
      4.870      0.057    11.8167     95.322     30.573  19.136988     6.0330      8.467   265.4909 4.4293e+00     3.9849      4.774      6.925     6.2961 0.0000e+00
      4.884      0.063    11.8035     95.278     30.553  19.123839     5.9593      8.467   265.4930 4.3553e+00     4.0036      4.788      6.945     6.2971 0.0000e+00
      4.900      0.070    11.7890     95.223     30.580  19.140502     5.9735      8.467   265.5185 4.2919e+00     4.0712      4.805      6.968     6.2976 0.0000e+00
      4.918      0.076    11.7810     95.162     30.592  19.148259     6.0887      8.467   265.5411 4.2064e+00     4.1194      4.821      6.993     6.2965 0.0000e+00
      4.941      0.080    11.7755     95.102     30.601  19.154220     6.2697      8.467   265.5077 4.0909e+00     4.0743      4.844      7.027     6.2953 0.0000e+00
      4.966      0.080    11.7720     95.044     30.593  19.149179     6.3566      8.466   265.5459 3.9844e+00     4.0043      4.870      7.063     6.2949 0.0000e+00
      4.990      0.076    11.7642     94.993     30.595  19.150704     6.3646      8.465   265.5720 3.9056e+00     3.9895      4.894      7.098     6.2946 0.0000e+00
      5.010      0.070    11.7565     94.958     30.630  19.172664     6.3171      8.465   265.6510 3.8647e+00     3.9978      4.916      7.129     6.2947 0.0000e+00
      5.025      0.063    11.7488     94.918     30.612  19.161089     6.1986      8.466   265.8139 3.8229e+00     3.9679      4.930      7.150     6.2950 0.0000e+00
      5.036      0.058    11.7420     94.873     30.575  19.137558     6.1295      8.466   265.8199 3.7648e+00     3.9699      4.938      7.162     6.2955 0.0000e+00
      5.047      0.053    11.7339     94.853     30.583  19.141749     6.1228      8.466   265.7240 3.7111e+00     4.0222      4.949      7.177     6.2955 0.0000e+00
      5.061      0.053    11.7318     94.846     30.595  19.148362     6.1093      8.466   265.7722 3.6548e+00     4.0540      4.963      7.198     6.2952 0.0000e+00
      5.076      0.057    11.7276     94.831     30.606  19.154117     6.0902      8.466   265.8872 3.6045e+00     4.0460      4.978      7.220     6.2955 0.0000e+00
      5.090      0.066    11.7182     94.808     30.598  19.147932     6.0756      8.464   265.9095 3.5609e+00     3.9940      4.991      7.239     6.2948 0.0000e+00
      5.103      0.076    11.7191     94.790     30.581  19.136977     6.0827      8.464   265.8693 3.5083e+00     4.0060      5.003      7.256     6.2931 0.0000e+00
      5.119      0.082    11.7186     94.789     30.601  19.148458     6.2095      8.465   265.9178 3.4345e+00     4.0885      5.017      7.277     6.2912 0.0000e+00
      5.144      0.085    11.7178     94.804     30.621  19.159946     6.4184      8.465   266.1520 3.3329e+00     4.0700      5.041      7.312     6.2896 0.0000e+00
      5.177      0.086    11.7145     94.820     30.604  19.149076     6.5109      8.465   266.2923 3.2265e+00     3.9877      5.079      7.366     6.2882 0.0000e+00
      5.206      0.088    11.7116     94.821     30.596  19.143826     6.5125      8.465   266.2368 3.1549e+00     3.9474      5.111      7.413     6.2874 0.0000e+00
      5.223      0.088    11.7126     94.816     30.623  19.159870     6.5120      8.465   266.2557 3.1252e+00     3.9235      5.125      7.433     6.2862 0.0000e+00
      5.234      0.085    11.7148     94.803     30.614  19.152860     6.4217      8.465   266.3482 3.0942e+00     3.9388      5.130      7.440     6.2844 0.0000e+00
      5.253      0.078    11.7192     94.778     30.567  19.122469     6.2449      8.464   266.4088 3.0175e+00     3.9617      5.148      7.465     6.2833 0.0000e+00
      5.281      0.070    11.7176     94.759     30.547  19.109416     6.1391      8.463   266.4727 2.9219e+00     3.9258      5.180      7.513     6.2829 0.0000e+00
      5.308      0.062    11.7178     94.758     30.567  19.121840     6.1171      8.463   266.5184 2.8483e+00     3.9492      5.210      7.556     6.2823 0.0000e+00
      5.324      0.054    11.7177     94.751     30.607  19.145877     5.9281      8.462   266.5319 2.8026e+00     4.0056      5.225      7.578     6.2801 0.0000e+00
      5.332      0.046    11.7137     94.732     30.608  19.146447     5.5512      8.462   266.6354 2.7896e+00     3.9584      5.231      7.585     6.2781 0.0000e+00
      5.334      0.042    11.7108     94.728     30.580  19.128735     5.3308      8.462   266.7377 2.7929e+00     3.8917      5.232      7.589     6.2773 0.0000e+00
      5.336      0.047    11.7122     94.727     30.572  19.121924     5.3106      8.462   266.7353 2.7852e+00     3.9159      5.231      7.588     6.2763 0.0000e+00
      5.344      0.057    11.7131     94.709     30.583  19.127489     5.3903      8.461   266.6931 2.7469e+00     4.1821      5.237      7.595     6.2759 0.0000e+00
      5.362      0.069    11.7070     94.679     30.593  19.132615     5.5285      8.461   266.5708 2.6710e+00     4.5828      5.255      7.622     6.2763 0.0000e+00
      5.389      0.078    11.7084     94.638     30.575  19.120508     5.5918      8.462   266.4614 2.5805e+00     4.7298      5.283      7.663     6.2753 0.0000e+00
      5.419      0.083    11.7110     94.583     30.555  19.107895     5.5978      8.462   266.4028 2.5050e+00     4.7303      5.317      7.711     6.2724 0.0000e+00
      5.444      0.083    11.7079     94.528     30.554  19.106913     5.5355      8.461   266.2925 2.4476e+00     5.2036      5.342      7.747     6.2691 0.0000e+00
      5.462      0.078    11.7058     94.484     30.558  19.108637     5.3796      8.461   266.1609 2.4065e+00     6.0461      5.357      7.770     6.2673 0.0000e+00
      5.476      0.071    11.7007     94.454     30.591  19.128737     5.2774      8.461   266.1024 2.3770e+00     6.4786      5.369      7.788     6.2669 0.0000e+00
      5.491      0.062    11.6933     94.433     30.641  19.159746     5.2815      8.460   266.1007 2.3442e+00     6.7441      5.384      7.808     6.2662 0.0000e+00
      5.509      0.055    11.6862     94.415     30.653  19.166559     5.4372      8.460   265.9687 2.3176e+00     9.2231      5.404      7.836     6.2655 0.0000e+00
      5.526      0.050    11.6810     94.404     30.623  19.147705     5.7126      8.460   265.7100 2.3014e+00    13.7011      5.421      7.862     6.2646 0.0000e+00
      5.538      0.048    11.6780     94.411     30.582  19.121992     5.8560      8.460   265.5544 2.2791e+00    16.1387      5.432      7.880     6.2635 0.0000e+00
      5.545      0.047    11.6757     94.426     30.562  19.109268     5.8470      8.460   265.5501 2.2567e+00    16.6967      5.438      7.887     6.2628 0.0000e+00
      5.551      0.046    11.6739     94.421     30.582  19.120659     5.8373      8.458   265.6580 2.2356e+00    20.8233      5.441      7.891     6.2622 0.0000e+00
      5.563      0.044    11.6714     94.406     30.603  19.132923     5.8128      8.458   265.8268 2.2095e+00    65.9309      5.454      7.909     6.2619 0.0000e+00
      5.581      0.044    11.6722     94.386     30.601  19.130743     5.7430      8.458   265.8700 2.1851e+00   148.5889      5.476      7.941     6.2615 0.0000e+00
      5.596      0.044    11.6781     94.366     30.646  19.157703     5.6841      8.457   265.8361 2.1566e+00   193.3030      5.491      7.964     6.2610 0.0000e+00
      5.605      0.041    11.6750     94.356     30.825  19.268687     5.5414      8.457   265.8474 2.1303e+00   192.9293      5.498      7.974     6.2599 0.0000e+00
      5.613      0.036    11.6739     94.323     31.130  19.458230     4.1091      8.457   265.8349 2.1113e+00   144.5825      5.504      7.982     6.2583 0.0000e+00
      5.622      0.031    11.6728     94.264     31.577  19.737617     1.4922      8.457   265.7714 2.0846e+00    55.3460      5.513      7.996     6.2567 0.0000e+00
      5.630      0.027    11.6677     94.201     31.972  19.983845     0.0604      8.456   265.6815 2.0649e+00     6.5980      5.522      8.010     6.2547 0.0000e+00
      5.637      0.024    11.6714     94.109     32.039  20.026051    -0.0767      8.456   265.6936 2.0573e+00     2.1851      5.528      8.018     6.2529 0.0000e+00
      5.642      0.021    11.6672     93.948     31.887  19.930921    -0.0907      8.456   265.7464 2.0502e+00     1.6831      5.532      8.024     6.2515 0.0000e+00
      5.646      0.017    11.6573     93.611     31.652  19.784684    -0.0843      8.456   265.7176 2.0435e+00     1.2796      5.537      8.031     6.2508 0.0000e+00
      5.650      0.015    11.6526     92.915     31.541  19.716167    -0.0917      8.455   265.7756 2.0328e+00     1.0292      5.541      8.036     6.2509 0.0000e+00
      5.653      0.013    11.6416     91.780     31.572  19.736515    -0.1130      8.454   265.8445 2.0248e+00     0.9797      5.543      8.041     6.2511 0.0000e+00
      5.657      0.011    11.6249     90.280     31.535  19.713702    -0.1084      8.454   265.7762 2.0155e+00     0.9879      5.547      8.045     6.2510 0.0000e+00
      5.659      0.009    11.5947     88.575     31.401  19.630549    -0.0859      8.454   265.7249 1.9947e+00     0.9922      5.549      8.048     6.2519 0.0000e+00
      5.661      0.007    11.5117     86.931     31.179  19.491945    -0.0832      8.454   265.8265 1.9717e+00     0.9286      5.552      8.052     6.2539 0.0000e+00
      5.663      0.003    11.3652     85.605     30.982  19.369288    -0.0999      8.454   266.0580 1.9572e+00     0.9364      5.554      8.055     6.2553 0.0000e+00
      5.665     -0.003    11.1751     84.714     30.853  19.288741    -0.1050      8.453   266.3732 1.9540e+00     1.0864      5.555      8.057     6.2558 0.0000e+00
      5.665     -0.017    10.9508     84.340     30.735  19.215461    -0.0530      8.452   266.8845 1.9656e+00     2.0932      5.556      8.058     6.2564 0.0000e+00
      5.663     -0.043    10.7333     84.545     30.675  19.180680     0.0375      8.451   267.5072 2.0003e+00     3.9207      5.554      8.056     6.2568 0.0000e+00
      5.657     -0.083    10.5680     85.250     30.673  19.185210     0.0824      8.449   268.0515 2.0588e+00     5.2148      5.549      8.049     6.2572 0.0000e+00
      5.643     -0.128    10.4532     86.266     30.695  19.206835     0.1239      8.447   268.4752 2.1294e+00     9.3366      5.540      8.035     6.2581 0.0000e+00
      5.611     -0.162    10.4027     87.429     30.756  19.251960     0.6058      8.446   268.6724 2.2393e+00    53.7230      5.514      7.998     6.2580 0.0000e+00
      5.548     -0.176    10.4309     88.642     31.106  19.477212     1.4725      8.444   268.7149 2.4388e+00   134.9118      5.452      7.907     6.2600 0.0000e+00
      5.464     -0.167    10.5258     89.860     31.373  19.647880     1.9220      8.442   268.7310 2.6679e+00   179.0140      5.354      7.765     6.2707 0.0000e+00
      5.394     -0.139    10.6545     91.056     30.999  19.413425     1.9619      8.442   268.6951 2.7830e+00   181.6575      5.270      7.646     6.2860 0.0000e+00
      5.366     -0.099    10.7984     92.175     30.633  19.178504     1.9965      8.442   268.7115 2.7634e+00   166.3618      5.250      7.615     6.2979 0.0000e+00
      5.370     -0.056    10.9482     93.152     30.604  19.153334     2.0169      8.441   268.7567 2.7050e+00   137.4763      5.264      7.634     6.3073 0.0000e+00
      5.384     -0.024    11.0956     93.905     30.644  19.172495     2.0080      8.440   268.7254 2.6670e+00   121.5642      5.280      7.659     6.3149 0.0000e+00
      5.394     -0.019    11.2476     94.376     30.724  19.219976     1.9980      8.440   268.8496 2.6696e+00   119.5573      5.294      7.679     6.3148 0.0000e+00
      5.394     -0.038    11.3902     94.596     30.824  19.283620     2.0703      8.440   269.1400 2.7056e+00   114.1686      5.295      7.678     6.3041 0.0000e+00
      5.383     -0.064    11.5192     94.639     30.858  19.307998     2.2159      8.439   269.3115 2.7658e+00   104.5736      5.282      7.661     6.2891 0.0000e+00
      5.358     -0.082    11.6195     94.594     30.777  19.261124     2.2857      8.437   269.2883 2.8711e+00    99.3277      5.260      7.630     6.2795 0.0000e+00
      5.318     -0.087    11.6759     94.531     30.715  19.224088     2.2813      8.436   269.2037 3.0067e+00    98.9404      5.217      7.567     6.2754 0.0000e+00
      5.277     -0.077    11.6997     94.469     30.743  19.240598     2.3623      8.437   269.2344 3.1047e+00    99.8226      5.167      7.492     6.2764 0.0000e+00
      5.252     -0.059    11.6988     94.414     30.794  19.270542     2.5334      8.438   269.3158 3.1232e+00   101.4542      5.141      7.457     6.2839 0.0000e+00
      5.250     -0.039    11.6871     94.393     30.795  19.269127     2.6349      8.437   269.3269 3.0952e+00   102.3067      5.145      7.463     6.2916 0.0000e+00
      5.258     -0.022    11.6787     94.403     30.825  19.286898     2.6410      8.435   269.3690 3.0616e+00   102.3756      5.157      7.480     6.2942 0.0000e+00
      5.265     -0.009    11.6723     94.408     31.041  19.422013     2.6236      8.435   269.5671 3.0497e+00   102.8336      5.167      7.493     6.2919 0.0000e+00
      5.264     -0.001    11.6640     94.377     31.278  19.571355     2.5244      8.435   269.8296 3.0753e+00   107.8092      5.167      7.494     6.2870 0.0000e+00
      5.254      0.004    11.6635     94.290     31.275  19.570952     2.3403      8.435   269.9615 3.1036e+00   116.8308      5.151      7.472     6.2834 0.0000e+00
      5.244      0.009    11.6667     94.166     31.130  19.480540     2.2369      8.435   269.9572 3.1001e+00   121.6633      5.136      7.450     6.2822 0.0000e+00
      5.248      0.012    11.6681     94.027     31.050  19.429211     2.2238      8.435   270.0356 3.0571e+00   122.3106      5.143      7.459     6.2832 0.0000e+00
      5.262      0.007    11.6658     93.871     30.996  19.394146     2.1899      8.434   270.2212 2.9980e+00   125.6471      5.161      7.485     6.2847 0.0000e+00
      5.277     -0.013    11.6521     93.661     30.862  19.310181     2.1431      8.433   270.3085 2.9645e+00   131.7055      5.176      7.506     6.2868 0.0000e+00
      5.286     -0.050    11.6362     93.394     30.745  19.238212     2.1161      8.431   270.2299 2.9713e+00   134.8944      5.188      7.524     6.2878 0.0000e+00
      5.279     -0.098    11.6187     93.103     30.715  19.221387     2.1135      8.431   270.0449 3.0424e+00   134.3479      5.188      7.524     6.2856 0.0000e+00
      5.244     -0.145    11.6036     92.833     30.730  19.233560     2.2615      8.431   269.9657 3.2172e+00   125.7480      5.155      7.476     6.2829 0.0000e+00
      5.182     -0.182    11.5776     92.607     30.767  19.258594     2.5481      8.430   269.9603 3.4592e+00   109.9585      5.086      7.375     6.2825 0.0000e+00
      5.109     -0.204    11.5422     92.437     30.784  19.270469     2.6988      8.429   269.8933 3.6830e+00   101.2213      5.006      7.261     6.2846 0.0000e+00
      5.044     -0.210    11.5031     92.362     30.750  19.250349     2.7196      8.427   269.9302 3.8598e+00    99.1523      4.941      7.167     6.2885 0.0000e+00
      4.993     -0.203    11.4665     92.403     30.678  19.205515     2.9823      8.426   270.0627 4.0134e+00    85.1807      4.893      7.098     6.2930 0.0000e+00
      4.951     -0.190    11.4396     92.570     30.623  19.172200     3.4863      8.426   270.1189 4.1675e+00    59.7745      4.855      7.040     6.2965 0.0000e+00
      4.912     -0.181    11.4137     92.848     30.608  19.164541     3.7771      8.426   270.0925 4.3257e+00    45.8758      4.817      6.987     6.2984 0.0000e+00
      4.871     -0.181    11.4045     93.176     30.625  19.176316     3.8267      8.426   270.0876 4.5153e+00    44.0348      4.780      6.932     6.2996 0.0000e+00
      4.826     -0.190    11.4084     93.507     30.640  19.187776     4.0034      8.425   270.0597 4.7553e+00    38.0274      4.733      6.865     6.3007 0.0000e+00
      4.776     -0.204    11.4283     93.824     30.620  19.176294     4.3573      8.425   270.0134 5.0170e+00    27.2468      4.684      6.792     6.3025 0.0000e+00
      4.722     -0.218    11.4663     94.115     30.600  19.164299     4.5931      8.424   270.0446 5.3171e+00    21.3241      4.634      6.721     6.3046 0.0000e+00
      4.663     -0.230    11.5078     94.336     30.608  19.169548     4.6488      8.424   270.0930 5.6587e+00    20.6611      4.573      6.633     6.3068 0.0000e+00
      4.600     -0.237    11.5484     94.451     30.620  19.176361     4.6725      8.424   270.1680 6.0114e+00    20.2215      4.511      6.542     6.3094 0.0000e+00
      4.535     -0.234    11.5873     94.540     30.632  19.183267     4.8135      8.424   270.1772 6.3918e+00    16.9312      4.448      6.451     6.3112 0.0000e+00
      4.470     -0.217    11.6239     94.663     30.642  19.189648     5.0791      8.424   270.0315 6.8012e+00    11.0067      4.382      6.356     6.3124 0.0000e+00
      4.408     -0.187    11.6567     94.772     30.643  19.190115     5.2206      8.424   269.9556 7.2152e+00     7.7532      4.321      6.268     6.3132 0.0000e+00
      4.354     -0.147    11.6640     94.878     30.642  19.188916     5.2271      8.424   270.0342 7.5442e+00     7.3464      4.262      6.183     6.3125 0.0000e+00
      4.318     -0.103    11.6703     95.005     30.621  19.175149     5.3071      8.425   270.0352 7.6754e+00     7.2491      4.225      6.127     6.3113 0.0000e+00
      4.306     -0.059    11.6934     95.107     30.581  19.150455     5.4720      8.426   269.8821 7.6714e+00     7.2603      4.218      6.118     6.3107 0.0000e+00
      4.307     -0.020    11.7035     95.185     30.571  19.143948     5.5730      8.428   269.7312 7.6440e+00     7.2766      4.222      6.124     6.3105 0.0000e+00
      4.313      0.010    11.7144     95.270     30.597  19.159878     5.5877      8.428   269.6732 7.5977e+00     7.2067      4.229      6.134     6.3094 0.0000e+00
      4.322      0.025    11.7355     95.337     30.587  19.152858     5.6585      8.428   269.6116 7.5362e+00     6.4844      4.238      6.146     6.3085 0.0000e+00
      4.333      0.027    11.7472     95.370     30.540  19.122468     5.8123      8.429   269.5026 7.4527e+00     5.2381      4.247      6.160     6.3088 0.0000e+00
      4.345      0.020    11.7530     95.391     30.520  19.109434     5.9083      8.430   269.4728 7.3672e+00     4.6066      4.262      6.182     6.3090 0.0000e+00
      4.353      0.011    11.7672     95.416     30.540  19.122076     5.9207      8.431   269.5098 7.3397e+00     4.5866      4.272      6.196     6.3086 0.0000e+00
      4.353      0.004    11.7765     95.436     30.582  19.148514     5.9367      8.431   269.5200 7.3742e+00     5.1680      4.272      6.194     6.3072 0.0000e+00
      4.347     -0.001    11.7794     95.448     30.624  19.175484     5.9686      8.431   269.4243 7.4560e+00     6.3067      4.265      6.186     6.3057 0.0000e+00
      4.338     -0.002    11.7810     95.466     30.654  19.194564     5.9818      8.431   269.2989 7.5257e+00     6.9120      4.252      6.168     6.3048 0.0000e+00
      4.334     -0.002    11.7851     95.502     30.645  19.189018     5.9711      8.431   269.2947 7.4959e+00     6.8845      4.245      6.157     6.3047 0.0000e+00
      4.339      0.002    11.7881     95.553     30.617  19.171833     5.9475      8.431   269.3739 7.4037e+00     6.7596      4.253      6.169     6.3056 0.0000e+00
      4.347      0.010    11.7878     95.581     30.625  19.176978     5.8711      8.431   269.4823 7.3626e+00     6.4950      4.265      6.188     6.3065 0.0000e+00
      4.350      0.021    11.7901     95.557     30.642  19.187830     5.7547      8.431   269.4858 7.3815e+00     6.0420      4.268      6.191     6.3068 0.0000e+00
      4.349      0.032    11.7930     95.498     30.624  19.176237     5.6891      8.431   269.3299 7.3775e+00     5.7233      4.262      6.181     6.3073 0.0000e+00
      4.352      0.039    11.8022     95.438     30.605  19.163604     5.6693      8.431   269.2320 7.3029e+00     5.6136      4.263      6.184     6.3079 0.0000e+00
      4.365      0.040    11.8071     95.370     30.603  19.161890     5.6725      8.431   269.2500 7.1603e+00     5.3991      4.278      6.205     6.3082 0.0000e+00
      4.387      0.031    11.8031     95.285     30.593  19.155508     5.6954      8.431   269.2893 6.9639e+00     5.0771      4.301      6.237     6.3085 0.0000e+00
      4.409      0.011    11.7934     95.217     30.584  19.149838     5.6963      8.431   269.1042 6.8291e+00     4.8965      4.328      6.277     6.3081 0.0000e+00
      4.420     -0.017    11.7870     95.195     30.594  19.156744     5.6667      8.430   268.5607 6.8887e+00     4.8207      4.343      6.300     6.3068 0.0000e+00
      4.409     -0.046    11.7810     95.208     30.624  19.175607     5.5621      8.430   267.9662 7.1261e+00     4.9465      4.332      6.282     6.3053 0.0000e+00
      4.378     -0.071    11.7677     95.236     30.643  19.187715     5.4137      8.431   267.4223 7.4498e+00     5.2906      4.298      6.233     6.3043 0.0000e+00
      4.340     -0.089    11.7578     95.262     30.624  19.176339     5.3538      8.431   266.9745 7.7082e+00     5.4284      4.251      6.167     6.3049 0.0000e+00
      4.310     -0.098    11.7555     95.257     30.605  19.164860     5.3618      8.431   266.6821 7.8313e+00     5.3824      4.220      6.122     6.3060 0.0000e+00
      4.291     -0.098    11.7584     95.226     30.622  19.175721     5.4861      8.431   266.2961 7.9365e+00     5.5199      4.210      6.105     6.3069 0.0000e+00
      4.275     -0.093    11.7610     95.181     30.630  19.180857     5.7254      8.431   265.8358 8.1081e+00     5.8284      4.194      6.083     6.3074 0.0000e+00
      4.253     -0.089    11.7675     95.129     30.601  19.163566     5.8495      8.431   265.4185 8.3317e+00     6.0032      4.173      6.052     6.3081 0.0000e+00
      4.227     -0.089    11.7648     95.094     30.589  19.156857     5.8542      8.431   265.0364 8.5744e+00     5.9595      4.147      6.013     6.3087 0.0000e+00
      4.200     -0.093    11.7605     95.067     30.599  19.163145     5.7572      8.431   264.8289 8.7712e+00     5.7438      4.115      5.969     6.3091 0.0000e+00
      4.178     -0.097    11.7558     95.054     30.619  19.176188     5.5672      8.431   264.6304 8.9272e+00     5.5136      4.095      5.940     6.3097 0.0000e+00
      4.159     -0.101    11.7457     95.061     30.637  19.187763     5.4707      8.431   264.3572 9.1245e+00     5.4644      4.081      5.918     6.3105 0.0000e+00
      4.134     -0.106    11.7442     95.085     30.618  19.176292     5.4561      8.431   264.2784 9.3752e+00     5.4560      4.055      5.882     6.3112 0.0000e+00
      4.105     -0.112    11.7388     95.115     30.598  19.164287     5.4408      8.431   264.2809 9.6588e+00     5.3780      4.026      5.840     6.3117 0.0000e+00
      4.074     -0.120    11.7369     95.130     30.606  19.169422     5.4531      8.431   264.1284 9.9617e+00     5.3421      3.996      5.796     6.3124 0.0000e+00
      4.041     -0.130    11.7383     95.137     30.615  19.174978     5.4871      8.431   263.8975 1.0283e+01     5.3977      3.962      5.747     6.3132 0.0000e+00
      4.008     -0.142    11.7404     95.152     30.604  19.168072     5.5108      8.432   263.7265 1.0632e+01     5.4688      3.930      5.699     6.3137 0.0000e+00
      3.974     -0.155    11.7463     95.186     30.573  19.149312     5.5072      8.433   263.6085 1.1014e+01     5.4500      3.898      5.654     6.3144 0.0000e+00
      3.937     -0.167    11.7466     95.238     30.554  19.138357     5.4941      8.433   263.4171 1.1484e+01     5.2385      3.865      5.606     6.3149 0.0000e+00
      3.891     -0.174    11.7471     95.293     30.592  19.162422     5.5013      8.433   263.1344 1.2069e+01     4.9625      3.819      5.539     6.3151 0.0000e+00
      3.837     -0.174    11.7483     95.343     30.630  19.186675     5.5203      8.433   262.8564 1.2703e+01     4.8108      3.762      5.457     6.3152 0.0000e+00
      3.782     -0.168    11.7523     95.383     30.615  19.178005     5.5151      8.433   262.6378 1.3294e+01     4.7027      3.705      5.374     6.3156 0.0000e+00
      3.737     -0.156    11.7597     95.425     30.625  19.184396     5.4800      8.434   262.4706 1.3781e+01     4.5781      3.660      5.308     6.3167 0.0000e+00
      3.702     -0.141    11.7658     95.479     30.650  19.200554     5.4453      8.435   262.3834 1.4203e+01     4.4998      3.629      5.263     6.3179 0.0000e+00
      3.674     -0.131    11.7726     95.529     30.624  19.183160     5.4450      8.436   262.3572 1.4571e+01     4.5075      3.601      5.223     6.3190 0.0000e+00
      3.649     -0.130    11.7763     95.563     30.594  19.164299     5.4599      8.436   262.2399 1.4887e+01     4.5005      3.578      5.190     6.3200 0.0000e+00
      3.624     -0.137    11.7801     95.577     30.590  19.162709     5.4258      8.436   261.9976 1.5316e+01     4.3801      3.558      5.161     6.3205 0.0000e+00
      3.590     -0.149    11.7887     95.568     30.588  19.163928     5.3656      8.435   261.7507 1.5933e+01     4.2816      3.525      5.112     6.3200 0.0000e+00
      3.546     -0.164    11.7954     95.569     30.607  19.179046     5.3483      8.435   261.5778 1.6708e+01     4.3003      3.480      5.048     6.3187 0.0000e+00
      3.496     -0.180    11.7999     95.604     30.658  19.218705     5.3490      8.435   261.4560 1.7586e+01     4.2644      3.428      4.973     6.3180 0.0000e+00
      3.444     -0.195    11.8023     95.656     30.702  19.263040     5.3492      8.435   261.3965 1.8401e+01     4.0868      3.375      4.894     6.3185 0.0000e+00
      3.397     -0.204    11.7979     95.727     30.675  19.271307     5.3674      8.436   261.2886 1.9231e+01     3.9290      3.333      4.833     6.3229 0.0000e+00
      3.348     -0.204    11.7944     95.847     30.615  19.255281     5.3945      8.437   261.0981 2.0318e+01     3.9615      3.288      4.770     6.3289 0.0000e+00
      3.289     -0.198    11.7985     96.010     30.599  19.259491     5.4198      8.437   260.8990 2.1565e+01     4.0704      3.227      4.681     6.3358 0.0000e+00
      3.229     -0.190    11.7973     96.188     30.578  19.258827     5.4152      8.437   260.6027 2.2686e+01     4.0503      3.162      4.586     6.3627 0.0000e+00
      3.177     -0.182    11.7878     96.373     30.545  19.247263     5.3630      8.437   260.3551 2.3544e+01     3.9579      3.109      4.508     6.4138 0.0000e+00
      3.139     -0.176    11.7922     96.535     30.535  19.246480     5.2968      8.437   260.3144 2.4264e+01     3.9090      3.076      4.461     6.4518 0.0000e+00
      3.107     -0.171    11.8101     96.666     30.533  19.249368     5.2552      8.438   260.2825 2.5128e+01     3.8696      3.051      4.425     6.4684 0.0000e+00
      3.069     -0.171    11.8225     96.781     30.573  19.282183     5.2426      8.439   260.2270 2.6260e+01     3.7883      3.012      4.369     6.4928 0.0000e+00
      3.023     -0.174    11.8442     96.904     30.619  19.326257     5.2272      8.439   260.2463 2.7588e+01     3.6778      2.965      4.301     6.5080 0.0000e+00
      2.973     -0.177    11.8623     97.074     30.608  19.338463     5.1946      8.439   260.3437 2.9071e+01     3.5581      2.917      4.230     6.5127 0.0000e+00
      2.921     -0.177    11.8748     97.268     30.621  19.366388     5.1734      8.439   260.4584 3.0578e+01     3.5365      2.863      4.153     6.5208 0.0000e+00
      2.871     -0.174    11.8877     97.442     30.656  19.410305     5.1615      8.440   260.4289 3.1902e+01     3.5538      2.811      4.078     6.5277 0.0000e+00
      2.830     -0.171    11.8902     97.620     30.633  19.425670     5.1345      8.441   260.3304 3.3018e+01     3.4936      2.771      4.019     6.5542 0.0000e+00
      2.795     -0.168    11.9024     97.822     30.582  19.425400     5.1225      8.442   260.3002 3.4134e+01     3.4926      2.743      3.978     6.5914 0.0000e+00
      2.758     -0.168    11.9213     98.027     30.514  19.407078     5.1404      8.442   260.2353 3.5532e+01     3.5751      2.709      3.928     6.6192 0.0000e+00
      2.713     -0.171    11.9310     98.251     30.475  19.394373     5.1425      8.442   260.1478 3.7200e+01     3.6366      2.661      3.859     6.6509 0.0000e+00
      2.664     -0.177    11.9343     98.455     30.486  19.398590     5.1070      8.442   260.1028 3.8939e+01     3.6222      2.611      3.787     6.7025 0.0000e+00
      2.618     -0.183    11.9464     98.582     30.496  19.394661     5.0596      8.443   260.0358 4.0768e+01     3.5377      2.567      3.724     6.7623 0.0000e+00
      2.571     -0.189    11.9532     98.678     30.534  19.410253     5.0446      8.444   259.9394 4.2759e+01     3.5372      2.522      3.658     6.8077 0.0000e+00
      2.523     -0.195    11.9766     98.750     30.613  19.460307     5.0591      8.445   259.7977 4.4761e+01     3.6167      2.473      3.585     6.8274 0.0000e+00
      2.476     -0.201    12.0110     98.797     30.647  19.492655     5.0605      8.445   259.6989 4.6963e+01     3.5757      2.429      3.523     6.8196 0.0000e+00
      2.426     -0.205    12.0254     98.859     30.602  19.484368     5.0190      8.444   259.6923 4.9839e+01     3.5202      2.383      3.456     6.7957 0.0000e+00
      2.369     -0.204    12.0456     98.936     30.567  19.486928     4.9653      8.444   259.7177 5.3108e+01     3.5949      2.322      3.368     6.7773 0.0000e+00
      2.309     -0.197    12.0548     99.015     30.590  19.523640     4.9518      8.444   259.7477 5.6341e+01     3.6591      2.263      3.282     6.7772 0.0000e+00
      2.253     -0.190    12.0520     99.105     30.597  19.547856     4.9561      8.445   259.7108 5.9477e+01     3.6473      2.208      3.202     6.7937 0.0000e+00
      2.205     -0.188    12.0491     99.211     30.536  19.526142     4.9176      8.446   259.6156 6.1886e+01     3.5884      2.155      3.126     6.8312 0.0000e+00
      2.170     -0.190    12.0461     99.330     30.501  19.514727     4.8530      8.448   259.5430 6.3575e+01     3.5270      2.125      3.083     6.8769 0.0000e+00
      2.138     -0.194    12.0445     99.464     30.527  19.536650     4.8323      8.449   259.4358 6.6218e+01     3.5545      2.106      3.054     6.9104 0.0000e+00
      2.088     -0.196    12.0451     99.581     30.527  19.537605     4.8337      8.450   259.2654 7.0607e+01     3.6137      2.056      2.981     6.9431 0.0000e+00
      2.020     -0.194    12.0500     99.665     30.511  19.526277     4.8198      8.451   259.1169 7.5465e+01     3.7306      1.979      2.871     6.9747 0.0000e+00
      1.954     -0.192    12.0571     99.740     30.511  19.526483     4.8227      8.451   258.9318 7.9806e+01     4.0108      1.910      2.771     6.9919 0.0000e+00
      1.902     -0.192    12.0740     99.833     30.528  19.540107     4.8522      8.451   258.7480 8.2951e+01     4.2355      1.859      2.695     7.0000 0.0000e+00
      1.867     -0.193    12.0892     99.934     30.558  19.564202     4.8685      8.451   258.7019 8.4866e+01     4.2951      1.828      2.651     6.9995 0.0000e+00
      1.839     -0.198    12.0990    100.019     30.546  19.564210     4.8779      8.451   258.7181 8.8337e+01     4.2871      1.810      2.625     6.9948 0.0000e+00
      1.798     -0.207    12.1062    100.093     30.493  19.540220     4.9074      8.453   258.6861 9.4651e+01     4.2419      1.772      2.570     6.9963 0.0000e+00
      1.734     -0.215    12.1163    100.168     30.459  19.527758     4.9342      8.456   258.7452 1.0282e+02     4.2611      1.705      2.472     7.0020 0.0000e+00
      1.658     -0.215    12.1284    100.257     30.466  19.540343     4.9434      8.456   258.8302 1.1158e+02     4.3138      1.625      2.357     7.0087 0.0000e+00
      1.585     -0.207    12.1341    100.359     30.494  19.565591     4.8934      8.456   258.7677 1.1866e+02     4.1619      1.550      2.248     7.0221 0.0000e+00
      1.528     -0.196    12.1369    100.440     30.503  19.579423     4.8048      8.457   258.6780 1.2323e+02     3.8924      1.490      2.161     7.0394 0.0000e+00
      1.494     -0.188    12.1409    100.487     30.495  19.580792     4.7706      8.458   258.6060 1.2538e+02     3.8220      1.459      2.116     7.0562 0.0000e+00
      1.474     -0.187    12.1473    100.525     30.492  19.582153     4.7721      8.459   258.5847 1.2763e+02     3.8570      1.452      2.104     7.0668 0.0000e+00
      1.440     -0.189    12.1593    100.561     30.512  19.595882     4.7641      8.459   258.5936 1.3436e+02     3.8384      1.424      2.065     7.0772 0.0000e+00
      1.382     -0.190    12.1651    100.589     30.550  19.619986     4.7156      8.460   258.5406 1.4402e+02     4.1770      1.361      1.974     7.0939 0.0000e+00
      1.308     -0.188    12.1645    100.591     30.547  19.619987     4.6353      8.460   258.4602 1.5454e+02     4.9457      1.281      1.857     7.1054 0.0000e+00
      1.240     -0.179    12.1683    100.588     30.503  19.595893     4.6007      8.461   258.3952 1.6451e+02     5.4130      1.205      1.748     7.1116 0.0000e+00
      1.197     -0.165    12.1717    100.599     30.475  19.582277     4.5957      8.462   258.2708 1.6925e+02     5.3860      1.165      1.690     7.1107 0.0000e+00
      1.175     -0.149    12.1789    100.603     30.470  19.582174     4.5921      8.464   258.0753 1.7219e+02     4.9610      1.151      1.669     7.1076 0.0000e+00
      1.158     -0.137    12.1763    100.614     30.488  19.594646     4.6154      8.466   257.9247 1.7904e+02     4.3058      1.140      1.653     7.1113 0.0000e+00
      1.131     -0.136    12.1710    100.660     30.506  19.606268     4.6448      8.467   257.8262 1.8695e+02     3.9878      1.116      1.618     7.1189 0.0000e+00
      1.089     -0.146    12.1737    100.724     30.489  19.595891     4.6553      8.468   257.7444 1.9514e+02     3.9857      1.070      1.554     7.1272 0.0000e+00
      1.041     -0.161    12.1705    100.793     30.484  19.595995     4.5851      8.470   257.7100 2.0297e+02     3.8700      1.018      1.477     7.1332 0.0000e+00
      0.996     -0.173    12.1688    100.876     30.497  19.607523     4.4455      8.470   257.6689 2.0943e+02     3.6482      0.975      1.414     7.1346 0.0000e+00
      0.953     -0.177    12.1774    100.961     30.494  19.608477     4.3825      8.470   257.5909 2.1728e+02     3.5925      0.937      1.359     7.1330 0.0000e+00
      0.908     -0.173    12.1855    101.030     30.490  19.607533     4.3966      8.471   257.6277 2.3051e+02     3.6402      0.892      1.293     7.1332 0.0000e+00
      0.860     -0.169    12.1910    101.058     30.470  19.596109     4.3421      8.473   257.6847 2.4686e+02     3.5763      0.841      1.220     7.1387 0.0000e+00
      0.815     -0.171    12.1993    101.040     30.468  19.597158     4.2141      8.474   257.5911 2.5808e+02     3.4689      0.797      1.155     7.1464 0.0000e+00
      0.776     -0.180    12.2095    101.012     30.501  19.620222     4.1477      8.474   257.5286 2.6214e+02     3.4351      0.758      1.099     7.1508 0.0000e+00
      0.741     -0.190    12.2179    100.983     30.499  19.621374     4.1472      8.475   257.4447 2.6605e+02     3.4750      0.729      1.058     7.1525 0.0000e+00
      0.697     -0.197    12.2225    100.998     30.479  19.611084     4.1164      8.475   257.1795 2.7818e+02     3.5067      0.692      1.003     7.1547 0.0000e+00
      0.637     -0.201    12.2151    101.072     30.492  19.622622     4.0582      8.475   256.9889 2.9179e+02     3.4775      0.628      0.911     7.1578 0.0000e+00
      0.569     -0.201    12.2119    101.065     30.505  19.634070     4.0422      8.475   256.9472 3.1131e+02     3.4984      0.554      0.805     7.1617 0.0000e+00
      0.508     -0.196    12.2068    101.011     30.481  19.622699     4.0643      8.475   256.7613 3.3136e+02     3.5881      0.490      0.711     7.1656 0.0000e+00
      0.463     -0.183    12.1991    101.044     30.460  19.611941     4.0515      8.476   256.4614 3.4277e+02     3.6048      0.449      0.652     7.1697 0.0000e+00
      0.429     -0.162    12.2229    101.069     30.485  19.630805     3.8373      8.478   256.3333 3.6423e+02     3.5298      0.425      0.617     7.1743 0.0000e+00
      0.392     -0.136    12.2172    101.036     30.529  19.660577     3.4713      8.478   256.3313 3.8935e+02     3.4663      0.385      0.559     7.1799 0.0000e+00
      0.352     -0.105    12.1930    101.035     30.515  19.654908     3.2893      8.477   256.3504 4.0564e+02     3.5207      0.341      0.494     7.1871 0.0000e+00
      0.320     -0.071    12.2098    101.104     30.464  19.625669     3.2927      8.477   256.3065 4.1974e+02     3.6411      0.312      0.453     7.1921 0.0000e+00
      0.299     -0.036    12.2121    101.162     30.459  19.624069     3.3037      8.477   256.1442 4.3058e+02     3.6925      0.285      0.414     7.1954 0.0000e+00
      0.296     -0.004    12.2013    101.164     30.476  19.635559     3.3066      8.477   255.9371 4.4246e+02     3.6982      0.282      0.409     7.1973 0.0000e+00
      0.314      0.014    12.1977    101.203     30.477  19.637789     3.3189      8.477   255.5233 4.4309e+02     3.7446      0.308      0.445     7.2019 0.0000e+00
      0.339      0.012    12.2073    101.260     30.493  19.651030     3.3280      8.477   254.8403 4.1974e+02     3.7745      0.335      0.485     7.2109 0.0000e+00
      0.357     -0.013    12.2214    101.299     30.517  19.668854     3.1747      8.477   254.2178 4.1338e+02     3.6838      0.355      0.515     7.2127 0.0000e+00
      0.358     -0.058    12.2088    101.336     30.504  19.663100     2.8719      8.477   253.8475 4.1956e+02     3.5360      0.359      0.521     7.2109 0.0000e+00
      0.338     -0.107    12.2182    101.329     30.473  19.644864     2.7052      8.477   253.5469 4.2369e+02     3.4572      0.339      0.492     7.2156 0.0000e+00
      0.295     -0.145    12.2264    101.299     30.463  19.638577     2.6817      8.478   253.3360 4.5682e+02     3.5163      0.296      0.431     7.2203 0.0000e+00
      0.231     -0.160    12.2243    101.290     30.477  19.650487     2.5542      8.480   253.3625 4.9267e+02     3.7040      0.229      0.333     7.2237 0.0000e+00
      0.164     -0.155    12.2345    101.268     30.487  19.662062     2.3043      8.480   253.3518 5.2183e+02     3.8819      0.152      0.220     7.2300 0.0000e+00
      0.114     -0.135    12.2292    101.208     30.464  19.651725     2.1661      8.480   253.1202 5.5369e+02     3.9933      0.101      0.146     7.2320 0.0000e+00
      0.091     -0.112    12.2235    101.168     30.462  19.652305     2.1734      8.481   252.8850 5.4635e+02     4.0943      0.083      0.121     7.2300 0.0000e+00
      0.087     -0.097    12.2226    101.145     30.487  19.669082     2.2428      8.482   252.9176 5.3263e+02     4.2837      0.083      0.120     7.2348 0.0000e+00
      0.085     -0.096    12.2215    101.117     30.478  19.664367     2.3478      8.481   255.0628 5.4504e+02     4.5413      0.090      0.129     7.2458 0.0000e+00
      0.068     -0.113    12.2040    101.091     30.470  19.658709     2.3947      8.479   257.2272 5.4804e+02     4.6805      0.077      0.112     7.2541 0.0000e+00
      0.031     -0.143    12.2014    101.051     30.480  19.664074     2.4013      8.479   255.3397 6.1268e+02     4.7369      0.034      0.049     7.2551 0.0000e+00
     -0.017     -0.181    12.2007    101.038     30.481  19.665830     2.4273      8.480   252.6323 7.6385e+02     4.7793     -0.017     -0.024     7.2561 0.0000e+00
     -0.070     -0.221    12.1923    101.088     30.501  19.679939     2.4761      8.481   251.6807 8.6884e+02     4.9198     -0.066     -0.096     7.2590 0.0000e+00
     -0.130     -0.261    12.1954    101.170     30.544  19.707870     2.5503      8.482   251.4912 8.9222e+02     5.2065     -0.126     -0.182     7.2570 0.0000e+00
     -0.196     -0.296    12.1859    101.230     30.603  19.749933     2.6005      8.480   247.9327 8.8176e+02     5.4099     -0.191     -0.277     7.2546 0.0000e+00
     -0.270     -0.317    12.1824    101.234     30.677  19.808116     2.5925      8.479   239.9731 8.3681e+02     5.4325     -0.257     -0.373     7.2582 0.0000e+00
     -0.363     -0.315    12.1893    101.200     30.705  19.840749     2.4026      8.480   234.9245 7.7265e+02     4.9330     -0.346     -0.503     7.2602 0.0000e+00
     -0.474     -0.290    12.2028    101.139     30.661  19.827501     2.0610      8.481   234.8150 7.0500e+02     4.0160     -0.469     -0.680     7.2561 0.0000e+00
     -0.577     -0.251    12.2115    101.030     29.974  19.394339     1.8920      8.482   236.2398 6.3540e+02     3.6026     -0.582     -0.843     7.2610 0.0000e+00
     -0.637     -0.201    12.2029    100.769     24.032  15.554446     1.9401      8.484   237.0949 5.8728e+02     3.6920     -0.644     -0.935     7.2811 0.0000e+00
     -0.653     -0.143    12.1918    100.275     13.345   8.638942     2.4586      8.485   236.8946 5.6640e+02     3.9356     -0.641     -0.930     7.3061 0.0000e+00
     -0.661     -0.088    12.1758     99.665      6.922   4.481131     3.4012      8.485   236.4850 5.2706e+02     4.3619     -0.639     -0.927     7.3327 0.0000e+00
     -0.679     -0.048    12.1608     99.062      5.501   3.560767     3.9152      8.487   236.4441 4.4268e+02     4.6790     -0.671     -0.974     7.3541 0.0000e+00
     -0.690     -0.028    12.1357     98.534      4.866   3.149252     3.8875      8.489   237.0885 3.7822e+02     4.7290     -0.679     -0.986     7.3640 0.0000e+00
     -0.691     -0.019    12.0646     98.151      4.425   2.863122     2.9244      8.489   238.2532 3.7249e+02     4.4544     -0.677     -0.981     7.3678 0.0000e+00
     -0.692     -0.012    11.9865     97.878      4.073   2.635155     1.1431      8.491   239.2556 3.7891e+02     3.9890     -0.679     -0.985     7.3678 0.0000e+00
     -0.693     -0.004    11.9156     97.681      3.840   2.483433     0.1870      8.494   240.0024 3.5714e+02     3.7820     -0.680     -0.986     7.3637 0.0000e+00
     -0.693     -0.000    11.8462     97.593      3.550   2.295615     0.1107      8.496   240.8295 2.9880e+02     3.8308     -0.681     -0.987     7.3573 0.0000e+00
     -0.693      0.000    11.8068     97.514      3.110   2.011284     0.0878      8.496   241.4266 2.3054e+02     3.7596     -0.679     -0.985     7.3503 0.0000e+00
     -0.692      0.001    11.7794     97.304      2.835   1.832856     0.0266      8.498   241.6291 1.8062e+02     2.7156     -0.678     -0.984     7.3435 0.0000e+00
     -0.692      0.001    11.7510     96.967      3.056   1.975296    -0.0460      8.498   241.8155 1.5310e+02     0.9086     -0.679     -0.985     7.3370 0.0000e+00
     -0.692      0.001    11.7479     96.510      3.718   2.403242    -0.0660      8.498   241.7017 1.4447e+02    -0.0519     -0.679     -0.985     7.3313 0.0000e+00
     -0.692      0.000    11.7505     95.908      4.275   2.762868    -0.0660      8.501   240.7689 1.4859e+02    -0.1874     -0.678     -0.984     7.3262 0.0000e+00
     -0.692 1.8613e-08    11.7223     95.258      4.491   2.902748    -0.0781      8.497   240.7755 1.5669e+02    -0.2182     -0.678     -0.984     7.3204 0.0000e+00
     -0.692 2.0474e-07    11.6819     94.660      4.669   3.017592    -0.0792      8.489   242.0402 1.6194e+02    -0.1848     -0.678     -0.984     7.3168 0.0000e+00
     -0.692 2.0472e-07    11.6327     94.135      4.855   3.137852    -0.0799      8.492   241.9500 1.6590e+02    -0.1930     -0.678     -0.984     7.3157 0.0000e+00
     -0.692 1.8306e-08    11.5525     93.756      4.977   3.216512    -0.0950      8.501   240.5452 1.7034e+02    -0.2489     -0.678     -0.984     7.3153 0.0000e+00
     -0.692 -1.694e-09    11.4686     93.537      6.533   4.222054    -0.0954      8.504   239.4232 1.7354e+02    -0.2462     -0.679     -0.985     7.3151 0.0000e+00
     -0.692 -3.710e-08    11.4003     93.392     13.375   8.643461    -0.0769      8.508   238.5369 1.7381e+02    -0.1935     -0.678     -0.984     7.3147 0.0000e+00
     -0.692 -4.098e-07    11.3307     93.315     23.670  15.295116    -0.0709      8.514   236.8830 1.7437e+02    -0.1586     -0.678     -0.984     7.3144 0.0000e+00
     -0.692      0.000    11.2831     93.335     29.782  19.241677    -0.0805      8.513   234.8276 1.8227e+02    -0.1326     -0.678     -0.984     7.3139 0.0000e+00
     -0.692      0.000    11.2659     93.470     31.029  20.041893    -0.0850      8.507   233.9049 1.9812e+02     0.0871     -0.678     -0.983     7.3128 0.0000e+00
     -0.692     -0.001    11.2462     93.743     30.916  19.961883    -0.0752      8.503   234.0724 2.1992e+02     0.5505     -0.679     -0.985     7.3102 0.0000e+00
     -0.693     -0.001    11.2361     94.132     28.115  18.147477    -0.0784      8.493   234.7015 2.4875e+02     0.7909     -0.679     -0.985     7.3071 0.0000e+00
     -0.693     -0.001    11.2392     94.533     21.227  13.698577    -0.0995      8.453   234.9734 2.7586e+02     0.7730     -0.679     -0.985     7.3046 0.0000e+00
     -0.693     -0.001    11.2556     94.764     14.078   9.083868    -0.1050      8.406   233.9177 2.9369e+02     1.2566     -0.679     -0.985     7.2956 0.0000e+00
     -0.693     -0.000    11.2942     94.644      9.428   6.082962    -0.0955      8.407   232.8642 3.0498e+02     2.1976     -0.680     -0.986     7.2804 0.0000e+00
     -0.693 -1.863e-08    11.3474     94.049      6.834   4.408601    -0.1005      8.440   232.9907 3.1194e+02     2.6540     -0.679     -0.986     7.2692 0.0000e+00
     -0.693 -2.049e-07    11.4073     92.949      5.976   3.855038    -0.1165      8.459   233.4681 3.2222e+02     2.6411     -0.679     -0.986     7.2629 0.0000e+00
     -0.693 -2.049e-07    11.4446     91.440      5.733   3.698069    -0.1223      8.462   233.4744 3.3611e+02     2.6569     -0.679     -0.986     7.2589 0.0000e+00
     -0.693 -1.863e-08    11.4354     89.735      5.365   3.460977    -0.1530      8.489   232.2924 3.7095e+02     3.2899     -0.679     -0.986     7.2570 0.0000e+00
     -0.693 -1.694e-09    11.3670     88.039      5.068   3.269015    -0.2214      8.583   231.2224 4.3133e+02     4.4524     -0.680     -0.986     7.2559 0.0000e+00
     -0.693 -1.552e-10    11.2290     86.549      4.885   3.150890    -0.2674      8.686   231.5496 4.6952e+02     5.0299     -0.679     -0.986     7.2551 0.0000e+00
     -0.693 -2.799e-11    11.0393     85.885      4.821   3.109683    -0.2760      8.722   231.9467 4.7637e+02     5.0466     -0.680     -0.986     7.2543 0.0000e+00
     -0.693 -9.990e-29    10.8196 -9.990e-29 -9.990e-29 -9.990e-29 -9.990e-29 -9.990e-29 -9.990e-29 4.8683e+02 -9.990e-29     -0.680     -0.987     7.2533 0.0000e+00
     -0.693 -9.990e-29    10.6192 -9.990e-29 -9.990e-29 -9.990e-29 -9.990e-29 -9.990e-29 -9.990e-29 5.2482e+02 -9.990e-29     -0.680     -0.986     7.2526 0.0000e+00
     -0.693 -9.990e-29    10.4099 -9.990e-29 -9.990e-29 -9.990e-29 -9.990e-29 -9.990e-29 -9.990e-29 5.5627e+02 -9.990e-29     -0.680     -0.986     7.2519 0.0000e+00
     -0.693 -9.990e-29    10.2826 -9.990e-29 -9.990e-29 -9.990e-29 -9.990e-29 -9.990e-29 -9.990e-29 5.5977e+02 -9.990e-29     -0.680     -0.986     7.2514 0.0000e+00
