* Sea-Bird SBE19plus  Data File:
* FileName = C:\R\Reservoirs\Data\DataNotYetUploadedToEDI\Raw_CTD\RawDownloads\031025_fcr50_S7809_0003.hex
* Software version 2.8.0.119
* Temperature SN = 7809
* Conductivity SN = 7809
* System UpLoad Time = Mar 13 2025 14:42:17
* <ApplicationData>
* <Seaterm232>
* <SoftwareVersion>2.8.0.119</SoftwareVersion>
* <BuildDate>07-Nov-2018</BuildDate>
* </Seaterm232>
* </ApplicationData>
* <InstrumentState>
* <HardwareData DeviceType='SBE19plus' SerialNumber='01907809'>
*
*    <Manufacturer>Sea-Bird Electronics, Inc.</Manufacturer>
*
*    <FirmwareVersion>3.1.8</FirmwareVersion>
*
*    <FirmwareDate>Mar  9 2016 16:22:29</FirmwareDate>
*
*    <CommandSetVersion>1.4</CommandSetVersion>
*
*    <PCBAssembly PCBSerialNum='120721' AssemblyNum='41054J'/>
*
*    <PCBAssembly PCBSerialNum='120715' AssemblyNum='41967A'/>
*
*    <PCBAssembly PCBSerialNum='116699' AssemblyNum='41606'/>
*
*    <PCBAssembly PCBSerialNum='120719' AssemblyNum='41059D'/>
*
*    <MfgDate>28-Apr-2017</MfgDate>
*
*    <InternalSensors>
*
*       <Sensor id='Main Temperature'>
*
*          <type>temperature0</type>
*
*          <SerialNumber>01907809</SerialNumber>
*
*       </Sensor>
*
*       <Sensor id='Main Conductivity'>
*
*          <type>conductivity-0</type>
*
*          <SerialNumber>01907809</SerialNumber>
*
*       </Sensor>
*
*       <Sensor id='Main Pressure'>
*
*          <type>strain-0</type>
*
*          <SerialNumber>10586018</SerialNumber>
*
*       </Sensor>
*
*    </InternalSensors>
*
*    <ExternalSensors>
*
*       <Sensor id='volt 0'>
*
*          <type>pH</type>
*
*          <SerialNumber>27-0363</SerialNumber>
*
*       </Sensor>
*
*       <Sensor id='volt 1'>
*
*          <type>ORP</type>
*
*          <SerialNumber>27-0363</SerialNumber>
*
*       </Sensor>
*
*       <Sensor id='volt 2'>
*
*          <type>OXY</type>
*
*          <SerialNumber>43-0434</SerialNumber>
*
*       </Sensor>
*
*       <Sensor id='volt 3'>
*
*          <type>PAR</type>
*
*          <SerialNumber>1122</SerialNumber>
*
*       </Sensor>
*
*       <Sensor id='volt 4'>
*
*          <type>ECO AFL/FL</type>
*
*          <SerialNumber>FLNTURT-2496</SerialNumber>
*
*       </Sensor>
*
*       <Sensor id='volt 5'>
*
*          <type>ECO-NTU</type>
*
*          <SerialNumber>FLNTURT-2496</SerialNumber>
*
*       </Sensor>
*
*       <Sensor id='serial'>
*
*          <type>not assigned</type>
*
*          <SerialNumber>not assigned</SerialNumber>
*
*       </Sensor>
*
*    </ExternalSensors>
*
* </HardwareData>
* <StatusData DeviceType='SBE19plus' SerialNumber='01907809'>
*
*    <DateTime>2025-03-13T14:40:41</DateTime>
*
*    <LoggingState>not logging</LoggingState>
*
*    <EventSummary numEvents='0'/>
*
*    <Power>
*
*       <vMain>13.0</vMain>
*
*       <vLith>8.3</vLith>
*
*       <iMain>63.1</iMain>
*
*       <iPump>63.3</iPump>
*
*       <iExt01>19.8</iExt01>
*
*       <iExt2345>36.3</iExt2345>
*
*    </Power>
*
*    <MemorySummary>
*
*       <Bytes>122429</Bytes>
*
*       <Samples>5323</Samples>
*
*       <SamplesFree>2855465</SamplesFree>
*
*       <SampleLength>23</SampleLength>
*
*       <Profiles>6</Profiles>
*
*    </MemorySummary>
*
* </StatusData>
* <ConfigurationData DeviceType='SBE19plus' SerialNumber='01907809'>
*
*    <ProfileMode>
*
*       <ScansToAverage>1</ScansToAverage>
*
*       <MinimumCondFreq>0</MinimumCondFreq>
*
*       <PumpDelay>45</PumpDelay>
*
*       <AutoRun>no</AutoRun>
*
*       <IgnoreSwitch>no</IgnoreSwitch>
*
*    </ProfileMode>
*
*    <Battery>
*
*       <Type>alkaline</Type>
*
*       <CutOff>7.5</CutOff>
*
*    </Battery>
*
*    <DataChannels>
*
*       <ExtVolt0>yes</ExtVolt0>
*
*       <ExtVolt1>yes</ExtVolt1>
*
*       <ExtVolt2>yes</ExtVolt2>
*
*       <ExtVolt3>yes</ExtVolt3>
*
*       <ExtVolt4>yes</ExtVolt4>
*
*       <ExtVolt5>yes</ExtVolt5>
*
*       <SBE38>no</SBE38>
*
*       <WETLABS>no</WETLABS>
*
*       <OPTODE>no</OPTODE>
*
*       <SBE63>no</SBE63>
*
*       <SeaFET>no</SeaFET>
*
*       <GTD>no</GTD>
*
*    </DataChannels>
*
*    <EchoCharacters>yes</EchoCharacters>
*
*    <OutputExecutedTag>yes</OutputExecutedTag>
*
*    <OutputFormat>raw HEX</OutputFormat>
*
* </ConfigurationData>
* <CalibrationCoefficients DeviceType='SBE19plus' SerialNumber='01907809'>
*
*    <Calibration format='TEMP1' id='Main Temperature'>
*
*       <SerialNum>01907809</SerialNum>
*
*       <CalDate>31-Jan-23</CalDate>
*
*       <TA0>1.218232e-03</TA0>
*
*       <TA1>2.815090e-04</TA1>
*
*       <TA2>-1.578887e-06</TA2>
*
*       <TA3>1.972343e-07</TA3>
*
*       <TOFFSET>0.000000e+00</TOFFSET>
*
*    </Calibration>
*
*    <Calibration format='WBCOND0' id='Main Conductivity'>
*
*       <SerialNum>01907809</SerialNum>
*
*       <CalDate>31-Jan-23</CalDate>
*
*       <G>-1.005652e+00</G>
*
*       <H>1.267963e-01</H>
*
*       <I>-1.561708e-04</I>
*
*       <J>2.645944e-05</J>
*
*       <CPCOR>-9.570000e-08</CPCOR>
*
*       <CTCOR>3.250000e-06</CTCOR>
*
*       <CSLOPE>1.000000e+00</CSLOPE>
*
*    </Calibration>
*
*    <Calibration format='STRAIN0' id='Main Pressure'>
*
*       <SerialNum>10586018</SerialNum>
*
*       <CalDate>20-Jan-23</CalDate>
*
*       <PA0>4.416439e-02</PA0>
*
*       <PA1>4.850502e-04</PA1>
*
*       <PA2>-3.090426e-12</PA2>
*
*       <PTCA0>5.254757e+05</PTCA0>
*
*       <PTCA1>1.050255e+01</PTCA1>
*
*       <PTCA2>-2.922435e-01</PTCA2>
*
*       <PTCB0>2.516687e+01</PTCB0>
*
*       <PTCB1>3.750000e-04</PTCB1>
*
*       <PTCB2>0.000000e+00</PTCB2>
*
*       <PTEMPA0>-5.470820e+01</PTEMPA0>
*
*       <PTEMPA1>5.485421e+01</PTEMPA1>
*
*       <PTEMPA2>-3.446578e-01</PTEMPA2>
*
*       <POFFSET>8.500000e-01</POFFSET>
*
*       <PRANGE>1.600000e+02</PRANGE>
*
*    </Calibration>
*
*    <Calibration format='VOLT0' id='Volt 0'>
*
*       <OFFSET>-4.920000e-02</OFFSET>
*
*       <SLOPE>1.248122e+00</SLOPE>
*
*    </Calibration>
*
*    <Calibration format='VOLT0' id='Volt 1'>
*
*       <OFFSET>-4.784000e-02</OFFSET>
*
*       <SLOPE>1.248871e+00</SLOPE>
*
*    </Calibration>
*
*    <Calibration format='VOLT0' id='Volt 2'>
*
*       <OFFSET>-4.864632e-02</OFFSET>
*
*       <SLOPE>1.248714e+00</SLOPE>
*
*    </Calibration>
*
*    <Calibration format='VOLT0' id='Volt 3'>
*
*       <OFFSET>-4.743790e-02</OFFSET>
*
*       <SLOPE>1.248571e+00</SLOPE>
*
*    </Calibration>
*
*    <Calibration format='VOLT0' id='Volt 4'>
*
*       <OFFSET>-4.671263e-02</OFFSET>
*
*       <SLOPE>1.248951e+00</SLOPE>
*
*    </Calibration>
*
*    <Calibration format='VOLT0' id='Volt 5'>
*
*       <OFFSET>-4.871053e-02</OFFSET>
*
*       <SLOPE>1.249136e+00</SLOPE>
*
*    </Calibration>
*
*    <Calibration format='FREQ0' id='external frequency channel'>
*
*       <EXTFREQSF>1.000014e+00</EXTFREQSF>
*
*    </Calibration>
*
* </CalibrationCoefficients>
* <EventCounters DeviceType='SBE19plus' SerialNumber='01907809'>
*
*    <EventSummary numEvents='0'/>
*
* </EventCounters></InstrumentState>
* <Headers>
*
* cast   3 10 Mar 2025 13:21:09 samples 1811 to 2481, avg = 1, stop = mag switch
*
# nquan = 15
# nvalues = 671                         
# units = specified
# name 0 = depFM: Depth [fresh water, m]
# name 1 = dz/dtM: Descent Rate [m/s]
# name 2 = sbeox0Mg/L: Oxygen, SBE 43 [mg/l]
# name 3 = sbeox0PS: Oxygen, SBE 43 [% saturation]
# name 4 = specc: Specific Conductance [uS/cm]
# name 5 = c0uS/cm: Conductivity [uS/cm]
# name 6 = flECO-AFL: Fluorescence, WET Labs ECO-AFL/FL [mg/m^3]
# name 7 = ph: pH
# name 8 = orp: Oxidation Reduction Potential [mV]
# name 9 = par/sat/log: PAR/Logarithmic, Satlantic
# name 10 = turbWETntu0: Turbidity, WET Labs ECO [NTU]
# name 11 = prdM: Pressure, Strain Gauge [db]
# name 12 = prdE: Pressure, Strain Gauge [psi]
# name 13 = tv290C: Temperature [ITS-90, deg C]
# name 14 = flag:  0.000e+00
# span 0 =     -0.689,      3.209       
# span 1 =     -0.333,      0.218       
# span 2 =     9.5576,    12.8170       
# span 3 =     78.803,    105.010       
# span 4 =      1.401,     31.051       
# span 5 =   0.914030,  19.773564       
# span 6 =    -0.1002,    46.7009       
# span 7 =      7.650,      8.068       
# span 8 =     5.5356,   254.3387       
# span 9 = 2.5431e+01, 1.5498e+03       
# span 10 =    -0.2671,   242.8137      
# span 11 =     -0.677,      3.147      
# span 12 =     -0.982,      4.565      
# span 13 =     6.3218,     7.6292      
# span 14 = 0.0000e+00, 0.0000e+00      
# interval = seconds: 0.25
# start_time = Mar 10 2025 13:21:09 [Instrument's time stamp, header]
# bad_flag = -9.990e-29
# <Sensors count="9" >
#   <sensor Channel="1" >
#     <!-- Count, Temperature -->
#     <TemperatureSensor SensorID="58" >
#       <SerialNumber>7809</SerialNumber>
#       <CalibrationDate>31-Jan-23</CalibrationDate>
#       <A0>1.21823180e-003</A0>
#       <A1>2.81508993e-004</A1>
#       <A2>-1.57888696e-006</A2>
#       <A3>1.97234302e-007</A3>
#       <Slope>1.00000000</Slope>
#       <Offset>0.0000</Offset>
#     </TemperatureSensor>
#   </sensor>
#   <sensor Channel="2" >
#     <!-- Frequency 0, Conductivity -->
#     <ConductivitySensor SensorID="3" >
#       <SerialNumber>7809</SerialNumber>
#       <CalibrationDate>31-Jan-23</CalibrationDate>
#       <UseG_J>1</UseG_J>
#       <!-- Cell const and series R are applicable only for wide range sensors. -->
#       <SeriesR>0.0000</SeriesR>
#       <CellConst>2000.0000</CellConst>
#       <ConductivityType>0</ConductivityType>
#       <Coefficients equation="0" >
#         <A>0.00000000e+000</A>
#         <B>0.00000000e+000</B>
#         <C>0.00000000e+000</C>
#         <D>0.00000000e+000</D>
#         <M>0.0</M>
#         <CPcor>-9.57000000e-008</CPcor>
#       </Coefficients>
#       <Coefficients equation="1" >
#         <G>-1.00565232e+000</G>
#         <H>1.26796307e-001</H>
#         <I>-1.56170788e-004</I>
#         <J>2.64594368e-005</J>
#         <CPcor>-9.57000000e-008</CPcor>
#         <CTcor>3.2500e-006</CTcor>
#         <!-- WBOTC not applicable unless ConductivityType = 1. -->
#         <WBOTC>0.00000000e+000</WBOTC>
#       </Coefficients>
#       <Slope>1.00000000</Slope>
#       <Offset>0.00000</Offset>
#     </ConductivitySensor>
#   </sensor>
#   <sensor Channel="3" >
#     <!-- Count, Pressure, Strain Gauge -->
#     <PressureSensor SensorID="46" >
#       <SerialNumber>7809</SerialNumber>
#       <CalibrationDate>20-Jan-23</CalibrationDate>
#       <PA0>4.41643944e-002</PA0>
#       <PA1>4.85050239e-004</PA1>
#       <PA2>-3.09042623e-012</PA2>
#       <PTEMPA0>-5.47081996e+001</PTEMPA0>
#       <PTEMPA1>5.48542136e+001</PTEMPA1>
#       <PTEMPA2>-3.44657813e-001</PTEMPA2>
#       <PTCA0>5.25475731e+005</PTCA0>
#       <PTCA1>1.05025484e+001</PTCA1>
#       <PTCA2>-2.92243463e-001</PTCA2>
#       <PTCB0>2.51668750e+001</PTCB0>
#       <PTCB1>3.75000000e-004</PTCB1>
#       <PTCB2>0.00000000e+000</PTCB2>
#       <Offset>0.000000</Offset>
#     </PressureSensor>
#   </sensor>
#   <sensor Channel="4" >
#     <!-- A/D voltage 0, Oxygen, SBE 43 -->
#     <OxygenSensor SensorID="38" >
#       <SerialNumber>0434</SerialNumber>
#       <CalibrationDate>18-Feb-23</CalibrationDate>
#       <Use2007Equation>1</Use2007Equation>
#       <CalibrationCoefficients equation="0" >
#         <!-- Coefficients for Owens-Millard equation. -->
#         <Boc>0.0000</Boc>
#         <Soc>0.0000e+000</Soc>
#         <offset>0.0000</offset>
#         <Pcor>0.00e+000</Pcor>
#         <Tcor>0.0000</Tcor>
#         <Tau>0.0</Tau>
#       </CalibrationCoefficients>
#       <CalibrationCoefficients equation="1" >
#         <!-- Coefficients for Sea-Bird equation - SBE calibration in 2007 and later. -->
#         <Soc>5.1878e-001</Soc>
#         <offset>-0.5046</offset>
#         <A>-4.2788e-003</A>
#         <B> 1.5372e-004</B>
#         <C>-2.1853e-006</C>
#         <D0> 2.5826e+000</D0>
#         <D1> 1.92634e-004</D1>
#         <D2>-4.64803e-002</D2>
#         <E> 3.6000e-002</E>
#         <Tau20> 0.9900</Tau20>
#         <H1>-3.3000e-002</H1>
#         <H2> 5.0000e+003</H2>
#         <H3> 1.4500e+003</H3>
#       </CalibrationCoefficients>
#     </OxygenSensor>
#   </sensor>
#   <sensor Channel="5" >
#     <!-- A/D voltage 1, PAR/Logarithmic, Satlantic -->
#     <PARLog_SatlanticSensor SensorID="76" >
#       <SerialNumber>1122</SerialNumber>
#       <CalibrationDate>08-Sep-2021</CalibrationDate>
#       <a0>9.6751e-001</a0>
#       <a1>8.0992e-001</a1>
#       <Im>1.3589e+000</Im>
#       <Multiplier>1.0000e+000</Multiplier>
#     </PARLog_SatlanticSensor>
#   </sensor>
#   <sensor Channel="6" >
#     <!-- A/D voltage 2, pH -->
#     <pH_Sensor SensorID="43" >
#       <SerialNumber>0363</SerialNumber>
#       <CalibrationDate>28-Feb-23</CalibrationDate>
#       <Slope>4.7364</Slope>
#       <Offset>2.5433</Offset>
#     </pH_Sensor>
#   </sensor>
#   <sensor Channel="7" >
#     <!-- A/D voltage 3, Oxidation Reduction Potential -->
#     <OxidationReductionPotentialSensor SensorID="41" >
#       <SerialNumber>0363</SerialNumber>
#       <CalibrationDate>28-Feb-23</CalibrationDate>
#       <B>2.499480</B>
#       <M>-0.496195</M>
#       <Offset>0.0</Offset>
#     </OxidationReductionPotentialSensor>
#   </sensor>
#   <sensor Channel="8" >
#     <!-- A/D voltage 4, Fluorometer, WET Labs ECO-AFL/FL -->
#     <FluoroWetlabECO_AFL_FL_Sensor SensorID="20" >
#       <SerialNumber>FLNTURT-2496</SerialNumber>
#       <CalibrationDate>02-Sep-2021</CalibrationDate>
#       <ScaleFactor>4.80000000e+001</ScaleFactor>
#       <!-- Dark output -->
#       <Vblank>0.0550</Vblank>
#     </FluoroWetlabECO_AFL_FL_Sensor>
#   </sensor>
#   <sensor Channel="9" >
#     <!-- A/D voltage 5, Turbidity Meter, WET Labs, ECO-NTU -->
#     <TurbidityMeter SensorID="67" >
#       <SerialNumber>FLNTURT--2496</SerialNumber>
#       <CalibrationDate>02-Sep-2021</CalibrationDate>
#       <ScaleFactor>197.000000</ScaleFactor>
#       <!-- Dark output -->
#       <DarkVoltage>0.070000</DarkVoltage>
#     </TurbidityMeter>
#   </sensor>
# </Sensors>
# datcnv_date = Mar 13 2025 14:54:45, 7.26.7.129 [datcnv_vars = 14]
# datcnv_in = C:\R\Reservoirs\Data\DataNotYetUploadedToEDI\Raw_CTD\RawDownloads\031025_fcr20_S7809003.hex C:\R\Reservoirs\Data\DataNotYetUploadedToEDI\Raw_CTD\RawDownloads\SBE19plusV2_7809_start20230701.xmlcon
# datcnv_skipover = 0
# datcnv_ox_hysteresis_correction = yes
# datcnv_ox_tau_correction = yes
# filter_date = Mar 13 2025 14:55:12, 7.26.7.129
# filter_in = C:\R\Reservoirs\Data\DataNotYetUploadedToEDI\Raw_CTD\RawDownloads\031025_fcr20_S7809003.cnv
# filter_low_pass_tc_A = 0.030
# filter_low_pass_tc_B = 0.150
# filter_low_pass_A_vars = sbeox0Mg/L prdM prdE tv290C
# filter_low_pass_B_vars = depFM dz/dtM sbeox0PS specc c0uS/cm flECO-AFL ph orp par/sat/log turbWETntu0
# alignctd_date = Mar 13 2025 14:55:57, 7.26.7.129
# alignctd_in = C:\R\Reservoirs\Data\DataNotYetUploadedToEDI\Raw_CTD\RawDownloads\031025_fcr20_S7809003.cnv
# alignctd_adv = dz/dtM 1.000, sbeox0PS 1.000, specc 1.000, c0uS/cm 1.000, flECO-AFL 1.000, ph 1.000, orp 1.000, turbWETntu0 1.000                                                                                                   
# file_type = ascii
*END*
     -0.689 5.3473e-09    11.0191     92.274      1.419   0.925552    -0.0845      7.676   141.6647 2.7668e+02    -0.1594     -0.676     -0.980     7.6123 0.0000e+00
     -0.689 5.8820e-08    11.0198     92.282      1.401   0.914030    -0.1002      7.688   124.4013 2.9250e+02    -0.2034     -0.676     -0.980     7.6142 0.0000e+00
     -0.689 6.4702e-07    11.0248     92.304      1.402   0.915106    -0.0984      7.696   100.4711 3.2473e+02    -0.1849     -0.676     -0.981     7.6164 0.0000e+00
     -0.689      0.000    11.0282     92.345      1.438   0.938568     0.0696      7.700    70.2632 3.5381e+02     0.5419     -0.676     -0.981     7.6181 0.0000e+00
     -0.689      0.000    11.0318     92.372      1.448   0.944328     0.3671      7.704    34.7442 3.6956e+02     1.8555     -0.676     -0.981     7.6200 0.0000e+00
     -0.689      0.001    11.0297     92.394      1.509   0.984753     0.5272      7.709     5.5356 3.9086e+02     2.5809     -0.676     -0.980     7.6214 0.0000e+00
     -0.689      0.004    11.0316     92.452      2.382   1.554031     0.5654      7.744    12.8209 4.2421e+02     2.8224     -0.676     -0.981     7.6233 0.0000e+00
     -0.689      0.014    11.0387     92.529      5.696   3.709966     0.7212      7.826    78.6920 4.7338e+02     4.0230     -0.676     -0.981     7.6242 0.0000e+00
     -0.689      0.031    11.0417     92.595     12.966   8.426744     0.9958      7.884   155.2207 5.5091e+02     6.0980     -0.676     -0.979     7.6261 0.0000e+00
     -0.687      0.054    11.0396     92.628     22.330  14.483159     1.1548      7.861   187.7744 6.5879e+02     7.2445     -0.677     -0.982     7.6261 0.0000e+00
     -0.675      0.079    11.0489     92.642     28.679  18.568519     1.1874      7.811   191.1191 7.9054e+02     7.3643     -0.668     -0.970     7.6292 0.0000e+00
     -0.648      0.108    11.0608     92.700     30.517  19.727463     1.2075      7.781   197.0380 9.0985e+02     7.2734     -0.638     -0.925     7.6205 0.0000e+00
     -0.611      0.135    11.0899     92.839     30.591  19.747254     1.2145      7.766   203.5864 9.8887e+02     7.0336     -0.599     -0.869     7.5473 0.0000e+00
     -0.570      0.159    11.1219     93.006     30.551  19.695407     1.2139      7.753   198.2797 1.0601e+03     6.8903     -0.558     -0.810     7.4447 0.0000e+00
     -0.525      0.180    11.1387     93.086     30.553  19.671173     1.2250      7.739   191.8122 1.1535e+03     6.9411     -0.517     -0.750     7.3718 0.0000e+00
     -0.476      0.197    11.1599     93.096     30.647  19.707836     1.2491      7.729   191.3809 1.2497e+03     6.9648     -0.468     -0.677     7.3179 0.0000e+00
     -0.426      0.211    11.1883     93.139     30.754  19.758256     1.2716      7.720   191.8604 1.3216e+03     6.9037     -0.417     -0.604     7.2735 0.0000e+00
     -0.372      0.218    11.2312     93.290     30.799  19.773564     1.2975      7.708   192.2755 1.3390e+03     6.8849     -0.371     -0.537     7.2323 0.0000e+00
     -0.309      0.218    11.2491     93.597     30.799  19.766103     1.3128      7.697   192.5275 1.3155e+03     6.9079     -0.305     -0.442     7.1883 0.0000e+00
     -0.242      0.208    11.2555     93.996     30.750  19.731444     1.3158      7.687   192.6700 1.3212e+03     6.8071     -0.233     -0.340     7.1484 0.0000e+00
     -0.183      0.189    11.2685     94.416     30.663  19.671513     1.3338      7.681   192.7942 1.2687e+03     6.5548     -0.174     -0.252     7.1185 0.0000e+00
     -0.135      0.159    11.2868     94.876     30.582  19.612096     1.3473      7.675   193.0824 1.0968e+03     6.3844     -0.129     -0.186     7.0963 0.0000e+00
     -0.099      0.119    11.3334     95.386     30.552  19.583641     1.3537      7.667   193.4877 9.6596e+02     6.3863     -0.094     -0.137     7.0835 0.0000e+00
     -0.074      0.076    11.3867     95.908     30.558  19.581064     1.3689      7.659   193.7367 9.8606e+02     6.4069     -0.068     -0.098     7.0822 0.0000e+00
     -0.060      0.038    11.4351     96.393     30.564  19.580932     1.3564      7.655   193.8558 1.0912e+03     6.2576     -0.056     -0.080     7.0789 0.0000e+00
     -0.058      0.012    11.4949     96.751     30.569  19.582043     1.3109      7.653   194.0672 1.1261e+03     6.0507     -0.051     -0.074     7.0638 0.0000e+00
     -0.068     -0.003    11.5640     96.914     30.589  19.594503     1.2765      7.652   194.3999 1.1078e+03     5.9882     -0.063     -0.091     7.0467 0.0000e+00
     -0.085     -0.008    11.6322     96.991     30.603  19.604772     1.2813      7.652   194.8680 1.0974e+03     5.9472     -0.089     -0.128     7.0352 0.0000e+00
     -0.093     -0.004    11.6951     97.034     30.563  19.579412     1.3195      7.651   195.2532 1.0501e+03     5.8612     -0.096     -0.140     7.0304 0.0000e+00
     -0.088      0.006    11.7483     96.954     30.506  19.541475     1.3474      7.650   195.3568 1.0475e+03     5.8363     -0.086     -0.125     7.0272 0.0000e+00
     -0.078      0.016    11.7577     96.771     30.488  19.526489     1.3528      7.651   195.4320 1.1511e+03     5.9202     -0.076     -0.110     7.0256 0.0000e+00
     -0.068      0.022    11.7616     96.551     30.493  19.525024     1.3602      7.651   195.5604 1.1720e+03     6.0222     -0.065     -0.095     7.0296 0.0000e+00
     -0.059      0.023    11.7778     96.312     30.500  19.523747     1.3612      7.652   195.5332 1.0477e+03     6.0446     -0.055     -0.081     7.0310 0.0000e+00
     -0.054      0.023    11.7638     96.057     30.490  19.511047     1.3482      7.655   195.4477 9.9219e+02     6.0544     -0.052     -0.076     7.0281 0.0000e+00
     -0.052      0.023    11.7398     95.660     30.480  19.498271     1.3367      7.658   195.5579 1.0415e+03     6.0720     -0.051     -0.075     7.0229 0.0000e+00
     -0.051      0.024    11.7169     95.010     30.486  19.496070     1.3384      7.659   195.8334 1.0957e+03     6.0862     -0.051     -0.074     7.0140 0.0000e+00
     -0.045      0.024    11.6878     94.295     30.474  19.484430     1.3522      7.659   196.1115 1.0966e+03     6.1239     -0.048     -0.068     7.0044 0.0000e+00
     -0.034      0.024    11.6646     93.710     30.479  19.484326     1.3613      7.660   196.2526 1.0084e+03     6.1185     -0.034     -0.049     6.9943 0.0000e+00
     -0.022      0.023    11.6334     93.201     30.499  19.494805     1.3575      7.661   196.2498 9.1900e+02     6.1231     -0.019     -0.027     6.9832 0.0000e+00
     -0.015      0.020    11.5419     92.688     30.486  19.484326     1.3479      7.664   196.3359 9.1796e+02     6.1793     -0.013     -0.019     6.9730 0.0000e+00
     -0.014      0.014    11.4447     92.139     30.489  19.484421     1.3359      7.666   196.6049 9.5002e+02     6.1495     -0.014     -0.021     6.9662 0.0000e+00
     -0.014      0.008    11.3834     91.518     30.509  19.495957     1.3298      7.668   196.8362 9.4921e+02     6.0018     -0.015     -0.022     6.9615 0.0000e+00
     -0.012      0.004    11.3255     90.857     30.513  19.497005     1.3315      7.669   196.9802 9.1784e+02     5.8622     -0.012     -0.016     6.9570 0.0000e+00
     -0.012      0.002    11.2640     90.222     30.516  19.497092     1.3322      7.671   197.1417 8.7449e+02     5.8612     -0.011     -0.016     6.9535 0.0000e+00
     -0.013      0.002    11.2012     89.590     30.517  19.497006     1.3383      7.671   197.3260 8.6265e+02     5.9563     -0.015     -0.021     6.9513 0.0000e+00
     -0.012      0.001    11.1254     89.005     30.515  19.495969     1.3467      7.672   197.4883 9.1796e+02     6.0210     -0.013     -0.019     6.9494 0.0000e+00
     -0.011      0.001    11.0392     88.648     30.497  19.484545     1.3426      7.674   197.6412 1.0049e+03     6.0629     -0.009     -0.013     6.9464 0.0000e+00
     -0.011      0.001    10.9670     88.578     30.499  19.485688     1.3385      7.674   197.8846 1.0374e+03     6.1215     -0.010     -0.014     6.9437 0.0000e+00
     -0.012      0.001    10.8914     88.721     30.536  19.509791     1.3473      7.674   198.1071 9.9737e+02     6.1826     -0.012     -0.017     6.9426 0.0000e+00
     -0.012      0.001    10.8063     89.021     30.556  19.522366     1.3493      7.674   198.2671 9.7801e+02     6.1873     -0.013     -0.019     6.9428 0.0000e+00
     -0.012      0.000    10.7608     89.356     30.536  19.510924     1.3365      7.675   198.4430 9.9343e+02     6.1434     -0.013     -0.019     6.9433 0.0000e+00
     -0.011      0.000    10.7600     89.587     30.515  19.498252     1.3269      7.678   198.5990 1.0007e+03     6.1309     -0.010     -0.015     6.9433 0.0000e+00
     -0.010     -0.001    10.7755     89.686     30.510  19.495957     1.3333      7.679   198.8628 1.0071e+03     6.1384     -0.008     -0.011     6.9433 0.0000e+00
     -0.010     -0.001    10.8183     89.632     30.490  19.483173     1.3467      7.680   199.2227 9.9318e+02     6.0628     -0.009     -0.013     6.9440 0.0000e+00
     -0.012     -0.001    10.8675     89.387     30.471  19.470483     1.3473      7.681   199.4232 9.7328e+02     5.9008     -0.013     -0.018     6.9453 0.0000e+00
     -0.014     -0.001    10.8936     89.016     30.471  19.469330     1.3498      7.682   199.5667 9.6338e+02     5.8539     -0.015     -0.021     6.9467 0.0000e+00
     -0.015      0.000    10.9049     88.571     30.472  19.469225     1.3595      7.682   199.8385 9.4288e+02     5.9398     -0.015     -0.022     6.9480 0.0000e+00
     -0.014      0.001    10.9044     88.075     30.474  19.469215     1.3739      7.682   200.0420 9.3160e+02     5.9482     -0.014     -0.020     6.9486 0.0000e+00
     -0.011      0.002    10.8679     87.619     30.476  19.469215     1.3901      7.682   200.2209 9.4645e+02     5.8874     -0.011     -0.015     6.9479 0.0000e+00
     -0.010      0.003    10.8211     87.299     30.479  19.469215     1.3961      7.684   200.5387 9.6646e+02     5.8878     -0.009     -0.013     6.9460 0.0000e+00
     -0.010      0.003    10.7700     87.163     30.481  19.469216     1.4056      7.687   200.7877 9.8432e+02     5.9192     -0.009     -0.013     6.9441 0.0000e+00
     -0.011      0.003    10.7031     87.216     30.483  19.469225     1.4053      7.687   200.9078 1.0037e+03     5.9253     -0.011     -0.015     6.9428 0.0000e+00
     -0.011      0.002    10.6447     87.440     30.484  19.469330     1.3924      7.687   201.0449 1.0095e+03     5.9610     -0.012     -0.017     6.9406 0.0000e+00
     -0.009      0.002    10.6042     87.782     30.487  19.470483     1.3917      7.688   201.2408 9.9405e+02     6.0784     -0.010     -0.014     6.9372 0.0000e+00
     -0.007      0.002    10.5893     88.166     30.508  19.483162     1.4045      7.689   201.4688 9.8502e+02     6.2172     -0.007     -0.009     6.9343 0.0000e+00
     -0.006      0.001    10.5959     88.529     30.529  19.495833     1.4137      7.691   201.7375 9.8406e+02     6.2383     -0.005     -0.007     6.9325 0.0000e+00
     -0.007      0.000    10.6264     88.867     30.531  19.496881     1.4030      7.691   201.9949 9.6747e+02     6.1288     -0.006     -0.010     6.9318 0.0000e+00
     -0.008     -0.001    10.6707     89.158     30.530  19.495833     1.3916      7.692   202.1717 9.6817e+02     6.0545     -0.008     -0.012     6.9311 0.0000e+00
     -0.009     -0.001    10.7225     89.343     30.510  19.483163     1.3933      7.693   202.3267 9.7640e+02     6.0919     -0.008     -0.012     6.9300 0.0000e+00
     -0.009     -0.001    10.7654     89.427     30.490  19.470483     1.4068      7.693   202.4912 9.6799e+02     6.1708     -0.009     -0.013     6.9288 0.0000e+00
     -0.009     -0.001    10.8066     89.432     30.488  19.469331     1.4125      7.694   202.6989 9.7508e+02     6.1203     -0.010     -0.014     6.9278 0.0000e+00
     -0.009      0.000    10.8477     89.367     30.488  19.469227     1.3960      7.696   202.9444 9.7789e+02     5.9594     -0.009     -0.013     6.9274 0.0000e+00
     -0.009      0.000    10.8680     89.270     30.488  19.469227     1.3991      7.699   203.1373 9.5872e+02     5.9332     -0.008     -0.012     6.9273 0.0000e+00
     -0.009      0.001    10.8769     89.136     30.489  19.469331     1.4250      7.701   203.2238 9.4142e+02     5.9743     -0.008     -0.012     6.9272 0.0000e+00
     -0.009      0.001    10.8788     88.956     30.491  19.470484     1.4336      7.701   203.3024 9.3797e+02     5.9786     -0.008     -0.012     6.9276 0.0000e+00
     -0.009      0.002    10.8669     88.764     30.511  19.483164     1.4200      7.702   203.4849 9.5485e+02     6.0189     -0.009     -0.013     6.9275 0.0000e+00
     -0.008      0.002    10.8562     88.572     30.531  19.495844     1.4023      7.705   203.7100 9.6343e+02     6.0862     -0.008     -0.012     6.9272 0.0000e+00
     -0.007      0.002    10.8427     88.397     30.532  19.496996     1.4025      7.707   203.9590 9.3528e+02     6.1428     -0.007     -0.010     6.9265 0.0000e+00
     -0.006      0.002    10.8165     88.242     30.532  19.497092     1.4058      7.707   204.1730 9.0493e+02     6.0886     -0.006     -0.008     6.9254 0.0000e+00
     -0.006      0.001    10.7947     88.084     30.532  19.497006     1.3925      7.708   204.3182 8.9825e+02     5.9432     -0.005     -0.007     6.9254 0.0000e+00
     -0.006      0.000    10.7698     87.945     30.530  19.495958     1.3919      7.710   204.4242 9.0095e+02     5.8875     -0.006     -0.008     6.9264 0.0000e+00
     -0.006     -0.001    10.7471     87.845     30.513  19.484422     1.4144      7.712   204.5944 9.1010e+02     5.9284     -0.006     -0.009     6.9273 0.0000e+00
     -0.007     -0.001    10.7312     87.740     30.513  19.484317     1.4235      7.715   204.9130 9.1452e+02     5.9246     -0.006     -0.009     6.9279 0.0000e+00
     -0.007     -0.001    10.7103     87.643     30.529  19.494691     1.4019      7.718   205.0924 9.1357e+02     5.9099     -0.007     -0.010     6.9278 0.0000e+00
     -0.007      0.000    10.6903     87.550     30.510  19.483059     1.3865      7.719   205.1294 9.2907e+02     5.9901     -0.007     -0.011     6.9274 0.0000e+00
     -0.007      0.001    10.6838     87.400     30.490  19.470474     1.4044      7.721   205.2736 9.4256e+02     6.1087     -0.007     -0.010     6.9271 0.0000e+00
     -0.007      0.001    10.6688     87.216     30.487  19.469331     1.4265      7.722   205.5452 9.3056e+02     6.1826     -0.006     -0.009     6.9267 0.0000e+00
     -0.007      0.002    10.6548     87.033     30.486  19.469246     1.4200      7.724   205.8324 9.0529e+02     6.1321     -0.006     -0.009     6.9266 0.0000e+00
     -0.006      0.002    10.6516     86.830     30.486  19.469445     1.4090      7.727   205.9935 8.8413e+02     6.0102     -0.005     -0.008     6.9272 0.0000e+00
     -0.005      0.002    10.6278     86.590     30.488  19.471740     1.4187      7.729   206.1164 8.7386e+02     5.9721     -0.005     -0.007     6.9280 0.0000e+00
     -0.004      0.001    10.6043     86.312     30.525  19.496995     1.4289      7.730   206.2849 8.8566e+02     5.9790     -0.004     -0.006     6.9288 0.0000e+00
     -0.003      0.000    10.5830     85.936     30.561  19.521194     1.4244      7.732   206.3967 9.0467e+02     5.9571     -0.003     -0.004     6.9295 0.0000e+00
     -0.003     -0.001    10.5606     85.501     30.542  19.510715     1.4069      7.732   206.5218 9.0252e+02     5.9815     -0.002     -0.003     6.9303 0.0000e+00
     -0.004     -0.002    10.5278     85.163     30.519  19.497102     1.4004      7.733   206.7647 9.0548e+02     6.1027     -0.003     -0.005     6.9317 0.0000e+00
     -0.005     -0.003    10.4983     84.847     30.497  19.483401     1.4117      7.734   206.9249 9.3028e+02     6.2266     -0.005     -0.008     6.9338 0.0000e+00
     -0.007     -0.003    10.4549     84.465     30.477  19.471865     1.4102      7.734   206.9961 9.4081e+02     6.1814     -0.007     -0.010     6.9364 0.0000e+00
     -0.007     -0.003    10.3826     84.085     30.495  19.484432     1.3989      7.735   207.1956 9.2743e+02     6.0003     -0.007     -0.010     6.9387 0.0000e+00
     -0.008     -0.002    10.3526     83.713     30.531  19.508544     1.4082      7.736   207.4432 9.2363e+02     5.9161     -0.008     -0.012     6.9405 0.0000e+00
     -0.010     -0.001    10.3200     83.330     30.531  19.509791     1.4234      7.737   207.5811 9.4221e+02     5.9488     -0.009     -0.014     6.9420 0.0000e+00
     -0.010      0.001    10.2637     82.945     30.513  19.499521     1.4160      7.738   207.7443 9.4545e+02     5.9863     -0.011     -0.016     6.9439 0.0000e+00
     -0.009      0.001    10.2198     82.540     30.530  19.511163     1.4019      7.740   208.0400 9.2466e+02     6.0274     -0.009     -0.014     6.9458 0.0000e+00
     -0.008      0.002    10.1756     82.113     30.548  19.523748     1.4028      7.741   208.2307 9.0937e+02     6.1039     -0.007     -0.010     6.9475 0.0000e+00
     -0.006      0.002    10.1266     81.705     30.548  19.524892     1.4183      7.743   208.2430 8.9260e+02     6.1953     -0.006     -0.009     6.9490 0.0000e+00
     -0.006      0.002    10.0809     81.321     30.547  19.524997     1.4303      7.744   208.2755 8.7833e+02     6.2092     -0.006     -0.009     6.9507 0.0000e+00
     -0.007      0.003    10.0328     80.942     30.546  19.525007     1.4234      7.746   208.3652 8.8011e+02     6.1013     -0.007     -0.010     6.9526 0.0000e+00
     -0.008      0.009     9.9760     80.586     30.546  19.525018     1.4189      7.747   208.5537 8.7363e+02     5.9839     -0.007     -0.011     6.9543 0.0000e+00
     -0.008      0.018     9.9270     80.269     30.545  19.525132     1.4341      7.746   208.8334 8.5261e+02     5.9506     -0.007     -0.011     6.9559 0.0000e+00
     -0.006      0.027     9.8816     80.002     30.545  19.526379     1.4405      7.743   209.0808 8.5172e+02     5.9722     -0.008     -0.011     6.9570 0.0000e+00
      0.003      0.034     9.8336     79.807     30.566  19.540097     1.4218      7.741   209.3071 8.4874e+02     6.0059     -0.003     -0.005     6.9584 0.0000e+00
      0.022      0.039     9.7896     79.688     30.606  19.564201     1.3986      7.740   209.5043 7.9546e+02     6.0503      0.022      0.032     6.9581 0.0000e+00
      0.038      0.041     9.7514     79.654     30.607  19.564212     1.3934      7.739   209.6583 7.3489e+02     6.0992      0.042      0.063     6.9593 0.0000e+00
      0.046      0.038     9.7154     79.683     30.570  19.540223     1.4090      7.736   209.7937 7.5374e+02     6.0857      0.043      0.062     6.9634 0.0000e+00
      0.053      0.031     9.6934     79.719     30.550  19.527753     1.4115      7.736   209.9363 8.3988e+02     5.9894      0.050      0.073     6.9619 0.0000e+00
      0.061      0.023     9.6784     79.774     30.569  19.540244     1.3992      7.736   210.0923 9.1101e+02     5.9247      0.062      0.091     6.9591 0.0000e+00
      0.065      0.018     9.6746     79.848     30.606  19.564452     1.4024      7.736   210.2167 9.7360e+02     5.9524      0.065      0.094     6.9579 0.0000e+00
      0.066      0.012     9.6839     79.906     30.609  19.566842     1.4080      7.736   210.3218 9.6025e+02     5.9834      0.064      0.092     6.9574 0.0000e+00
      0.070     -0.002     9.6846     80.014     30.612  19.569147     1.4095      7.736   210.5022 8.3953e+02     5.9581      0.067      0.097     6.9587 0.0000e+00
      0.076     -0.022     9.6906     80.244     30.643  19.592317     1.4034      7.735   210.7638 7.8686e+02     5.8850      0.075      0.109     6.9599 0.0000e+00
      0.076     -0.044     9.7035     80.429     30.631  19.593384     1.3999      7.735   210.9896 8.3956e+02     5.8852      0.080      0.116     6.9603 0.0000e+00
      0.063     -0.063     9.7087     80.478     30.595  19.582066     1.4174      7.735   211.2523 8.7511e+02     5.9607      0.068      0.098     6.9609 0.0000e+00
      0.035     -0.074     9.7101     80.494     30.581  19.582283     1.4241      7.735   211.5308 8.1504e+02     5.9437      0.038      0.056     6.9601 0.0000e+00
     -0.002     -0.077     9.7532     80.461     30.596  19.596022     1.4147      7.734   211.6907 8.3075e+02     5.8842     -0.003     -0.004     6.9620 0.0000e+00
     -0.033     -0.070     9.7782     80.385     30.632  19.621374     1.4121      7.732   211.9803 9.9211e+02     5.8566     -0.042     -0.061     6.9795 0.0000e+00
     -0.047     -0.050     9.7629     80.360     30.650  19.635206     1.4166      7.731   212.3658 1.1110e+03     5.8832     -0.050     -0.074     7.0043 0.0000e+00
     -0.049     -0.024     9.7703     80.464     30.649  19.636463     1.4282      7.731   212.4802 1.1382e+03     6.0011     -0.046     -0.067     7.0181 0.0000e+00
     -0.051     -0.001     9.7637     80.719     30.649  19.636577     1.4276      7.732   212.5027 1.1180e+03     6.0519     -0.053     -0.076     7.0225 0.0000e+00
     -0.049      0.010     9.7475     81.029     30.650  19.636588     1.4175      7.732   212.6382 1.0638e+03     5.9850     -0.052     -0.075     7.0260 0.0000e+00
     -0.037      0.005     9.7417     81.308     30.650  19.636593     1.4223      7.732   212.7423 8.9977e+02     5.9437     -0.038     -0.056     7.0304 0.0000e+00
     -0.022     -0.008     9.7498     81.582     30.649  19.636645     1.4188      7.732   212.8145 7.8659e+02     5.8952     -0.018     -0.024     7.0327 0.0000e+00
     -0.019     -0.022     9.7874     81.865     30.649  19.637217     1.4004      7.733   212.9095 7.9134e+02     5.8417     -0.009     -0.012     7.0332 0.0000e+00
     -0.036     -0.033     9.8308     82.135     30.658  19.643505     1.3905      7.735   212.9435 8.6136e+02     5.8440     -0.032     -0.046     7.0326 0.0000e+00
     -0.061     -0.040     9.8606     82.359     30.668  19.649279     1.3999      7.736   212.9677 1.0520e+03     5.8887     -0.063     -0.091     7.0308 0.0000e+00
     -0.081     -0.042     9.8937     82.545     30.659  19.643619     1.4215      7.738   213.1163 1.1210e+03     5.9717     -0.084     -0.122     7.0322 0.0000e+00
     -0.091     -0.039     9.9283     82.757     30.647  19.638474     1.4115      7.738   213.2774 1.0381e+03     5.9937     -0.094     -0.136     7.0351 0.0000e+00
     -0.091     -0.033     9.9630     83.013     30.657  19.650478     1.3697      7.739   213.3665 9.6421e+02     5.9500     -0.091     -0.132     7.0349 0.0000e+00
     -0.089     -0.028     9.9908     83.218     30.663  19.661957     1.3488      7.739   213.4195 9.5332e+02     5.9552     -0.083     -0.121     7.0335 0.0000e+00
     -0.095     -0.028    10.0097     83.315     30.637  19.650477     1.3510      7.739   213.4029 1.0330e+03     5.9547     -0.089     -0.129     7.0325 0.0000e+00
     -0.108     -0.028    10.0320     83.336     30.615  19.638472     1.3470      7.741   213.4229 1.1659e+03     5.8749     -0.107     -0.157     7.0348 0.0000e+00
     -0.121     -0.028    10.0673     83.277     30.624  19.643617     1.3330      7.743   213.5758 1.2849e+03     5.8109     -0.121     -0.176     7.0464 0.0000e+00
     -0.131     -0.023    10.0922     83.168     30.636  19.649277     1.3319      7.744   213.7025 1.3203e+03     5.8635     -0.128     -0.185     7.0609 0.0000e+00
     -0.138     -0.017    10.0962     83.094     30.630  19.643504     1.3507      7.747   213.7500 1.2910e+03     5.9641     -0.138     -0.200     7.0691 0.0000e+00
     -0.138     -0.013    10.1013     83.076     30.621  19.637215     1.3598      7.749   213.8061 1.2051e+03     5.9684     -0.140     -0.202     7.0724 0.0000e+00
     -0.133     -0.012    10.0933     83.088     30.620  19.636643     1.3427      7.750   213.8649 1.1331e+03     5.9163     -0.130     -0.188     7.0713 0.0000e+00
     -0.130     -0.011    10.0756     83.132     30.618  19.636591     1.3344      7.752   213.9445 1.1655e+03     5.9153     -0.123     -0.178     7.0658 0.0000e+00
     -0.136     -0.008    10.0666     83.178     30.616  19.636586     1.3512      7.756   214.1660 1.2341e+03     5.9220     -0.130     -0.189     7.0629 0.0000e+00
     -0.149     -0.005    10.0679     83.169     30.614  19.636586     1.3550      7.758   214.4788 1.2627e+03     5.8601     -0.149     -0.217     7.0634 0.0000e+00
     -0.156     -0.003    10.0671     83.094     30.612  19.636586     1.3384      7.759   214.7146 1.2668e+03     5.7824     -0.159     -0.231     7.0627 0.0000e+00
     -0.151      0.001    10.0732     82.925     30.610  19.636585     1.3339      7.759   214.8665 1.2430e+03     5.7682     -0.150     -0.218     7.0649 0.0000e+00
     -0.140      0.006    10.0827     82.633     30.608  19.636575     1.3501      7.760   214.9394 1.2066e+03     5.7907     -0.135     -0.196     7.0684 0.0000e+00
     -0.135      0.008    10.0793     82.248     30.608  19.636460     1.3685      7.762   214.9932 1.2283e+03     5.8148     -0.129     -0.187     7.0696 0.0000e+00
     -0.136      0.007    10.0715     81.834     30.606  19.635203     1.3477      7.763   215.0868 1.3116e+03     5.8213     -0.134     -0.194     7.0719 0.0000e+00
     -0.137      0.004    10.0530     81.419     30.585  19.621369     1.3069      7.765   215.2106 1.3420e+03     5.8341     -0.135     -0.195     7.0747 0.0000e+00
     -0.138      0.004    10.0151     80.991     30.549  19.596009     1.3075      7.767   215.3717 1.2767e+03     5.9018     -0.134     -0.195     7.0755 0.0000e+00
     -0.139      0.009     9.9650     80.566     30.534  19.582176     1.3138      7.768   215.4854 1.2542e+03     5.9223     -0.137     -0.199     7.0754 0.0000e+00
     -0.138      0.016     9.9136     80.171     30.540  19.580920     1.3077      7.769   215.5532 1.2918e+03     5.8427     -0.137     -0.197     7.0757 0.0000e+00
     -0.132      0.024     9.8650     79.781     30.549  19.580805     1.3254      7.771   215.5891 1.2528e+03     5.7938     -0.132     -0.191     7.0752 0.0000e+00
     -0.122      0.033     9.8135     79.409     30.559  19.580785     1.3530      7.773   215.5749 1.1754e+03     5.8437     -0.121     -0.175     7.0725 0.0000e+00
     -0.111      0.041     9.7600     79.136     30.567  19.580669     1.3670      7.774   215.6398 1.2115e+03     5.9332     -0.107     -0.156     7.0659 0.0000e+00
     -0.102      0.045     9.7178     78.959     30.569  19.579403     1.3532      7.775   215.7717 1.2266e+03     5.9538     -0.101     -0.147     7.0557 0.0000e+00
     -0.090      0.045     9.6736     78.841     30.550  19.565478     1.3195      7.776   215.9652 1.0915e+03     5.9219     -0.092     -0.132     7.0464 0.0000e+00
     -0.073      0.045     9.6236     78.803     30.511  19.539099     1.3085      7.777   216.1730 9.6272e+02     5.9231     -0.069     -0.100     7.0362 0.0000e+00
     -0.058      0.048     9.5946     78.823     30.476  19.514063     1.3280      7.778   216.2189 8.8977e+02     5.8996     -0.053     -0.077     7.0254 0.0000e+00
     -0.051      0.058     9.5780     78.840     30.486  19.516368     1.3475      7.778   216.2624 8.5677e+02     5.8436     -0.049     -0.072     7.0221 0.0000e+00
     -0.047      0.068     9.5595     78.858     30.571  19.566963     1.3618      7.778   216.4404 8.5012e+02     5.8944     -0.048     -0.070     7.0218 0.0000e+00
     -0.035      0.072     9.5576     78.897     30.654  19.618597     1.3847      7.777   216.6495 8.0195e+02     6.0696     -0.040     -0.058     7.0180 0.0000e+00
     -0.006      0.070     9.5655     78.974     30.677  19.633460     1.4156      7.777   216.8117 8.1188e+02     6.1864     -0.011     -0.015     7.0146 0.0000e+00
      0.034      0.062     9.5676     79.106     30.652  19.619855     1.4277      7.777   216.9396 8.4612e+02     6.1447      0.039      0.055     7.0066 0.0000e+00
      0.061      0.050     9.5708     79.275     30.588  19.580909     1.4062      7.777   217.0778 8.0580e+02     6.0095      0.071      0.103     6.9992 0.0000e+00
      0.063      0.035     9.5757     79.467     30.528  19.542974     1.3967      7.779   217.1922 8.0017e+02     5.9180      0.067      0.098     6.9976 0.0000e+00
      0.052      0.022     9.5834     79.699     30.528  19.541604     1.4217      7.781   217.2039 7.8449e+02     5.9266      0.050      0.072     6.9961 0.0000e+00
      0.044      0.015     9.5997     79.968     30.567  19.564334     1.4410      7.780   217.2189 7.7304e+02     5.9421      0.038      0.057     7.0022 0.0000e+00
      0.046      0.015     9.6201     80.257     30.568  19.564209     1.4480      7.779   217.3739 8.0216e+02     5.9348      0.041      0.058     7.0088 0.0000e+00
      0.059      0.022     9.6410     80.551     30.531  19.540084     1.4473      7.777   217.4436 7.5529e+02     5.9416      0.057      0.082     7.0076 0.0000e+00
      0.074      0.032     9.6716     80.840     30.512  19.526249     1.4497      7.775   217.4595 7.1152e+02     5.9895      0.076      0.109     7.0042 0.0000e+00
      0.084      0.042     9.7052     81.100     30.514  19.523734     1.4682      7.775   217.6516 7.5406e+02     6.0012      0.085      0.123     7.0005 0.0000e+00
      0.086      0.051     9.7419     81.302     30.499  19.509669     1.4641      7.775   217.8733 8.0343e+02     5.9131      0.083      0.122     6.9986 0.0000e+00
      0.091      0.058     9.7773     81.435     30.464  19.482984     1.4495      7.775   218.0747 7.8500e+02     5.8463      0.084      0.121     6.9994 0.0000e+00
      0.109      0.062     9.8137     81.466     30.424  19.454689     1.4658      7.774   218.2805 6.9736e+02     5.8763      0.104      0.151     6.9983 0.0000e+00
      0.137      0.062     9.8493     81.404     30.384  19.421154     1.4869      7.773   218.4695 6.4767e+02     5.9346      0.136      0.197     6.9907 0.0000e+00
      0.164      0.057     9.8750     81.406     30.363  19.394517     1.4969      7.771   218.6385 6.7771e+02     5.9361      0.164      0.239     6.9812 0.0000e+00
      0.181      0.047     9.8954     81.801     30.370  19.386222     1.5033      7.768   218.7754 7.2337e+02     5.8946      0.182      0.264     6.9741 0.0000e+00
      0.187      0.034     9.9007     82.979     30.380  19.384246     1.5138      7.768   218.9199 7.2626e+02     5.9115      0.186      0.269     6.9728 0.0000e+00
      0.186      0.026     9.8891     85.145     30.367  19.370621     1.5328      7.770   219.1807 6.9104e+02     5.9692      0.184      0.266     6.9627 0.0000e+00
      0.183      0.027     9.8810     88.119     30.338  19.348270     1.5408      7.770   219.6917 6.5952e+02     5.9435      0.178      0.257     6.9353 0.0000e+00
      0.184      0.037     9.9167     91.555     30.373  19.367600     1.5353      7.768   220.3663 6.2862e+02     5.9083      0.179      0.259     6.9127 0.0000e+00
      0.194      0.054    10.0489     95.156     30.448  19.414138     1.5248      7.768   220.9700 6.6614e+02     5.9528      0.188      0.272     6.9001 0.0000e+00
      0.213      0.072    10.3282     98.578     30.435  19.403744     1.5140      7.770   221.4846 7.4660e+02     5.9698      0.205      0.296     6.8911 0.0000e+00
      0.240      0.086    10.7084    101.421     30.386  19.368733     1.5220      7.771   222.0288 7.0922e+02     5.9426      0.236      0.341     6.8851 0.0000e+00
      0.269      0.092    11.1381    103.458     30.400  19.371219     1.5712      7.771   222.4734 6.0880e+02     5.8977      0.264      0.382     6.8812 0.0000e+00
      0.297      0.089    11.5901    104.639     30.409  19.370399     1.6517      7.772   222.7307 5.5245e+02     5.8709      0.291      0.422     6.8796 0.0000e+00
      0.322      0.077    12.0291    105.010     30.399  19.358811     1.7043      7.774   222.9884 5.0900e+02     5.9259      0.318      0.461     6.8770 0.0000e+00
      0.343      0.062    12.3873    104.862     30.401  19.357904     1.7072      7.775   223.3516 5.2855e+02     5.9481      0.339      0.490     6.8707 0.0000e+00
      0.356      0.049    12.6346    104.461     30.405  19.359428     1.7028      7.775   223.6811 5.8196e+02     5.9683      0.353      0.512     6.8598 0.0000e+00
      0.361      0.040    12.7902    103.940     30.436  19.377233     1.7182      7.776   223.9607 5.6161e+02     6.0681      0.355      0.515     6.8479 0.0000e+00
      0.362      0.037    12.8170    103.410     30.450  19.382987     1.7446      7.777   224.2381 5.2854e+02     6.1295      0.353      0.512     6.8379 0.0000e+00
      0.367      0.040    12.7888    102.910     30.426  19.365592     1.7719      7.779   224.4533 5.0618e+02     6.1636      0.357      0.519     6.8346 0.0000e+00
      0.379      0.045    12.7386    102.483     30.414  19.357103     1.7989      7.780   224.5832 4.7730e+02     6.1049      0.371      0.538     6.8350 0.0000e+00
      0.394      0.052    12.6662    102.144     30.394  19.343757     1.8199      7.781   224.6901 5.0224e+02     5.9664      0.386      0.561     6.8317 0.0000e+00
      0.411      0.057    12.6071    101.888     30.374  19.331032     1.8271      7.782   224.8854 5.4703e+02     5.9579      0.404      0.585     6.8259 0.0000e+00
      0.430      0.059    12.5422    101.689     30.373  19.330040     1.8278      7.783   225.1379 5.2445e+02     5.9686      0.423      0.613     6.8220 0.0000e+00
      0.446      0.057    12.4914    101.496     30.376  19.331765     1.8281      7.785   225.4203 4.9223e+02     5.8570      0.439      0.636     6.8205 0.0000e+00
      0.458      0.054    12.4506    101.314     30.407  19.351890     1.8387      7.786   225.6329 4.8423e+02     5.7696      0.450      0.652     6.8202 0.0000e+00
      0.469      0.050    12.4190    101.174     30.454  19.383169     1.8650      7.787   225.8162 4.6558e+02     5.8000      0.459      0.666     6.8196 0.0000e+00
      0.483      0.048    12.4000    101.064     30.468  19.392953     1.8885      7.788   226.1737 4.5819e+02     5.8822      0.474      0.687     6.8191 0.0000e+00
      0.495      0.049    12.3746    100.961     30.489  19.406786     1.8979      7.789   226.5132 4.4832e+02     5.9100      0.488      0.709     6.8195 0.0000e+00
      0.505      0.052    12.3501    100.864     30.515  19.423621     1.9110      7.790   226.6522 4.3366e+02     5.8966      0.494      0.717     6.8202 0.0000e+00
      0.515      0.056    12.3333    100.769     30.489  19.406293     1.9557      7.792   226.7353 4.4488e+02     5.9256      0.501      0.727     6.8219 0.0000e+00
      0.531      0.061    12.3215    100.663     30.459  19.387478     1.9974      7.795   226.9154 4.5474e+02     5.9529      0.519      0.753     6.8244 0.0000e+00
      0.550      0.066    12.3072    100.553     30.456  19.386334     1.9990      7.797   227.1089 4.4223e+02     5.9189      0.541      0.785     6.8253 0.0000e+00
      0.568      0.071    12.2965    100.481     30.464  19.392465     2.0086      7.798   227.1832 4.2775e+02     5.8909      0.557      0.808     6.8243 0.0000e+00
      0.586      0.071    12.2858    100.467     30.471  19.398205     2.0561      7.799   227.2976 4.0779e+02     5.9901      0.574      0.832     6.8239 0.0000e+00
      0.608      0.066    12.2722    100.468     30.460  19.392335     2.0986      7.800   227.5446 3.8689e+02     6.1612      0.596      0.864     6.8244 0.0000e+00
      0.629      0.057    12.2575    100.483     30.447  19.384894     2.1222      7.801   227.8472 3.8521e+02     6.2173      0.619      0.898     6.8247 0.0000e+00
      0.644      0.047    12.2439    100.497     30.426  19.371642     2.1507      7.802   228.1164 3.8844e+02     6.0878      0.635      0.921     6.8265 0.0000e+00
      0.653      0.037    12.2480    100.466     30.408  19.358916     2.1936      7.804   228.3039 3.8187e+02     5.9626      0.642      0.931     6.8293 0.0000e+00
      0.657      0.030    12.2449    100.401     30.410  19.357811     2.2325      7.805   228.4796 3.7619e+02     5.9673      0.645      0.935     6.8312 0.0000e+00
      0.659      0.029    12.2463    100.303     30.416  19.358277     2.2375      7.805   228.6923 3.7212e+02     5.9393      0.647      0.937     6.8322 0.0000e+00
      0.662      0.033    12.2534    100.184     30.431  19.364556     2.2291      7.805   228.8106 3.7103e+02     5.8628      0.648      0.940     6.8324 0.0000e+00
      0.669      0.042    12.2458    100.077     30.444  19.370328     2.2476      7.805   228.8772 3.7049e+02     5.8281      0.654      0.947     6.8311 0.0000e+00
      0.682      0.050    12.2413     99.993     30.437  19.364659     2.2863      7.804   229.0678 3.6215e+02     5.8614      0.666      0.966     6.8268 0.0000e+00
      0.701      0.056    12.2302     99.935     30.431  19.359410     2.3139      7.804   229.2230 3.5936e+02     5.9240      0.687      0.997     6.8205 0.0000e+00
      0.721      0.058    12.2156     99.911     30.449  19.370261     2.3157      7.804   229.3768 3.5828e+02     5.9016      0.708      1.026     6.8149 0.0000e+00
      0.738      0.057    12.2032     99.913     30.447  19.369061     2.3495      7.805   229.6362 3.4606e+02     5.8648      0.725      1.052     6.8114 0.0000e+00
      0.751      0.053    12.1942     99.939     30.410  19.344902     2.4397      7.808   229.8643 3.3567e+02     5.9230      0.739      1.072     6.8092 0.0000e+00
      0.761      0.048    12.1862     99.989     30.390  19.331756     2.4819      7.810   229.9844 3.3338e+02     5.9555      0.746      1.082     6.8072 0.0000e+00
      0.770      0.044    12.1848    100.051     30.400  19.336909     2.4684      7.810   230.0549 3.2697e+02     5.8824      0.754      1.093     6.8063 0.0000e+00
      0.782      0.041    12.1850    100.112     30.411  19.343807     2.5103      7.811   230.2012 3.1912e+02     5.8245      0.768      1.113     6.8067 0.0000e+00
      0.793      0.039    12.1875    100.164     30.424  19.351762     2.5971      7.813   230.3767 3.1772e+02     5.8710      0.779      1.129     6.8061 0.0000e+00
      0.804      0.037    12.1961    100.208     30.453  19.369690     2.6436      7.815   230.4566 3.1334e+02     5.9655      0.789      1.143     6.8041 0.0000e+00
      0.814      0.035    12.2032    100.229     30.454  19.370367     2.6479      7.817   230.4779 3.0504e+02     5.9768      0.799      1.158     6.8027 0.0000e+00
      0.822      0.035    12.2127    100.234     30.438  19.359946     2.6668      7.819   230.5482 3.0527e+02     5.9389      0.806      1.169     6.8020 0.0000e+00
      0.827      0.036    12.2175    100.234     30.456  19.370491     2.7222      7.821   230.6184 3.1185e+02     5.9523      0.812      1.178     6.8011 0.0000e+00
      0.833      0.039    12.2254    100.218     30.458  19.371063     2.7676      7.821   230.7248 3.1327e+02     5.9331      0.815      1.182     6.8008 0.0000e+00
      0.843      0.043    12.2269    100.203     30.453  19.366863     2.7827      7.823   230.9746 3.0997e+02     5.9123      0.824      1.196     6.8007 0.0000e+00
      0.858      0.048    12.2262    100.216     30.480  19.383104     2.8385      7.826   231.2295 3.0322e+02     5.9738      0.843      1.223     6.8005 0.0000e+00
      0.873      0.052    12.2286    100.247     30.472  19.377236     2.9350      7.829   231.3114 2.9445e+02     6.0623      0.857      1.244     6.7994 0.0000e+00
      0.887      0.053    12.2260    100.273     30.444  19.359308     2.9920      7.831   231.2769 2.9243e+02     6.1618      0.868      1.260     6.7976 0.0000e+00
      0.901      0.052    12.2225    100.312     30.440  19.356545     3.0120      7.831   231.4147 2.9149e+02     6.1866      0.884      1.282     6.7962 0.0000e+00
      0.915      0.048    12.2253    100.359     30.420  19.343827     3.0351      7.832   231.6861 2.8210e+02     6.1227      0.898      1.303     6.7947 0.0000e+00
      0.928      0.044    12.2320    100.374     30.402  19.332340     3.0799      7.833   231.8907 2.7306e+02     6.1410      0.910      1.319     6.7933 0.0000e+00
      0.939      0.040    12.2330    100.372     30.421  19.344447     3.1199      7.834   231.9964 2.6999e+02     6.2031      0.922      1.337     6.7927 0.0000e+00
      0.947      0.038    12.2376    100.386     30.451  19.363413     3.1362      7.835   232.0172 2.7156e+02     6.1904      0.931      1.350     6.7924 0.0000e+00
      0.954      0.038    12.2470    100.391     30.464  19.371462     3.1361      7.837   232.0567 2.7294e+02     6.1576      0.936      1.357     6.7922 0.0000e+00
      0.962      0.039    12.2477    100.386     30.476  19.378369     3.1445      7.838   232.1301 2.6769e+02     6.0800      0.942      1.367     6.7923 0.0000e+00
      0.972      0.039    12.2437    100.386     30.484  19.383515     3.1960      7.839   232.2157 2.6318e+02     5.9693      0.951      1.381     6.7931 0.0000e+00
      0.985      0.038    12.2489    100.391     30.463  19.370275     3.2422      7.841   232.3167 2.6446e+02     5.9470      0.965      1.400     6.7937 0.0000e+00
      0.998      0.036    12.2492    100.416     30.422  19.345086     3.2447      7.842   232.4914 2.6327e+02     5.9472      0.980      1.422     6.7923 0.0000e+00
      1.008      0.033    12.2473    100.432     30.402  19.332566     3.2847      7.844   232.6078 2.5816e+02     5.9722      0.991      1.437     6.7905 0.0000e+00
      1.013      0.029    12.2493    100.411     30.422  19.345704     3.3927      7.846   232.6060 2.5466e+02     6.1114      0.995      1.442     6.7906 0.0000e+00
      1.017      0.026    12.2469    100.369     30.472  19.377134     3.4692      7.848   232.6415 2.5134e+02     6.2302      0.997      1.447     6.7914 0.0000e+00
      1.022      0.026    12.2521    100.326     30.502  19.395576     3.4849      7.849   232.6928 2.4843e+02     6.2467      1.002      1.453     6.7923 0.0000e+00
      1.028      0.029    12.2558    100.292     30.477  19.378484     3.4998      7.850   232.7953 2.4738e+02     6.2090      1.008      1.462     6.7934 0.0000e+00
      1.035      0.034    12.2510    100.269     30.452  19.360679     3.5330      7.852   232.9349 2.4647e+02     6.1847      1.015      1.472     6.7941 0.0000e+00
      1.044      0.039    12.2455    100.253     30.471  19.370503     3.5619      7.854   233.0907 2.4652e+02     6.2258      1.022      1.483     6.7939 0.0000e+00
      1.057      0.043    12.2400    100.233     30.475  19.370457     3.5909      7.855   233.2161 2.4477e+02     6.2272      1.034      1.501     6.7927 0.0000e+00
      1.072      0.044    12.2366    100.206     30.461  19.360120     3.6756      7.857   233.2459 2.4044e+02     6.1335      1.052      1.525     6.7908 0.0000e+00
      1.085      0.044    12.2345    100.185     30.481  19.372323     3.8034      7.858   233.3655 2.3751e+02     6.0839      1.066      1.546     6.7876 0.0000e+00
      1.095      0.043    12.2351    100.174     30.512  19.391196     3.8793      7.859   233.5437 2.3483e+02     6.1743      1.074      1.557     6.7832 0.0000e+00
      1.103      0.041    12.2336    100.144     30.524  19.398103     3.8942      7.860   233.5934 2.3339e+02     6.2692      1.082      1.569     6.7791 0.0000e+00
      1.113      0.041    12.2306    100.104     30.517  19.392433     3.9251      7.861   233.5358 2.3439e+02     6.2064      1.092      1.584     6.7768 0.0000e+00
      1.123      0.041    12.2271    100.088     30.509  19.386041     3.9870      7.863   233.5360 2.3253e+02     6.0986      1.100      1.596     6.7755 0.0000e+00
      1.133      0.042    12.2289    100.080     30.507  19.384223     4.0274      7.865   233.6817 2.2670e+02     6.1276      1.110      1.610     6.7745 0.0000e+00
      1.146      0.042    12.2258    100.089     30.486  19.370458     4.0388      7.866   233.8345 2.2225e+02     6.2151      1.124      1.631     6.7734 0.0000e+00
      1.158      0.042    12.2169    100.094     30.449  19.346403     4.0492      7.866   233.9209 2.2172e+02     6.2001      1.137      1.650     6.7711 0.0000e+00
      1.168      0.042    12.2201    100.059     30.452  19.346975     4.1368      7.866   234.0376 2.2051e+02     6.1509      1.146      1.662     6.7691 0.0000e+00
      1.177      0.041    12.2163    100.015     30.502  19.377365     4.2983      7.867   234.2132 2.1641e+02     6.1666      1.153      1.672     6.7683 0.0000e+00
      1.187      0.038    12.2187     99.985     30.533  19.396847     4.3882      7.869   234.3239 2.1285e+02     6.1845      1.164      1.687     6.7675 0.0000e+00
      1.199      0.036    12.2242     99.977     30.527  19.392331     4.4080      7.870   234.3431 2.1042e+02     6.1974      1.178      1.708     6.7664 0.0000e+00
      1.209      0.035    12.2156     99.973     30.521  19.386158     4.4379      7.871   234.3602 2.0837e+02     6.1863      1.188      1.722     6.7645 0.0000e+00
      1.216      0.034    12.2120     99.941     30.526  19.385612     4.4659      7.872   234.3591 2.0663e+02     6.1531      1.191      1.729     6.7622 0.0000e+00
      1.223      0.032    12.2072     99.915     30.531  19.385732     4.4809      7.874   234.4159 2.0515e+02     6.1716      1.198      1.739     6.7616 0.0000e+00
      1.231      0.032    12.2062     99.900     30.539  19.387600     4.4947      7.877   234.5300 2.0600e+02     6.1705      1.208      1.753     6.7617 0.0000e+00
      1.240      0.032    12.2111     99.852     30.579  19.408193     4.5237      7.878   234.5339 2.0701e+02     6.1055      1.216      1.764     6.7578 0.0000e+00
      1.247      0.033    12.2056     99.786     30.648  19.444505     4.5744      7.879   234.5487 2.0427e+02     6.0686      1.223      1.774     6.7508 0.0000e+00
      1.255      0.034    12.2024     99.713     30.663  19.446235     4.6159      7.880   234.7095 2.0075e+02     6.1009      1.230      1.785     6.7457 0.0000e+00
      1.265      0.034    12.2080     99.630     30.648  19.429100     4.6261      7.881   234.8431 1.9807e+02     6.1537      1.242      1.800     6.7414 0.0000e+00
      1.274      0.034    12.2005     99.563     30.654  19.427530     4.5980      7.881   234.8739 1.9574e+02     6.1612      1.250      1.813     6.7343 0.0000e+00
      1.283      0.033    12.1956     99.467     30.660  19.427248     4.5506      7.882   234.9089 1.9471e+02     6.1222      1.257      1.824     6.7220 0.0000e+00
      1.292      0.031    12.1942     99.336     30.662  19.425678     4.5359      7.883   235.0081 1.9373e+02     6.1270      1.267      1.838     6.7074 0.0000e+00
      1.301      0.028    12.1820     99.222     30.642  19.408553     4.5539      7.884   235.1266 1.9224e+02     6.1850      1.277      1.852     6.6952 0.0000e+00
      1.309      0.025    12.1823     99.093     30.653  19.410386     4.5598      7.885   235.2240 1.9131e+02     6.1740      1.285      1.863     6.6856 0.0000e+00
      1.314      0.024    12.1733     98.908     30.723  19.447841     4.5661      7.886   235.3264 1.8988e+02     6.0970      1.289      1.870     6.6799 0.0000e+00
      1.318      0.025    12.1520     98.708     30.784  19.481010     4.6045      7.888   235.3322 1.8788e+02     6.0727      1.292      1.874     6.6763 0.0000e+00
      1.321      0.027    12.1439     98.541     30.813  19.494410     4.6502      7.889   235.2934 1.8654e+02     6.1198      1.294      1.877     6.6701 0.0000e+00
      1.327      0.031    12.1338     98.382     30.803  19.483053     4.6769      7.889   235.3733 1.8511e+02     6.1539      1.298      1.883     6.6601 0.0000e+00
      1.337      0.036    12.1123     98.218     30.790  19.470493     4.7106      7.888   235.4379 1.8314e+02     6.1096      1.309      1.899     6.6490 0.0000e+00
      1.350      0.040    12.0860     98.067     30.793  19.469351     4.7750      7.888   235.4723 1.8116e+02     6.0968      1.324      1.921     6.6399 0.0000e+00
      1.362      0.042    12.0713     97.912     30.797  19.469233     4.8231      7.890   235.6176 1.7902e+02     6.1696      1.337      1.938     6.6319 0.0000e+00
      1.372      0.041    12.0558     97.757     30.799  19.469068     4.8344      7.892   235.7311 1.7645e+02     6.1701      1.344      1.950     6.6232 0.0000e+00
      1.384      0.038    12.0341     97.613     30.798  19.467353     4.8446      7.893   235.7263 1.7440e+02     6.1029      1.357      1.968     6.6159 0.0000e+00
      1.395      0.034    12.0207     97.495     30.770  19.448489     4.8637      7.894   235.8180 1.7317e+02     6.0746      1.370      1.987     6.6112 0.0000e+00
      1.402      0.032    12.0016     97.435     30.745  19.431198     4.8825      7.895   236.0650 1.7187e+02     6.1007      1.375      1.995     6.6068 0.0000e+00
      1.407      0.031    11.9825     97.418     30.776  19.448490     4.8967      7.897   236.3037 1.7085e+02     6.1807      1.379      2.000     6.6041 0.0000e+00
      1.413      0.030    11.9663     97.398     30.812  19.467353     4.9277      7.897   236.5542 1.7035e+02     6.1878      1.385      2.009     6.6032 0.0000e+00
      1.422      0.030    11.9483     97.376     30.820  19.469067     4.9741      7.897   236.7701 1.6902e+02     6.1174      1.394      2.021     6.6016 0.0000e+00
      1.432      0.030    11.9432     97.361     30.825  19.469209     4.9991      7.898   236.7634 1.6706e+02     6.1499      1.405      2.038     6.6000 0.0000e+00
      1.441      0.029    11.9450     97.334     30.826  19.469066     5.0142      7.899   236.7315 1.6604e+02     6.2381      1.414      2.050     6.5969 0.0000e+00
      1.447      0.027    11.9443     97.301     30.823  19.467338     5.0405      7.899   236.8143 1.6514e+02     6.2614      1.419      2.059     6.5893 0.0000e+00
      1.453      0.024    11.9418     97.238     30.793  19.448319     5.0580      7.900   236.9038 1.6353e+02     6.2272      1.424      2.066     6.5822 0.0000e+00
      1.458      0.022    11.9444     97.138     30.763  19.429314     5.0510      7.901   236.9532 1.6218e+02     6.1322      1.429      2.073     6.5786 0.0000e+00
      1.463      0.022    11.9393     97.060     30.762  19.427753     5.0480      7.902   236.9816 1.6097e+02     6.0684      1.434      2.080     6.5771 0.0000e+00
      1.468      0.023    11.9363     97.005     30.767  19.429438     5.0630      7.903   237.0752 1.5953e+02     6.1049      1.438      2.087     6.5778 0.0000e+00
      1.473      0.025    11.9316     96.958     30.801  19.449692     5.1169      7.904   237.2244 1.5858e+02     6.1302      1.444      2.095     6.5790 0.0000e+00
      1.479      0.026    11.9122     96.932     30.853  19.482430     5.2239      7.904   237.3227 1.5783e+02     6.1345      1.451      2.104     6.5781 0.0000e+00
      1.487      0.028    11.9059     96.917     30.895  19.508262     5.3003      7.905   237.3172 1.5642e+02     6.1914      1.458      2.114     6.5751 0.0000e+00
      1.495      0.029    11.9010     96.897     30.896  19.508419     5.3081      7.907   237.3306 1.5448e+02     6.2722      1.466      2.127     6.5732 0.0000e+00
      1.504      0.030    11.8933     96.882     30.858  19.484330     5.2932      7.908   237.4850 1.5258e+02     6.2569      1.475      2.139     6.5717 0.0000e+00
      1.511      0.031    11.8924     96.883     30.836  19.470612     5.2786      7.909   237.6348 1.5103e+02     6.1779      1.482      2.149     6.5705 0.0000e+00
      1.517      0.031    11.8907     96.884     30.834  19.469366     5.2732      7.910   237.6793 1.5002e+02     6.2043      1.487      2.158     6.5705 0.0000e+00
      1.525      0.031    11.8884     96.868     30.834  19.469253     5.2767      7.911   237.8509 1.4908e+02     6.2690      1.494      2.168     6.5702 0.0000e+00
      1.534      0.030    11.8851     96.850     30.835  19.469251     5.2716      7.911   238.0747 1.4793e+02     6.2086      1.504      2.182     6.5698 0.0000e+00
      1.543      0.028    11.8865     96.831     30.835  19.469338     5.2615      7.911   238.1481 1.4701e+02     6.0889      1.513      2.194     6.5697 0.0000e+00
      1.550      0.025    11.8883     96.815     30.837  19.470310     5.2713      7.911   238.2216 1.4616e+02     6.0858      1.520      2.205     6.5698 0.0000e+00
      1.556      0.020    11.8842     96.820     30.854  19.481000     5.2980      7.911   238.3624 1.4542e+02     6.1710      1.527      2.215     6.5695 0.0000e+00
      1.561      0.016    11.8829     96.839     30.839  19.471791     5.3359      7.910   238.4732 1.4509e+02     6.1626      1.531      2.220     6.5689 0.0000e+00
      1.564      0.013    11.8810     96.861     30.762  19.422370     5.3717      7.910   238.5292 1.4491e+02     6.0871      1.533      2.224     6.5682 0.0000e+00
      1.564      0.012    11.8770     96.867     30.713  19.390657     5.3811      7.911   238.6083 1.4464e+02     6.0781      1.535      2.226     6.5681 0.0000e+00
      1.565      0.014    11.8793     96.844     30.739  19.405348     5.3908      7.912   238.7413 1.4415e+02     6.1211      1.534      2.225     6.5680 0.0000e+00
      1.568      0.018    11.8814     96.810     30.748  19.409803     5.3897      7.913   238.8468 1.4328e+02     6.1301      1.537      2.229     6.5675 0.0000e+00
      1.574      0.024    11.8850     96.764     30.704  19.381117     5.3511      7.912   238.8516 1.4200e+02     6.0838      1.543      2.238     6.5673 0.0000e+00
      1.580      0.031    11.8882     96.714     30.699  19.375509     5.3319      7.912   238.7998 1.4009e+02     6.1074      1.549      2.247     6.5661 0.0000e+00
      1.589      0.038    11.8831     96.667     30.751  19.405405     5.3407      7.913   238.8223 1.3781e+02     6.1774      1.558      2.259     6.5630 0.0000e+00
      1.599      0.043    11.8815     96.631     30.788  19.425570     5.3405      7.915   239.0375 1.3552e+02     6.1439      1.568      2.274     6.5610 0.0000e+00
      1.613      0.047    11.8749     96.616     30.797  19.429118     5.3459      7.915   239.2508 1.3313e+02     6.0783      1.581      2.294     6.5603 0.0000e+00
      1.628      0.049    11.8693     96.623     30.830  19.448303     5.3640      7.916   239.3363 1.3114e+02     6.0666      1.598      2.317     6.5567 0.0000e+00
      1.641      0.049    11.8659     96.646     30.862  19.467324     5.3850      7.916   239.4691 1.2973e+02     6.1055      1.610      2.336     6.5505 0.0000e+00
      1.653      0.048    11.8613     96.661     30.866  19.468899     5.4089      7.917   239.6521 1.2832e+02     6.1729      1.621      2.351     6.5456 0.0000e+00
      1.664      0.045    11.8614     96.641     30.865  19.467342     5.4278      7.917   239.8281 1.2662e+02     6.1643      1.631      2.366     6.5424 0.0000e+00
      1.675      0.041    11.8623     96.579     30.837  19.448493     5.4393      7.917   239.9627 1.2452e+02     6.0688      1.642      2.381     6.5398 0.0000e+00
      1.686      0.037    11.8678     96.509     30.810  19.431204     5.4393      7.917   240.0749 1.2245e+02     6.0092      1.654      2.399     6.5379 0.0000e+00
      1.696      0.034    11.8705     96.458     30.837  19.448506     5.4446      7.918   240.2389 1.2093e+02     6.0582      1.665      2.414     6.5361 0.0000e+00
      1.704      0.032    11.8703     96.413     30.866  19.467482     5.4702      7.919   240.3099 1.1987e+02     6.1493      1.671      2.423     6.5342 0.0000e+00
      1.709      0.030    11.8606     96.363     30.870  19.470444     5.4740      7.920   240.2456 1.1887e+02     6.1552      1.676      2.431     6.5326 0.0000e+00
      1.716      0.029    11.8506     96.321     30.891  19.484318     5.4491      7.921   240.2362 1.1774e+02     6.1293      1.682      2.439     6.5316 0.0000e+00
      1.723      0.029    11.8457     96.303     30.928  19.508434     5.4428      7.923   240.2824 1.1679e+02     6.1778      1.691      2.452     6.5319 0.0000e+00
      1.730      0.029    11.8400     96.304     30.927  19.508422     5.4651      7.923   240.3737 1.1603e+02     6.1944      1.697      2.460     6.5333 0.0000e+00
      1.737      0.028    11.8334     96.312     30.889  19.484164     5.4860      7.923   240.4791 1.1497e+02     6.1250      1.702      2.469     6.5346 0.0000e+00
      1.746      0.027    11.8261     96.319     30.865  19.468739     5.4873      7.922   240.5247 1.1373e+02     6.0899      1.713      2.484     6.5357 0.0000e+00
      1.756      0.027    11.8244     96.317     30.834  19.448732     5.4888      7.922   240.5812 1.1300e+02     6.1120      1.724      2.500     6.5371 0.0000e+00
      1.761      0.028    11.8248     96.310     30.809  19.432455     5.5208      7.923   240.7309 1.1276e+02     6.1529      1.728      2.507     6.5382 0.0000e+00
      1.765      0.031    11.8260     96.296     30.857  19.462140     5.5579      7.923   240.9586 1.1237e+02     6.1754      1.730      2.509     6.5381 0.0000e+00
      1.770      0.033    11.8279     96.286     30.903  19.490644     5.5624      7.923   241.0970 1.1143e+02     6.1443      1.734      2.515     6.5365 0.0000e+00
      1.780      0.036    11.8275     96.293     30.856  19.460086     5.5674      7.924   241.1137 1.1005e+02     6.1186      1.745      2.530     6.5351 0.0000e+00
      1.792      0.041    11.8267     96.295     30.778  19.409678     5.5854      7.926   241.0756 1.0855e+02     6.1378      1.757      2.548     6.5356 0.0000e+00
      1.806      0.046    11.8252     96.281     30.746  19.388370     5.5710      7.926   241.1524 1.0707e+02     6.1372      1.771      2.569     6.5357 0.0000e+00
      1.817      0.050    11.8219     96.261     30.754  19.392649     5.5267      7.927   241.4389 1.0568e+02     6.1117      1.782      2.585     6.5343 0.0000e+00
      1.828      0.052    11.8263     96.231     30.764  19.398023     5.4993      7.927   241.6146 1.0430e+02     6.1022      1.792      2.599     6.5321 0.0000e+00
      1.841      0.053    11.8275     96.197     30.752  19.389947     5.5064      7.927   241.5565 1.0267e+02     6.1247      1.806      2.619     6.5295 0.0000e+00
      1.856      0.055    11.8249     96.169     30.703  19.358393     5.5541      7.927   241.5100 1.0088e+02     6.1449      1.820      2.640     6.5276 0.0000e+00
      1.871      0.056    11.8240     96.141     30.667  19.333509     5.6098      7.927   241.5695 9.9318e+01     6.1077      1.835      2.662     6.5263 0.0000e+00
      1.886      0.054    11.8201     96.111     30.686  19.342684     5.6226      7.927   241.5867 9.7820e+01     6.1192      1.849      2.683     6.5256 0.0000e+00
      1.902      0.050    11.8149     96.089     30.691  19.342521     5.6254      7.927   241.5462 9.6275e+01     6.1810      1.865      2.706     6.5249 0.0000e+00
      1.916      0.046    11.8128     96.064     30.679  19.331536     5.6604      7.927   241.5964 9.5280e+01     6.1719      1.883      2.730     6.5239 0.0000e+00
      1.926      0.044    11.8105     96.039     30.692  19.336670     5.7045      7.929   241.7628 9.4626e+01     6.1111      1.889      2.740     6.5213 0.0000e+00
      1.932      0.042    11.8065     96.003     30.706  19.341195     5.7259      7.931   241.9232 9.3704e+01     6.0611      1.893      2.746     6.5157 0.0000e+00
      1.942      0.041    11.8083     95.958     30.683  19.322837     5.7281      7.931   241.9872 9.2509e+01     6.1136      1.903      2.761     6.5098 0.0000e+00
      1.953      0.042    11.8041     95.910     30.659  19.304907     5.7309      7.931   242.0208 9.1234e+01     6.2684      1.916      2.778     6.5050 0.0000e+00
      1.965      0.043    11.8051     95.838     30.678  19.314606     5.7354      7.931   242.0709 9.0024e+01     6.3607      1.927      2.795     6.4992 0.0000e+00
      1.977      0.044    11.8020     95.725     30.678  19.313302     5.7322      7.931   242.1625 8.8794e+01     6.3414      1.939      2.812     6.4921 0.0000e+00
      1.989      0.043    11.7973     95.577     30.641  19.289133     5.7332      7.932   242.2689 8.7579e+01     6.3430      1.950      2.829     6.4856 0.0000e+00
      2.001      0.042    11.7954     95.431     30.621  19.275986     5.7398      7.932   242.2384 8.6598e+01     6.3804      1.962      2.846     6.4806 0.0000e+00
      2.011      0.041    11.7868     95.283     30.631  19.281140     5.7707      7.932   242.1378 8.5842e+01     6.3486      1.973      2.861     6.4779 0.0000e+00
      2.020      0.040    11.7752     95.142     30.643  19.288047     5.8230      7.933   242.1713 8.5198e+01     6.2316      1.981      2.874     6.4760 0.0000e+00
      2.029      0.038    11.7528     95.032     30.657  19.296095     5.8396      7.934   242.3853 8.4340e+01     6.1282      1.988      2.884     6.4743 0.0000e+00
      2.040      0.038    11.7376     94.950     30.687  19.315053     5.8466      7.936   242.6608 8.3333e+01     6.1225      2.000      2.901     6.4729 0.0000e+00
      2.051      0.039    11.7197     94.918     30.706  19.327056     5.8661      7.937   242.7490 8.2694e+01     6.1285      2.013      2.921     6.4716 0.0000e+00
      2.059      0.040    11.6992     94.912     30.686  19.314424     5.8584      7.937   242.6768 8.2129e+01     6.0984      2.020      2.929     6.4707 0.0000e+00
      2.068      0.042    11.6894     94.899     30.646  19.289121     5.8370      7.937   242.7348 8.1244e+01     6.1002      2.025      2.938     6.4694 0.0000e+00
      2.078      0.042    11.6757     94.906     30.625  19.274718     5.8401      7.937   242.9342 8.0238e+01     6.1161      2.038      2.955     6.4687 0.0000e+00
      2.091      0.042    11.6734     94.925     30.615  19.267079     5.8462      7.937   243.0223 7.9280e+01     6.1536      2.051      2.974     6.4691 0.0000e+00
      2.103      0.042    11.6766     94.947     30.607  19.260162     5.8280      7.937   242.9407 7.8433e+01     6.1785      2.063      2.992     6.4695 0.0000e+00
      2.115      0.041    11.6703     94.992     30.600  19.254484     5.8022      7.937   242.8935 7.7663e+01     6.1100      2.075      3.009     6.4688 0.0000e+00
      2.125      0.040    11.6739     95.046     30.614  19.261819     5.7842      7.938   242.9673 7.6972e+01     6.1103      2.084      3.023     6.4674 0.0000e+00
      2.134      0.038    11.6777     95.087     30.653  19.285446     5.8022      7.939   243.1450 7.6364e+01     6.2163      2.092      3.035     6.4650 0.0000e+00
      2.143      0.036    11.6785     95.126     30.657  19.286551     5.8367      7.939   243.3212 7.5749e+01     6.1960      2.101      3.048     6.4621 0.0000e+00
      2.153      0.036    11.6864     95.166     30.640  19.275185     5.8437      7.940   243.3768 7.5123e+01     6.1039      2.111      3.062     6.4596 0.0000e+00
      2.162      0.037    11.6957     95.217     30.640  19.274822     5.8527      7.940   243.3876 7.4568e+01     6.1270      2.121      3.076     6.4574 0.0000e+00
      2.169      0.038    11.6993     95.286     30.654  19.282158     5.8960      7.940   243.3650 7.3982e+01     6.2373      2.126      3.084     6.4558 0.0000e+00
      2.179      0.040    11.7049     95.340     30.686  19.300488     5.9511      7.940   243.4475 7.3189e+01     6.3441      2.135      3.097     6.4541 0.0000e+00
      2.191      0.043    11.7102     95.370     30.699  19.306241     5.9693      7.940   243.7840 7.2406e+01     6.3594      2.150      3.119     6.4530 0.0000e+00
      2.202      0.044    11.7146     95.397     30.675  19.288322     5.9501      7.941   243.9916 7.1716e+01     6.3197      2.160      3.133     6.4524 0.0000e+00
      2.213      0.042    11.7274     95.424     30.657  19.274023     5.9356      7.941   243.9782 7.0837e+01     6.3418      2.169      3.146     6.4504 0.0000e+00
      2.227      0.038    11.7347     95.422     30.638  19.260153     5.9186      7.941   244.0524 6.9881e+01     6.3200      2.184      3.168     6.4473 0.0000e+00
      2.239      0.035    11.7380     95.357     30.620  19.247416     5.8779      7.942   244.1146 6.9283e+01     6.1928      2.198      3.188     6.4441 0.0000e+00
      2.247      0.038    11.7424     95.236     30.620  19.246826     5.8430      7.943   244.1268 6.9252e+01     6.1710      2.206      3.200     6.4387 0.0000e+00
      2.250      0.048    11.7492     95.123     30.632  19.253017     5.8377      7.943   244.2001 6.9397e+01     6.2268      2.208      3.202     6.4326 0.0000e+00
      2.252      0.059    11.7516     95.046     30.646  19.258877     5.8465      7.943   244.3134 6.8890e+01     6.2860      2.205      3.197     6.4298 0.0000e+00
      2.265      0.067    11.7448     94.969     30.642  19.254266     5.8495      7.943   244.4643 6.7208e+01     6.3744      2.214      3.210     6.4279 0.0000e+00
      2.295      0.071    11.7258     94.894     30.654  19.260658     5.8416      7.943   244.5621 6.4788e+01     6.3744      2.249      3.262     6.4267 0.0000e+00
      2.331      0.070    11.7100     94.838     30.675  19.272766     5.8339      7.943   244.5492 6.2902e+01     6.3537      2.293      3.325     6.4251 0.0000e+00
      2.355      0.065    11.7067     94.803     30.677  19.273861     5.8142      7.942   244.5663 6.2245e+01     6.3291      2.317      3.360     6.4205 0.0000e+00
      2.365      0.055    11.6964     94.793     30.677  19.273898     5.7620      7.942   244.6830 6.2273e+01     6.2135      2.322      3.367     6.4162 0.0000e+00
      2.366      0.045    11.6871     94.783     30.677  19.273223     5.7194      7.943   244.7553 6.2222e+01     6.0837      2.320      3.365     6.4138 0.0000e+00
      2.369      0.039    11.6813     94.766     30.668  19.265689     5.7224      7.943   244.8381 6.1713e+01     6.0231      2.320      3.365     6.4129 0.0000e+00
      2.379      0.038    11.6754     94.774     30.641  19.246208     5.7821      7.943   244.9956 6.0718e+01     6.0959      2.329      3.379     6.4128 0.0000e+00
      2.395      0.043    11.6764     94.813     30.615  19.227869     5.8761      7.944   245.1109 5.9610e+01     6.2460      2.348      3.406     6.4133 0.0000e+00
      2.412      0.048    11.6762     94.842     30.627  19.234156     5.9184      7.945   245.2008 5.8884e+01     6.3011      2.367      3.433     6.4130 0.0000e+00
      2.423      0.052    11.6724     94.853     30.668  19.258831     5.9017      7.946   245.2222 5.8455e+01     6.2838      2.378      3.449     6.4091 0.0000e+00
      2.432      0.053    11.6742     94.858     30.692  19.272608     5.8825      7.946   245.1967 5.7807e+01     6.3101      2.383      3.456     6.4037 0.0000e+00
      2.444      0.052    11.6836     94.849     30.697  19.273921     5.8686      7.946   245.2369 5.6843e+01     6.3464      2.395      3.474     6.4007 0.0000e+00
      2.461      0.051    11.6874     94.847     30.701  19.274711     5.8514      7.945   245.2780 5.5855e+01     6.3464      2.414      3.501     6.3992 0.0000e+00
      2.477      0.051    11.6871     94.851     30.716  19.282152     5.8399      7.944   245.2627 5.4991e+01     6.3445      2.430      3.524     6.3979 0.0000e+00
      2.491      0.052    11.6914     94.828     30.749  19.300493     5.8376      7.943   245.3102 5.4303e+01     6.3573      2.444      3.543     6.3952 0.0000e+00
      2.502      0.052    11.6883     94.784     30.764  19.306258     5.8161      7.942   245.4233 5.3798e+01     6.3992      2.455      3.560     6.3918 0.0000e+00
      2.512      0.051    11.6884     94.735     30.744  19.288453     5.7710      7.942   245.5112 5.3255e+01     6.4066      2.462      3.571     6.3899 0.0000e+00
      2.523      0.051    11.6932     94.681     30.730  19.275422     5.7416      7.942   245.5987 5.2452e+01     6.3443      2.472      3.584     6.3870 0.0000e+00
      2.538      0.051    11.6896     94.617     30.735  19.275489     5.7270      7.942   245.7061 5.1520e+01     6.3635      2.488      3.610     6.3833 0.0000e+00
      2.554      0.051    11.6856     94.537     30.759  19.289265     5.6776      7.944   245.7775 5.0773e+01     6.4341      2.506      3.635     6.3779 0.0000e+00
      2.568      0.052    11.6824     94.432     30.803  19.315188     5.6023      7.945   245.7742 5.0253e+01     6.4119      2.519      3.653     6.3672 0.0000e+00
      2.579      0.054    11.6788     94.292     30.838  19.335308     5.5576      7.946   245.8383 4.9759e+01     6.3346      2.529      3.668     6.3584 0.0000e+00
      2.590      0.057    11.6720     94.138     30.853  19.342328     5.5357      7.948   245.9501 4.9136e+01     6.2844      2.540      3.684     6.3552 0.0000e+00
      2.603      0.061    11.6627     93.990     30.848  19.336669     5.4800      7.948   246.0081 4.8349e+01     6.3171      2.551      3.700     6.3533 0.0000e+00
      2.619      0.066    11.6521     93.848     30.842  19.330289     5.3995      7.948   246.0228 4.7441e+01     6.3890      2.566      3.722     6.3514 0.0000e+00
      2.639      0.067    11.6333     93.716     30.842  19.328577     5.3539      7.948   246.0413 4.6432e+01     6.3678      2.587      3.752     6.3486 0.0000e+00
      2.661      0.065    11.6150     93.589     30.824  19.315964     5.3360      7.948   246.1466 4.5395e+01     6.2996      2.609      3.784     6.3446 0.0000e+00
      2.682      0.062    11.5985     93.454     30.807  19.304599     5.3573      7.948   246.2628 4.4546e+01     6.3170      2.631      3.816     6.3398 0.0000e+00
      2.697      0.061    11.5818     93.320     30.829  19.317954     5.4204      7.948   246.3274 4.4107e+01     6.3727      2.649      3.841     6.3355 0.0000e+00
      2.705      0.062    11.5660     93.153     30.882  19.350641     5.4580      7.948   246.3264 4.3898e+01     6.3918      2.653      3.848     6.3326 0.0000e+00
      2.712      0.063    11.5533     92.969     30.935  19.382804     5.4616      7.949   246.3365 4.3327e+01     6.4119      2.655      3.850     6.3311 0.0000e+00
      2.728      0.065    11.5335     92.807     30.948  19.389832     5.4393      7.949   246.4504 4.2232e+01     6.5132      2.672      3.875     6.3299 0.0000e+00
      2.753      0.067    11.5214     92.625     30.922  19.372216     5.3971      7.948   246.4978 4.1081e+01     6.6598      2.700      3.917     6.3293 0.0000e+00
      2.777      0.067    11.5012     92.463     30.903  19.360015     5.3595      7.947   246.4798 4.0255e+01     6.6814      2.726      3.954     6.3286 0.0000e+00
      2.796      0.063    11.4713     92.344     30.918  19.369115     5.3336      7.947   246.5767 3.9663e+01     6.6034      2.743      3.979     6.3262 0.0000e+00
      2.810      0.058    11.4621     92.226     30.896  19.355435     5.3260      7.947   246.7225 3.9147e+01     6.6054      2.755      3.997     6.3242 0.0000e+00
      2.820      0.056    11.4325     92.129     30.842  19.321406     5.3260      7.947   246.8668 3.8836e+01     6.6024      2.767      4.013     6.3233 0.0000e+00
      2.827      0.057    11.4116     92.075     30.868  19.338077     5.3160      7.947   246.9443 3.8605e+01     6.4990      2.773      4.021     6.3224 0.0000e+00
      2.837      0.061    11.4023     92.023     30.914  19.366799     5.2966      7.947   246.9712 3.8015e+01     6.4146      2.778      4.029     6.3222 0.0000e+00
      2.856      0.063    11.3846     91.953     30.890  19.351681     5.2751      7.947   247.1064 3.7033e+01     6.3667      2.797      4.058     6.3221 0.0000e+00
      2.881      0.060    11.3712     91.893     30.880  19.345488     5.2881      7.946   247.2879 3.6018e+01     6.3645      2.825      4.098     6.3219 0.0000e+00
      2.904      0.054    11.3675     91.838     30.895  19.355318     5.3376      7.945   247.4454 3.5350e+01     6.4218      2.852      4.137     6.3218 0.0000e+00
      2.919      0.044    11.3631     91.780     30.876  19.343746     5.3578      7.944   247.5484 3.5160e+01     6.4457      2.868      4.159     6.3218 0.0000e+00
      2.923      0.033    11.3501     91.737     30.857  19.332361     5.3416      7.945   247.5863 3.5177e+01     6.4145      2.868      4.159     6.3221 0.0000e+00
      2.923      0.023    11.3453     91.718     30.876  19.344467     5.3328      7.945   247.5591 3.5124e+01     6.4538      2.865      4.155     6.3224 0.0000e+00
      2.924      0.018    11.3381     91.720     30.906  19.363322     5.3429      7.946   247.4773 3.4916e+01     6.6135      2.866      4.157     6.3229 0.0000e+00
      2.929      0.019    11.3299     91.751     30.917  19.370134     5.3555      7.947   247.4584 3.4628e+01     6.7060      2.873      4.166     6.3236 0.0000e+00
      2.935      0.026    11.3234     91.808     30.906  19.363426     5.3515      7.948   247.5026 3.4391e+01     6.6491      2.879      4.175     6.3241 0.0000e+00
      2.940      0.036    11.3222     91.872     30.878  19.345611     5.3620      7.949   247.4958 3.4183e+01     6.6435      2.884      4.183     6.3246 0.0000e+00
      2.947      0.046    11.3212     91.935     30.877  19.344936     5.4158      7.949   247.4623 3.3810e+01     6.7740      2.889      4.189     6.3248 0.0000e+00
      2.960      0.051    11.3249     91.985     30.895  19.355273     5.4523      7.947   247.4418 3.3152e+01     6.8614      2.900      4.207     6.3249 0.0000e+00
      2.980      0.053    11.3338     92.024     30.877  19.343793     5.4449      7.945   247.5056 3.2416e+01     6.8463      2.922      4.238     6.3254 0.0000e+00
      3.001      0.052    11.3409     92.076     30.860  19.332933     5.4348      7.945   247.7178 3.1805e+01     6.8310      2.945      4.270     6.3253 0.0000e+00
      3.016      0.051    11.3502     92.142     30.888  19.350766     5.4141      7.945   247.8571 3.1396e+01     6.8466      2.962      4.295     6.3243 0.0000e+00
      3.025      0.050    11.3567     92.176     30.917  19.369210     5.3778      7.946   247.8125 3.1205e+01     6.8651      2.968      4.305     6.3232 0.0000e+00
      3.029      0.048    11.3602     92.166     30.911  19.365733     5.3536      7.946   247.6949 3.1007e+01     6.8486      2.968      4.305     6.3226 0.0000e+00
      3.038      0.047    11.3656     92.144     30.921  19.372126     5.3382      7.946   247.7260 3.0564e+01     6.8528      2.976      4.316     6.3220 0.0000e+00
      3.054      0.048    11.3778     92.110     30.938  19.383101     5.3582      7.946   247.9301 2.9950e+01     7.0868      2.995      4.344     6.3218 0.0000e+00
      3.072      0.049    11.3825     92.075     30.920  19.371631     5.4199      7.947   248.0121 2.9397e+01     7.4567      3.015      4.372     6.3224 0.0000e+00
      3.087      0.050    11.3774     92.046     30.901  19.360246     5.4519      7.949   247.8561 2.9041e+01     7.5679      3.029      4.392     6.3234 0.0000e+00
      3.097      0.049    11.3761     92.002     30.920  19.372250     5.4537      7.949   247.5927 2.8815e+01     7.5425      3.038      4.406     6.3242 0.0000e+00
      3.106      0.048    11.3714     91.955     30.948  19.389970     5.5330      7.950   247.4088 2.8520e+01     8.2772      3.045      4.417     6.3245 0.0000e+00
      3.116      0.048    11.3652     91.934     30.939  19.384292     5.6952      7.950   247.3536 2.8105e+01     9.6877      3.054      4.430     6.3245 0.0000e+00
      3.129      0.048    11.3647     91.922     30.912  19.367001     5.8086      7.951   247.3553 2.7660e+01    10.4892      3.067      4.449     6.3246 0.0000e+00
      3.144      0.047    11.3582     91.908     30.919  19.371109     5.9883      7.952   247.3431 2.7242e+01    11.2381      3.083      4.471     6.3250 0.0000e+00
      3.159      0.044    11.3491     91.912     30.918  19.370553     7.9015      7.952   247.2922 2.6895e+01    19.4605      3.098      4.494     6.3252 0.0000e+00
      3.171      0.040    11.3493     91.926     30.902  19.360278    11.4372      7.952   247.3419 2.6652e+01    34.6183      3.111      4.513     6.3249 0.0000e+00
      3.179      0.034    11.3485     91.944     30.923  19.373687    13.4064      7.952   247.5997 2.6460e+01    43.0132      3.118      4.523     6.3246 0.0000e+00
      3.186      0.028    11.3445     91.965     30.975  19.405877    14.0502      7.951   247.8278 2.6277e+01    45.9819      3.124      4.530     6.3246 0.0000e+00
      3.192      0.022    11.3462     91.976     31.017  19.432470    19.4041      7.950   247.7772 2.6126e+01    71.4686      3.130      4.540     6.3246 0.0000e+00
      3.197      0.017    11.3483     91.992     31.032  19.441625    29.2073      7.950   247.6764 2.6021e+01   118.1353      3.135      4.547     6.3244 0.0000e+00
      3.201      0.013    11.3498     92.019     31.051  19.453162    34.5587      7.950   247.7279 2.5965e+01   143.6763      3.139      4.553     6.3241 0.0000e+00
      3.203      0.011    11.3545     92.015     31.037  19.445160    35.0847      7.950   247.7978 2.5903e+01   146.2221      3.141      4.556     6.3238 0.0000e+00
      3.204      0.008    11.3544     91.968     30.978  19.408279    35.4016      7.950   247.9195 2.5803e+01   148.5742      3.142      4.557     6.3235 0.0000e+00
      3.206      0.006    11.3551     91.897     30.944  19.387640    38.3565      7.951   248.0801 2.5713e+01   173.2085      3.144      4.559     6.3232 0.0000e+00
      3.207      0.004    11.3619     91.801     30.941  19.385815    43.7868      7.952   248.1911 2.5638e+01   218.4510      3.145      4.562     6.3231 0.0000e+00
      3.209      0.002    11.3622     91.709     30.941  19.386216    46.7009      7.953   248.3147 2.5551e+01   242.8137      3.147      4.564     6.3237 0.0000e+00
      3.209     -0.003    11.3532     91.649     30.951  19.392488    46.4408      7.952   248.5427 2.5477e+01   241.8800      3.147      4.565     6.3248 0.0000e+00
      3.209     -0.015    11.3461     91.581     30.960  19.398250    40.7825      7.951   248.8826 2.5431e+01   207.7762      3.147      4.564     6.3256 0.0000e+00
      3.208     -0.037    11.3326     91.499     30.950  19.392486    30.3734      7.951   249.2401 2.5436e+01   144.8364      3.147      4.565     6.3262 0.0000e+00
      3.204     -0.067    11.3178     91.471     30.939  19.386199    24.6657      7.949   249.5110 2.5611e+01   110.3022      3.145      4.562     6.3265 0.0000e+00
      3.192     -0.100    11.3145     91.515     30.936  19.385642    23.7240      7.948   249.6629 2.6190e+01   104.9712      3.137      4.550     6.3265 0.0000e+00
      3.162     -0.125    11.3068     91.563     30.933  19.385751    19.0047      7.948   249.7855 2.7381e+01    80.0722      3.109      4.508     6.3265 0.0000e+00
      3.112     -0.136    11.2922     91.605     30.933  19.387513    10.4604      7.947   249.8750 2.9081e+01    35.0092      3.055      4.431     6.3265 0.0000e+00
      3.052     -0.136    11.2855     91.675     30.963  19.406947     5.8195      7.945   250.0574 3.0747e+01    10.5447      2.990      4.336     6.3279 0.0000e+00
      3.004     -0.130    11.2974     91.756     31.002  19.430526     5.4144      7.944   250.2693 3.1632e+01     8.3605      2.934      4.257     6.3305 0.0000e+00
      2.981     -0.120    11.3019     91.822     30.985  19.418998     5.3865      7.944   250.2859 3.1657e+01     8.1560      2.916      4.230     6.3330 0.0000e+00
      2.976     -0.105    11.3023     91.898     30.946  19.394371     5.3913      7.945   250.3441 3.1747e+01     8.1749      2.923      4.240     6.3363 0.0000e+00
      2.961     -0.085    11.3133     91.989     30.931  19.386369     5.3974      7.946   250.4574 3.2657e+01     8.2471      2.913      4.225     6.3378 0.0000e+00
      2.927     -0.068    11.3252     92.053     30.929  19.385642     5.4023      7.945   250.4504 3.3914e+01     8.3453      2.872      4.165     6.3359 0.0000e+00
      2.892     -0.053    11.3326     92.107     30.930  19.385582     5.3840      7.945   250.4316 3.4624e+01     8.7134      2.828      4.101     6.3342 0.0000e+00
      2.875     -0.038    11.3390     92.168     30.931  19.385642     5.2501      7.945   250.4888 3.4535e+01    12.9039      2.812      4.078     6.3345 0.0000e+00
      2.878     -0.023    11.3563     92.208     30.934  19.386369     5.0326      7.945   250.6260 3.3925e+01    20.7193      2.820      4.089     6.3365 0.0000e+00
      2.890     -0.009    11.3597     92.226     30.947  19.394372     4.9176      7.945   250.7999 3.3343e+01    25.0854      2.836      4.113     6.3382 0.0000e+00
      2.899     -0.000    11.3656     92.240     30.987  19.418998     4.9008      7.945   250.9563 3.3183e+01    25.8979      2.847      4.130     6.3374 0.0000e+00
      2.897     -0.000    11.3769     92.249     31.006  19.430526     4.8467      7.945   251.0545 3.3348e+01    30.2700      2.844      4.124     6.3351 0.0000e+00
      2.888     -0.005    11.3812     92.232     30.967  19.406949     4.7541      7.945   251.1262 3.3466e+01    38.2885      2.830      4.105     6.3331 0.0000e+00
      2.881     -0.010    11.3835     92.206     30.934  19.387529     4.7128      7.946   251.2208 3.3359e+01    42.7462      2.822      4.094     6.3323 0.0000e+00
      2.879     -0.011    11.3840     92.191     30.930  19.385932     4.7053      7.948   251.3383 3.3184e+01    43.5186      2.824      4.097     6.3320 0.0000e+00
      2.879     -0.008    11.3884     92.178     30.931  19.387641     4.5133      7.949   251.4288 3.3065e+01    47.5921      2.824      4.097     6.3322 0.0000e+00
      2.878     -0.004    11.3832     92.142     30.963  19.408195     4.1566      7.949   251.3688 3.3025e+01    55.1069      2.822      4.093     6.3333 0.0000e+00
      2.877     -0.001    11.3794     92.086     31.019  19.444244     3.9622      7.949   251.3007 3.3039e+01    59.2625      2.821      4.092     6.3351 0.0000e+00
      2.877     -0.001    11.3768     92.041     31.016  19.443101     3.9450      7.949   251.3798 3.2981e+01    59.3392      2.820      4.091     6.3373 0.0000e+00
      2.877     -0.001    11.3761     91.997     30.937  19.394371     4.0567      7.949   251.4644 3.2846e+01    55.4538      2.821      4.092     6.3392 0.0000e+00
      2.878     -0.005    11.3726     91.951     30.884  19.362265     4.2804      7.950   251.4637 3.2766e+01    48.2890      2.822      4.094     6.3404 0.0000e+00
      2.878     -0.014    11.3611     91.916     30.898  19.371922     4.4109      7.950   251.4568 3.2747e+01    44.4107      2.823      4.095     6.3408 0.0000e+00
      2.878     -0.028    11.3581     91.878     30.918  19.384322     4.4368      7.950   251.4677 3.2767e+01    44.0536      2.823      4.095     6.3415 0.0000e+00
      2.873     -0.045    11.3520     91.838     30.920  19.385398     4.5182      7.952   251.4230 3.3004e+01    43.3903      2.821      4.091     6.3436 0.0000e+00
      2.861     -0.059    11.3437     91.817     30.919  19.384928     4.6626      7.954   251.4333 3.3658e+01    42.1642      2.810      4.075     6.3455 0.0000e+00
      2.838     -0.067    11.3415     91.807     30.909  19.378639     4.7424      7.955   251.5916 3.4656e+01    41.4917      2.785      4.040     6.3460 0.0000e+00
      2.808     -0.070    11.3368     91.816     30.899  19.372762     4.7598      7.955   251.7886 3.5647e+01    41.4082      2.753      3.993     6.3465 0.0000e+00
      2.782     -0.071    11.3292     91.881     30.906  19.377269     4.7815      7.955   251.9226 3.6248e+01    40.9152      2.722      3.949     6.3467 0.0000e+00
      2.768     -0.072    11.3282     91.968     30.893  19.369734     4.8879      7.956   252.0074 3.6349e+01    35.3599      2.709      3.930     6.3465 0.0000e+00
      2.764     -0.073    11.3280     92.050     30.853  19.345060     5.0808      7.956   252.0388 3.6367e+01    25.2392      2.713      3.934     6.3463 0.0000e+00
      2.755     -0.073    11.3236     92.162     30.832  19.332541     5.1994      7.957   252.0442 3.6983e+01    19.7612      2.708      3.928     6.3468 0.0000e+00
      2.731     -0.070    11.3354     92.284     30.850  19.345174     5.2310      7.958   252.1594 3.8253e+01    19.1356      2.682      3.890     6.3475 0.0000e+00
      2.697     -0.064    11.3487     92.381     30.890  19.371006     5.2722      7.958   252.2269 3.9412e+01    16.9912      2.642      3.831     6.3479 0.0000e+00
      2.668     -0.056    11.3535     92.455     30.923  19.391271     5.3389      7.959   252.1723 3.9846e+01    13.0654      2.609      3.784     6.3486 0.0000e+00
      2.657     -0.045    11.3697     92.486     30.938  19.399996     5.3802      7.961   252.2738 3.9655e+01    10.9526      2.600      3.771     6.3500 0.0000e+00
      2.659     -0.032    11.3867     92.502     30.961  19.413096     5.3885      7.962   252.4211 3.9270e+01    10.9169      2.607      3.781     6.3527 0.0000e+00
      2.664     -0.022    11.3953     92.543     30.977  19.422852     5.4140      7.963   252.4041 3.9139e+01    11.8144      2.616      3.794     6.3541 0.0000e+00
      2.662     -0.018    11.4087     92.590     30.926  19.391159     5.4393      7.963   252.4124 3.9425e+01    13.3668      2.616      3.793     6.3530 0.0000e+00
      2.651     -0.023    11.4105     92.620     30.856  19.346898     5.4449      7.964   252.4356 3.9781e+01    14.2462      2.600      3.770     6.3511 0.0000e+00
      2.640     -0.031    11.4095     92.637     30.831  19.331502     5.4560      7.964   252.4269 3.9900e+01    14.3515      2.587      3.751     6.3497 0.0000e+00
      2.634     -0.038    11.4175     92.652     30.831  19.331812     5.4985      7.964   252.4785 3.9971e+01    13.6829      2.585      3.749     6.3493 0.0000e+00
      2.627     -0.038    11.4239     92.644     30.861  19.350651     5.5683      7.965   252.5438 4.0279e+01    12.3453      2.579      3.740     6.3490 0.0000e+00
      2.614     -0.033    11.4280     92.623     30.890  19.369074     5.6088      7.966   252.6138 4.0849e+01    11.6378      2.565      3.720     6.3488 0.0000e+00
      2.599     -0.028    11.4276     92.589     30.885  19.364367     5.6219      7.968   252.6367 4.1478e+01    11.6536      2.549      3.697     6.3488 0.0000e+00
      2.589     -0.024    11.4330     92.545     30.875  19.357135     5.6605      7.968   252.6491 4.1713e+01    12.0921      2.536      3.677     6.3494 0.0000e+00
      2.588     -0.019    11.4292     92.524     30.856  19.345037     5.7015      7.968   252.6781 4.1405e+01    12.8391      2.534      3.676     6.3505 0.0000e+00
      2.592     -0.013    11.4268     92.513     30.854  19.344887     5.7172      7.968   252.7288 4.1205e+01    13.1716      2.545      3.691     6.3508 0.0000e+00
      2.592     -0.006    11.4252     92.506     30.870  19.355318     5.7342      7.969   252.8323 4.1537e+01    13.1741      2.546      3.692     6.3488 0.0000e+00
      2.584     -0.002    11.4152     92.512     30.852  19.344361     5.7575      7.970   252.8966 4.2003e+01    13.2113      2.535      3.675     6.3458 0.0000e+00
      2.579     -0.002    11.4168     92.526     30.844  19.339207     5.7658      7.970   252.9896 4.2060e+01    12.7678      2.525      3.662     6.3453 0.0000e+00
      2.581     -0.005    11.4141     92.530     30.870  19.356411     5.7510      7.972   253.0966 4.1699e+01    11.7741      2.529      3.668     6.3470 0.0000e+00
      2.588     -0.010    11.4120     92.502     30.879  19.362165     5.7290      7.973   253.0716 4.1520e+01    11.1366      2.541      3.686     6.3485 0.0000e+00
      2.590     -0.018    11.4136     92.462     30.853  19.345380     5.7319      7.973   253.0317 4.1804e+01    11.0379      2.543      3.689     6.3487 0.0000e+00
      2.583     -0.031    11.4150     92.450     30.850  19.343665     5.7946      7.973   253.0437 4.2322e+01    10.5122      2.534      3.676     6.3486 0.0000e+00
      2.573     -0.047    11.4182     92.467     30.847  19.341425     5.8709      7.974   253.0448 4.2988e+01     9.4259      2.524      3.661     6.3494 0.0000e+00
      2.558     -0.063    11.4125     92.505     30.809  19.318304     5.8975      7.976   253.1306 4.3861e+01     8.8353      2.510      3.641     6.3502 0.0000e+00
      2.538     -0.073    11.4053     92.568     30.806  19.317715     5.9160      7.978   253.2215 4.4917e+01     8.8025      2.490      3.611     6.3499 0.0000e+00
      2.514     -0.076    11.4045     92.652     30.830  19.334300     5.9125      7.980   253.1977 4.6098e+01     8.5175      2.466      3.576     6.3490 0.0000e+00
      2.489     -0.073    11.4075     92.757     30.819  19.328631     5.8549      7.980   253.1870 4.7367e+01     7.9163      2.441      3.541     6.3489 0.0000e+00
      2.467     -0.067    11.4106     92.862     30.792  19.312577     5.8015      7.979   253.2635 4.8404e+01     7.5447      2.416      3.505     6.3500 0.0000e+00
      2.451     -0.061    11.4192     92.941     30.820  19.330401     5.7914      7.979   253.3485 4.8806e+01     7.5094      2.400      3.481     6.3522 0.0000e+00
      2.443     -0.054    11.4275     92.993     30.857  19.353934     5.8574      7.979   253.3547 4.8934e+01     7.3869      2.396      3.475     6.3549 0.0000e+00
      2.436     -0.048    11.4411     93.048     30.840  19.343502     5.9593      7.980   253.3378 4.9499e+01     7.0539      2.393      3.471     6.3567 0.0000e+00
      2.422     -0.041    11.4559     93.116     30.820  19.331078     6.0000      7.980   253.4029 5.0324e+01     6.7973      2.376      3.447     6.3578 0.0000e+00
      2.405     -0.034    11.4646     93.158     30.820  19.330515     6.0078      7.980   253.5395 5.0762e+01     6.7776      2.356      3.418     6.3591 0.0000e+00
      2.394     -0.028    11.4702     93.182     30.830  19.336700     6.0290      7.980   253.6124 5.0741e+01     6.7813      2.347      3.404     6.3596 0.0000e+00
      2.389     -0.021    11.4745     93.226     30.840  19.342455     6.0391      7.980   253.5968 5.0493e+01     6.6378      2.343      3.397     6.3595 0.0000e+00
      2.389     -0.012    11.4872     93.281     30.832  19.336691     6.0297      7.981   253.5231 5.0128e+01     6.4769      2.342      3.397     6.3596 0.0000e+00
      2.391     -0.005    11.4919     93.320     30.823  19.330403     6.0161      7.982   253.4089 4.9769e+01     6.3735      2.345      3.401     6.3590 0.0000e+00
      2.391     -0.001    11.4912     93.334     30.825  19.329831     6.0246      7.983   253.3344 4.9481e+01     6.3440      2.346      3.402     6.3583 0.0000e+00
      2.390     -0.001    11.4990     93.339     30.827  19.329783     6.0569      7.984   253.3117 4.9161e+01     6.3595      2.342      3.397     6.3578 0.0000e+00
      2.390     -0.006    11.5068     93.358     30.828  19.329820     6.0831      7.984   253.3919 4.8844e+01     6.3555      2.343      3.399     6.3572 0.0000e+00
      2.390     -0.017    11.5126     93.376     30.829  19.330278     6.1001      7.984   253.5304 4.8628e+01     6.3644      2.345      3.402     6.3559 0.0000e+00
      2.390     -0.036    11.5146     93.375     30.835  19.335318     6.1035      7.984   253.6085 4.8473e+01     6.3636      2.344      3.399     6.3531 0.0000e+00
      2.386     -0.061    11.5134     93.384     30.820  19.327363     6.0656      7.985   253.6483 4.8643e+01     6.4141      2.342      3.397     6.3509 0.0000e+00
      2.371     -0.087    11.5178     93.415     30.770  19.297496     6.0002      7.986   253.6674 4.9591e+01     6.5319      2.332      3.381     6.3496 0.0000e+00
      2.342     -0.109    11.5220     93.445     30.755  19.291207     5.9532      7.987   253.6683 5.1304e+01     6.5583      2.302      3.338     6.3490 0.0000e+00
      2.300     -0.123    11.5188     93.469     30.789  19.314728     5.9469      7.988   253.6582 5.3298e+01     6.5628      2.258      3.274     6.3506 0.0000e+00
      2.254     -0.125    11.5178     93.477     30.807  19.328286     5.9499      7.990   253.6314 5.4947e+01     6.6541      2.208      3.202     6.3533 0.0000e+00
      2.215     -0.114    11.5238     93.475     30.804  19.328332     5.9301      7.990   253.6019 5.5861e+01     6.6706      2.166      3.141     6.3570 0.0000e+00
      2.187     -0.090    11.5248     93.486     30.783  19.315288     5.9074      7.990   253.6468 5.6123e+01     6.5586      2.141      3.105     6.3606 0.0000e+00
      2.169     -0.058    11.5280     93.508     30.753  19.297380     5.9002      7.991   253.7434 5.6142e+01     6.4607      2.127      3.085     6.3646 0.0000e+00
      2.158     -0.030    11.5277     93.531     30.760  19.302001     5.9102      7.993   253.8234 5.6002e+01     6.5114      2.113      3.065     6.3690 0.0000e+00
      2.156     -0.016    11.5243     93.563     30.769  19.307764     5.9286      7.993   253.9255 5.5365e+01     6.6594      2.108      3.057     6.3717 0.0000e+00
      2.166     -0.020    11.5266     93.607     30.762  19.303657     5.9313      7.994   254.0313 5.4412e+01     6.6794      2.123      3.078     6.3726 0.0000e+00
      2.180     -0.036    11.5290     93.617     30.782  19.315746     5.9097      7.995   254.1564 5.3998e+01     6.6163      2.143      3.108     6.3728 0.0000e+00
      2.179     -0.057    11.5330     93.637     30.801  19.327130     5.8922      7.997   254.2344 5.4819e+01     6.6136      2.147      3.115     6.3734 0.0000e+00
      2.152     -0.077    11.5327     93.723     30.780  19.314498     5.8944      7.998   254.1995 5.6551e+01     6.6474      2.116      3.070     6.3738 0.0000e+00
      2.108     -0.090    11.5459     93.813     30.740  19.289814     5.8944      7.999   254.0783 5.8206e+01     6.7170      2.066      2.997     6.3737 0.0000e+00
      2.068     -0.090    11.5423     93.861     30.726  19.282278     5.8917      7.999   253.9735 5.9128e+01     6.7721      2.023      2.934     6.3731 0.0000e+00
      2.041     -0.076    11.5400     93.944     30.730  19.286785     5.9029      8.000   254.0510 5.9157e+01     6.7666      1.996      2.894     6.3725 0.0000e+00
      2.029     -0.054    11.5564     94.080     30.717  19.280918     5.9468      8.001   254.1552 5.8673e+01     6.7194      1.987      2.882     6.3733 0.0000e+00
      2.027     -0.034    11.5700     94.119     30.704  19.274734     5.9984      8.003   254.2009 5.8098e+01     6.6458      1.987      2.882     6.3749 0.0000e+00
      2.029     -0.026    11.5710     94.066     30.705  19.275418     6.0107      8.004   254.2599 5.7477e+01     6.5591      1.989      2.885     6.3759 0.0000e+00
      2.031     -0.031    11.5736     94.034     30.728  19.289194     6.0201      8.004   254.2660 5.7054e+01     6.5246      1.993      2.891     6.3788 0.0000e+00
      2.028     -0.046    11.6059     94.032     30.770  19.314497     6.0373      8.004   254.1881 5.7203e+01     6.5709      1.994      2.891     6.3839 0.0000e+00
      2.014     -0.065    11.6055     94.027     30.793  19.327748     6.0275      8.006   254.0926 5.7806e+01     6.5723      1.979      2.870     6.3872 0.0000e+00
      1.989     -0.082    11.5907     94.036     30.784  19.322613     6.0101      8.008   254.0581 5.8620e+01     6.5077      1.953      2.833     6.3875 0.0000e+00
      1.959     -0.094    11.5893     94.062     30.772  19.315810     6.0020      8.008   254.0284 5.9568e+01     6.5072      1.922      2.788     6.3854 0.0000e+00
      1.928     -0.097    11.5922     94.114     30.760  19.308895     5.9789      8.008   253.9924 6.0464e+01     6.6006      1.889      2.741     6.3835 0.0000e+00
      1.900     -0.091    11.5896     94.206     30.748  19.302399     5.9394      8.009   253.9659 6.1189e+01     6.6795      1.860      2.698     6.3824 0.0000e+00
      1.877     -0.080    11.5905     94.277     30.744  19.300666     5.9151      8.010   253.9668 6.1806e+01     6.6417      1.839      2.667     6.3823 0.0000e+00
      1.860     -0.066    11.5949     94.286     30.723  19.287947     5.9108      8.012   254.0036 6.2286e+01     6.5534      1.823      2.644     6.3841 0.0000e+00
      1.845     -0.050    11.5963     94.273     30.701  19.275418     5.9529      8.013   253.8939 6.2496e+01     6.5692      1.807      2.621     6.3853 0.0000e+00
      1.835     -0.032    11.6133     94.260     30.699  19.275979     6.0328      8.013   253.7589 6.2540e+01     6.6272      1.798      2.608     6.3860 0.0000e+00
      1.829     -0.012    11.6244     94.256     30.728  19.294738     6.0779      8.013   253.8347 6.2574e+01     6.6058      1.793      2.601     6.3870 0.0000e+00
      1.824      0.004    11.6208     94.264     30.757  19.312031     6.0821      8.014   253.9497 6.2528e+01     6.5841      1.786      2.591     6.3882 0.0000e+00
      1.826      0.012    11.6184     94.271     30.730  19.294853     6.0588      8.016   254.0303 6.2197e+01     6.6036      1.787      2.593     6.3909 0.0000e+00
      1.838      0.004    11.6161     94.288     30.702  19.277247     5.9552      8.016   254.1205 6.1454e+01     6.9100      1.801      2.612     6.3942 0.0000e+00
      1.856     -0.018    11.6135     94.308     30.722  19.289356     5.7857      8.016   254.1805 6.0653e+01     7.4873      1.822      2.642     6.3948 0.0000e+00
      1.865     -0.051    11.6184     94.340     30.760  19.314471     5.6903      8.016   254.2398 6.0584e+01     7.7760      1.839      2.668     6.3930 0.0000e+00
      1.849     -0.087    11.6161     94.383     30.776  19.327302     5.6847      8.016   254.2352 6.1855e+01     7.8058      1.824      2.646     6.3919 0.0000e+00
      1.808     -0.121    11.6211     94.415     30.755  19.317697     5.6766      8.016   254.2103 6.4017e+01     7.7107      1.776      2.576     6.3918 0.0000e+00
      1.754     -0.143    11.6214     94.442     30.760  19.325147     5.6507      8.017   254.2829 6.6027e+01     7.4113      1.718      2.492     6.3919 0.0000e+00
      1.702     -0.150    11.6249     94.470     30.796  19.353986     5.6292      8.018   254.3387 6.7515e+01     7.1581      1.665      2.415     6.3937 0.0000e+00
      1.660     -0.142    11.6316     94.493     30.776  19.349385     5.6237      8.019   254.2836 6.8476e+01     7.0406      1.623      2.354     6.3981 0.0000e+00
      1.630     -0.125    11.6316     94.517     30.734  19.332922     5.6594      8.020   254.2191 6.8976e+01     6.8096      1.596      2.314     6.4037 0.0000e+00
      1.608     -0.109    11.6340     94.574     30.738  19.345144     5.7202      8.022   254.2470 6.9197e+01     6.4146      1.576      2.286     6.4108 0.0000e+00
      1.587     -0.099    11.6335     94.645     30.767  19.370372     5.7434      8.024   254.2765 6.9551e+01     6.1594      1.557      2.258     6.4205 0.0000e+00
      1.565     -0.095    11.6350     94.730     30.781  19.384362     5.7404      8.024   254.2310 7.0364e+01     6.1149      1.535      2.226     6.4329 0.0000e+00
      1.540     -0.097    11.6279     94.865     30.778  19.387488     5.7583      8.024   254.1273 7.1458e+01     6.1500      1.510      2.190     6.4495 0.0000e+00
      1.514     -0.106    11.6332     95.033     30.805  19.408180     5.7929      8.025   253.9690 7.2712e+01     6.2081      1.485      2.154     6.4673 0.0000e+00
      1.489     -0.117    11.6392     95.208     30.856  19.444344     5.8092      8.027   253.7805 7.4114e+01     6.2030      1.460      2.118     6.4785 0.0000e+00
      1.462     -0.128    11.6431     95.383     30.851  19.444345     5.7982      8.028   253.7400 7.5880e+01     6.1225      1.435      2.081     6.4864 0.0000e+00
      1.428     -0.137    11.6601     95.554     30.791  19.408190     5.7840      8.029   253.8235 7.8105e+01     6.1220      1.404      2.037     6.4953 0.0000e+00
      1.386     -0.145    11.6795     95.720     30.757  19.387613     5.7875      8.031   253.7582 8.0269e+01     6.2313      1.359      1.972     6.5009 0.0000e+00
      1.343     -0.150    11.7002     95.879     30.752  19.385756     5.7907      8.032   253.5532 8.1880e+01     6.2487      1.314      1.904     6.5061 0.0000e+00
      1.304     -0.150    11.7197     96.022     30.749  19.385732     5.7805      8.033   253.4095 8.3145e+01     6.1608      1.279      1.855     6.5117 0.0000e+00
      1.266     -0.143    11.7399     96.145     30.747  19.387328     5.7889      8.034   253.3973 8.4578e+01     6.1261      1.243      1.803     6.5150 0.0000e+00
      1.227     -0.131    11.7598     96.245     30.771  19.405060     5.8088      8.036   253.4060 8.5980e+01     6.1702      1.203      1.745     6.5169 0.0000e+00
      1.191     -0.117    11.7797     96.334     30.775  19.409932     5.8130      8.037   253.4280 8.6855e+01     6.2158      1.165      1.689     6.5172 0.0000e+00
      1.162     -0.100    11.7964     96.417     30.726  19.382828     5.8070      8.039   253.4060 8.7344e+01     6.1991      1.136      1.648     6.5199 0.0000e+00
      1.141     -0.079    11.8103     96.457     30.736  19.394355     5.7864      8.041   253.2250 8.7941e+01     6.1390      1.119      1.625     6.5257 0.0000e+00
      1.122     -0.056    11.8208     96.468     30.767  19.422507     5.7551      8.042   253.0474 8.8397e+01     6.2063      1.098      1.594     6.5304 0.0000e+00
      1.109     -0.036    11.8288     96.503     30.725  19.406218     5.7288      8.042   252.9793 8.8089e+01     6.3638      1.081      1.569     6.5338 0.0000e+00
      1.105     -0.020    11.8416     96.567     30.682  19.387613     5.7012      8.043   253.0036 8.7123e+01     6.3703      1.082      1.569     6.5390 0.0000e+00
      1.107     -0.010    11.8435     96.663     30.672  19.387777     5.6631      8.044   253.0826 8.5770e+01     6.3185      1.085      1.575     6.5466 0.0000e+00
      1.111     -0.004    11.8363     96.804     30.687  19.408199     5.5751      8.046   253.0737 8.4236e+01     6.2842      1.090      1.581     6.5597 0.0000e+00
      1.112     -0.005    11.8362     96.989     30.718  19.444337     5.4534      8.048   252.9828 8.2622e+01     6.1954      1.093      1.585     6.5801 0.0000e+00
      1.110     -0.015    11.8389     97.217     30.697  19.444334     5.4060      8.048   252.8443 8.1082e+01     6.1322      1.090      1.581     6.5955 0.0000e+00
      1.107     -0.035    11.8479     97.482     30.635  19.408178     5.4103      8.048   252.6895 7.9754e+01     6.1004      1.085      1.574     6.6017 0.0000e+00
      1.103     -0.060    11.8612     97.729     30.612  19.387593     5.4060      8.049   252.6601 7.8617e+01     6.1184      1.085      1.573     6.6160 0.0000e+00
      1.091     -0.088    11.8747     97.924     30.623  19.385633     5.4122      8.050   252.7470 7.8182e+01     6.2136      1.077      1.563     6.6490 0.0000e+00
      1.064     -0.114    11.8924     98.104     30.632  19.384476     5.4098      8.051   252.8794 7.8484e+01     6.2266      1.047      1.519     6.6781 0.0000e+00
      1.024     -0.134    11.9275     98.276     30.617  19.373601     5.3930      8.051   252.9702 7.9379e+01     6.1391      1.007      1.459     6.6812 0.0000e+00
      0.977     -0.145    11.9654     98.431     30.624  19.380935     5.3849      8.052   252.8986 8.0765e+01     6.1129      0.958      1.390     6.6670 0.0000e+00
      0.930     -0.145    11.9897     98.558     30.661  19.409752     5.3779      8.053   252.7879 8.1977e+01     6.1485      0.909      1.318     6.6483 0.0000e+00
      0.890     -0.139    12.0172     98.613     30.642  19.405035     5.3673      8.054   252.7499 8.3101e+01     6.1594      0.869      1.260     6.6360 0.0000e+00
      0.860     -0.131    12.0390     98.607     30.597  19.387305     5.3563      8.054   252.6116 8.4191e+01     6.1076      0.840      1.219     6.6352 0.0000e+00
      0.836     -0.127    12.0547     98.592     30.572  19.385590     5.3286      8.054   252.4059 8.5415e+01     6.0351      0.819      1.188     6.6408 0.0000e+00
      0.811     -0.128    12.0722     98.602     30.547  19.384313     5.1739      8.055   252.3279 8.7303e+01     6.0680      0.798      1.158     6.6508 0.0000e+00
      0.780     -0.136    12.0741     98.625     30.509  19.371878     4.9011      8.056   252.3567 8.9252e+01     6.1643      0.767      1.113     6.6615 0.0000e+00
      0.742     -0.146    12.0656     98.657     30.482  19.362053     4.7347      8.055   252.4104 9.1236e+01     6.1748      0.727      1.056     6.6768 0.0000e+00
      0.699     -0.154    12.0545     98.721     30.523  19.392338     4.6764      8.055   252.3758 9.3500e+01     6.0916      0.687      0.998     6.7026 0.0000e+00
      0.654     -0.158    12.0487     98.843     30.563  19.421052     4.3624      8.056   252.1962 9.5284e+01     6.0130      0.640      0.928     6.7291 0.0000e+00
      0.611     -0.155    12.0465     99.026     30.514  19.392225     3.8018      8.056   252.0455 9.6621e+01     5.9750      0.596      0.865     6.7488 0.0000e+00
      0.571     -0.148    12.0446     99.237     30.463  19.360795     3.5074      8.056   251.9300 9.7976e+01     5.9061      0.560      0.813     6.7616 0.0000e+00
      0.533     -0.142    12.0502     99.442     30.457  19.358042     3.4922      8.056   251.6606 9.9088e+01     5.8288      0.521      0.756     6.7660 0.0000e+00
      0.500     -0.138    12.0630     99.622     30.455  19.358939     3.6346      8.056   251.2827 9.9601e+01     5.8938      0.488      0.708     6.7701 0.0000e+00
      0.471     -0.137    12.0857     99.775     30.468  19.371646     3.9308      8.057   251.0603 1.0032e+02     6.0781      0.463      0.671     6.7767 0.0000e+00
      0.441     -0.133    12.1130     99.895     30.479  19.384895     4.0941      8.058   251.0368 1.0204e+02     6.1431      0.435      0.632     6.7757 0.0000e+00
      0.403     -0.126    12.1395     99.995     30.481  19.392335     4.0931      8.059   250.7404 1.0504e+02     6.0996      0.396      0.576     6.7758 0.0000e+00
      0.362     -0.122    12.1588    100.098     30.485  19.398204     4.0686      8.059   250.0581 1.0909e+02     6.0982      0.353      0.513     6.7813 0.0000e+00
      0.325     -0.125    12.1765    100.190     30.472  19.392449     4.0481      8.060   249.4984 1.1236e+02     6.1269      0.313      0.454     6.7881 0.0000e+00
      0.304     -0.130    12.1876    100.259     30.456  19.386162     4.0531      8.060   249.1349 1.1464e+02     6.1739      0.292      0.423     6.7985 0.0000e+00
      0.290     -0.132    12.1932    100.307     30.448  19.385590     4.0458      8.061   248.8471 1.1739e+02     6.1884      0.295      0.427     6.8108 0.0000e+00
      0.256     -0.129    12.2067    100.354     30.443  19.385542     4.0009      8.062   248.6854 1.2026e+02     6.1312      0.262      0.379     6.8161 0.0000e+00
      0.201     -0.121    12.2176    100.406     30.441  19.385590     3.8277      8.063   248.5559 1.2296e+02     6.0967      0.191      0.276     6.8157 0.0000e+00
      0.155     -0.109    12.2240    100.428     30.442  19.386161     3.5328      8.064   248.4863 1.2491e+02     6.1130      0.145      0.210     6.8246 0.0000e+00
      0.128     -0.092    12.2256    100.412     30.452  19.392448     3.3729      8.066   248.4455 1.2529e+02     6.1579      0.122      0.177     6.8348 0.0000e+00
      0.114     -0.070    12.2284    100.386     30.459  19.398212     3.3426      8.067   248.3208 1.2452e+02     6.1954      0.107      0.156     6.8386 0.0000e+00
      0.110     -0.055    12.2378    100.363     30.447  19.392449     3.1671      8.068   248.3562 1.2249e+02     6.1899      0.107      0.155     6.8408 0.0000e+00
      0.109     -0.055    12.2403    100.326     30.435  19.386176     2.8729      8.068   248.4428 1.2297e+02     6.2285      0.111      0.160     6.8403 0.0000e+00
      0.103     -0.074    12.2372    100.280     30.432  19.385761     2.7237      8.068   248.1643 1.2758e+02     6.2519      0.103      0.150     6.8389 0.0000e+00
      0.088     -0.107    12.2321    100.248     30.430  19.387440     2.6867      8.068   247.8283 1.3153e+02     6.1653      0.090      0.132     6.8406 0.0000e+00
      0.058     -0.152    12.2303    100.227     30.452  19.406482     2.5164      8.066   247.4772 1.4317e+02     6.0693      0.063      0.092     6.8444 0.0000e+00
      0.013     -0.203    12.2247    100.195     30.473  19.425793     2.2382      8.063   246.8445 1.7338e+02     6.0141      0.016      0.022     6.8475 0.0000e+00
     -0.044     -0.253    12.2165    100.150     30.470  19.430735     2.0862      8.061   246.2004 2.2635e+02     5.9759     -0.038     -0.055     6.8484 0.0000e+00
     -0.117     -0.293    12.2125    100.120     30.510  19.466249     2.0443      8.060   245.2823 3.4905e+02     5.9148     -0.108     -0.157     6.8528 0.0000e+00
     -0.207     -0.321    12.2073    100.095     30.606  19.538194     1.8562      8.058   243.8318 7.1951e+02     5.8565     -0.199     -0.289     6.8626 0.0000e+00
     -0.306     -0.333    12.2026    100.082     30.694  19.603209     1.5345      8.057   241.3098 1.2432e+03     5.9201     -0.302     -0.438     6.8709 0.0000e+00
     -0.401     -0.325    12.1900    100.086     30.704  19.618331     1.3680      8.055   238.7088 1.5144e+03     6.0004     -0.398     -0.577     6.8807 0.0000e+00
     -0.487     -0.295    12.1836    100.019     30.254  19.340634     1.3245      8.054   238.8819 1.5320e+03     5.9390     -0.478     -0.693     6.8987 0.0000e+00
     -0.568     -0.246    12.1745     99.843     25.007  15.992005     0.9662      8.055   240.3061 1.5265e+03     5.7592     -0.561     -0.814     6.9189 0.0000e+00
     -0.635     -0.189    12.1645     99.574     15.529   9.933215     0.3238      8.057   240.6996 1.5498e+03     5.5681     -0.634     -0.919     6.9321 0.0000e+00
     -0.674     -0.132    12.1700     99.179      9.842   6.296284    -0.0422      8.057   241.1445 1.5280e+03     5.4732     -0.672     -0.975     6.9451 0.0000e+00
     -0.686     -0.082    12.1564     98.605      7.677   4.911804    -0.0963      8.057   241.6424 1.4043e+03     5.4321     -0.676     -0.980     6.9637 0.0000e+00
     -0.687     -0.042    12.1279     97.934      6.197   3.964176    -0.0978      8.057   241.8153 1.2653e+03     5.2761     -0.672     -0.976     6.9791 0.0000e+00
     -0.687     -0.016    12.0959     97.346      5.698   3.645034    -0.0849      8.058   242.2879 1.1959e+03     3.8936     -0.673     -0.977     6.9858 0.0000e+00
     -0.687     -0.003    12.0515     96.873      5.509   3.523823    -0.0651      8.059   243.1407 1.1659e+03     1.4231     -0.672     -0.976     6.9871 0.0000e+00
     -0.686     -0.000    11.9807     96.432      5.788   3.702284    -0.0669      8.059   243.7809 1.1422e+03     0.0354     -0.674     -0.977     6.9860 0.0000e+00
     -0.686     -0.000    11.8844     95.970      6.299   4.028952    -0.0901      8.060   244.0056 1.1259e+03    -0.2117     -0.673     -0.975     6.9844 0.0000e+00
     -0.686     -0.001    11.8167     95.494      6.039   3.862474    -0.0876      8.063   244.0513 1.0788e+03    -0.2671     -0.673     -0.976     6.9834 0.0000e+00
     -0.687     -0.001    11.7620     95.001      4.920   3.146472    -0.0777      8.065   243.9032 9.8359e+02    -0.2243     -0.674     -0.977     6.9824 0.0000e+00
     -0.687     -0.001    11.7148     94.742      4.254   2.720490    -0.0797      8.065   243.7628 8.9574e+02    -0.2066     -0.673     -0.977     6.9811 0.0000e+00
     -0.687 -9.990e-29    11.6532 -9.990e-29 -9.990e-29 -9.990e-29 -9.990e-29 -9.990e-29 -9.990e-29 8.6755e+02 -9.990e-29     -0.674     -0.977     6.9785 0.0000e+00
     -0.687 -9.990e-29    11.6022 -9.990e-29 -9.990e-29 -9.990e-29 -9.990e-29 -9.990e-29 -9.990e-29 8.9018e+02 -9.990e-29     -0.674     -0.978     6.9762 0.0000e+00
     -0.687 -9.990e-29    11.5364 -9.990e-29 -9.990e-29 -9.990e-29 -9.990e-29 -9.990e-29 -9.990e-29 9.2215e+02 -9.990e-29     -0.674     -0.977     6.9728 0.0000e+00
     -0.687 -9.990e-29    11.4709 -9.990e-29 -9.990e-29 -9.990e-29 -9.990e-29 -9.990e-29 -9.990e-29 9.3498e+02 -9.990e-29     -0.673     -0.977     6.9698 0.0000e+00
