* Sea-Bird SBE19plus  Data File:
* FileName = C:\DATA\042318_fcr_0006.hex
* Software version 2.6.3.104 SB_Terminal.dll
* Temperature SN = 7809
* Conductivity SN = 7809
* System UpLoad Time = Apr 23 2018 14:26:40
* <ApplicationData>
* <Seaterm232>
* <SoftwareVersion>2.6.3.104</SoftwareVersion>
* <BuildDate>30-Jun-2017</BuildDate>
* </Seaterm232>
* </ApplicationData>
* cast   6 23 Apr 2018 18:07:14 samples 6342 to 7206, avg = 1, stop = mag switch
# nquan = 15
# nvalues = 770                         
# units = specified
# name 0 = depFM: Depth [fresh water, m]
# name 1 = dz/dtM: Descent Rate [m/s]
# name 2 = sbeox0Mg/L: Oxygen, SBE 43 [mg/l]
# name 3 = sbeox0PS: Oxygen, SBE 43 [% saturation]
# name 4 = specc: Specific Conductance [uS/cm]
# name 5 = c0uS/cm: Conductivity [uS/cm]
# name 6 = flECO-AFL: Fluorescence, WET Labs ECO-AFL/FL [mg/m^3]
# name 7 = ph: pH
# name 8 = orp: Oxidation Reduction Potential [mV]
# name 9 = par/sat/log: PAR/Logarithmic, Satlantic
# name 10 = turbWETntu0: Turbidity, WET Labs ECO [NTU]
# name 11 = prdM: Pressure, Strain Gauge [db]
# name 12 = prdE: Pressure, Strain Gauge [psi]
# name 13 = tv290C: Temperature [ITS-90, deg C]
# name 14 = flag:  0.000e+00
# span 0 =     -0.513,      9.790       
# span 1 =     -0.157,      0.264       
# span 2 =     6.4902,    10.8407       
# span 3 =     53.803,    104.356       
# span 4 =      0.536,     40.470       
# span 5 =   0.429838,  28.918265       
# span 6 =    -0.2158,     7.3773       
# span 7 =     -2.821,      7.821       
# span 8 = -1240.7455,   399.6452       
# span 9 = 1.6101e-01, 3.3078e+02       
# span 10 =    -0.3007,    19.6787      
# span 11 =     -0.503,      9.601      
# span 12 =     -0.730,     13.925      
# span 13 =     7.0886,    15.1696      
# span 14 = 0.0000e+00, 0.0000e+00      
# interval = seconds: 0.25
# start_time = Apr 23 2018 18:07:14 [Instrument's time stamp, header]
# bad_flag = -9.990e-29
# <Sensors count="9" >
#   <sensor Channel="1" >
#     <!-- Count, Temperature -->
#     <TemperatureSensor SensorID="58" >
#       <SerialNumber>7809</SerialNumber>
#       <CalibrationDate>09-Mar-18</CalibrationDate>
#       <A0>1.21093245e-003</A0>
#       <A1>2.84356597e-004</A1>
#       <A2>-1.94507398e-006</A2>
#       <A3>2.12806664e-007</A3>
#       <Slope>1.00000000</Slope>
#       <Offset>0.0000</Offset>
#     </TemperatureSensor>
#   </sensor>
#   <sensor Channel="2" >
#     <!-- Frequency 0, Conductivity -->
#     <ConductivitySensor SensorID="3" >
#       <SerialNumber>7809</SerialNumber>
#       <CalibrationDate>09-Mar-18</CalibrationDate>
#       <UseG_J>1</UseG_J>
#       <!-- Cell const and series R are applicable only for wide range sensors. -->
#       <SeriesR>0.0000</SeriesR>
#       <CellConst>2000.0000</CellConst>
#       <ConductivityType>0</ConductivityType>
#       <Coefficients equation="0" >
#         <A>0.00000000e+000</A>
#         <B>0.00000000e+000</B>
#         <C>0.00000000e+000</C>
#         <D>0.00000000e+000</D>
#         <M>0.0</M>
#         <CPcor>-9.57000000e-008</CPcor>
#       </Coefficients>
#       <Coefficients equation="1" >
#         <G>-1.00672082e+000</G>
#         <H>1.26906489e-001</H>
#         <I>-1.40584351e-004</I>
#         <J>2.47837121e-005</J>
#         <CPcor>-9.57000000e-008</CPcor>
#         <CTcor>3.2500e-006</CTcor>
#         <!-- WBOTC not applicable unless ConductivityType = 1. -->
#         <WBOTC>0.00000000e+000</WBOTC>
#       </Coefficients>
#       <Slope>1.00000000</Slope>
#       <Offset>0.00000</Offset>
#     </ConductivitySensor>
#   </sensor>
#   <sensor Channel="3" >
#     <!-- Count, Pressure, Strain Gauge -->
#     <PressureSensor SensorID="46" >
#       <SerialNumber>7809</SerialNumber>
#       <CalibrationDate>07-Mar-18</CalibrationDate>
#       <PA0>-4.08176359e-002</PA0>
#       <PA1>4.85188419e-004</PA1>
#       <PA2>-3.51168169e-012</PA2>
#       <PTEMPA0>-5.37806900e+001</PTEMPA0>
#       <PTEMPA1>5.36620721e+001</PTEMPA1>
#       <PTEMPA2>4.87214332e-002</PTEMPA2>
#       <PTCA0>5.25213435e+005</PTCA0>
#       <PTCA1>1.79532409e+000</PTCA1>
#       <PTCA2>-2.84353509e-001</PTCA2>
#       <PTCB0>2.51668750e+001</PTCB0>
#       <PTCB1>3.75000000e-004</PTCB1>
#       <PTCB2>0.00000000e+000</PTCB2>
#       <Offset>0.000000</Offset>
#     </PressureSensor>
#   </sensor>
#   <sensor Channel="4" >
#     <!-- A/D voltage 0, pH -->
#     <pH_Sensor SensorID="43" >
#       <SerialNumber>0363</SerialNumber>
#       <CalibrationDate>16-Mar-18</CalibrationDate>
#       <Slope>4.6194</Slope>
#       <Offset>2.5947</Offset>
#     </pH_Sensor>
#   </sensor>
#   <sensor Channel="5" >
#     <!-- A/D voltage 1, Oxidation Reduction Potential -->
#     <OxidationReductionPotentialSensor SensorID="41" >
#       <SerialNumber>0363</SerialNumber>
#       <CalibrationDate>16-Mar-18</CalibrationDate>
#       <B>2.499480</B>
#       <M>-0.496195</M>
#       <Offset>0.0</Offset>
#     </OxidationReductionPotentialSensor>
#   </sensor>
#   <sensor Channel="6" >
#     <!-- A/D voltage 2, Oxygen, SBE 43 -->
#     <OxygenSensor SensorID="38" >
#       <SerialNumber>0434</SerialNumber>
#       <CalibrationDate>13-Mar-18</CalibrationDate>
#       <Use2007Equation>1</Use2007Equation>
#       <CalibrationCoefficients equation="0" >
#         <!-- Coefficients for Owens-Millard equation. -->
#         <Boc>0.0000</Boc>
#         <Soc>0.0000e+000</Soc>
#         <offset>0.0000</offset>
#         <Pcor>0.00e+000</Pcor>
#         <Tcor>0.0000</Tcor>
#         <Tau>0.0</Tau>
#       </CalibrationCoefficients>
#       <CalibrationCoefficients equation="1" >
#         <!-- Coefficients for Sea-Bird equation - SBE calibration in 2007 and later. -->
#         <Soc>4.5718e-001</Soc>
#         <offset>-0.6113</offset>
#         <A>-4.0649e-003</A>
#         <B> 2.0945e-004</B>
#         <C>-3.3182e-006</C>
#         <D0> 2.5826e+000</D0>
#         <D1> 1.92634e-004</D1>
#         <D2>-4.64803e-002</D2>
#         <E> 3.6000e-002</E>
#         <Tau20> 1.2200</Tau20>
#         <H1>-3.3000e-002</H1>
#         <H2> 5.0000e+003</H2>
#         <H3> 1.4500e+003</H3>
#       </CalibrationCoefficients>
#     </OxygenSensor>
#   </sensor>
#   <sensor Channel="7" >
#     <!-- A/D voltage 3, PAR/Logarithmic, Satlantic -->
#     <PARLog_SatlanticSensor SensorID="76" >
#       <SerialNumber>1122</SerialNumber>
#       <CalibrationDate>22-Jun-2017</CalibrationDate>
#       <a0>9.6090e-001</a0>
#       <a1>8.0780e-001</a1>
#       <Im>1.3589e+000</Im>
#       <Multiplier>1.0000e+000</Multiplier>
#     </PARLog_SatlanticSensor>
#   </sensor>
#   <sensor Channel="8" >
#     <!-- A/D voltage 4, Fluorometer, WET Labs ECO-AFL/FL -->
#     <FluoroWetlabECO_AFL_FL_Sensor SensorID="20" >
#       <SerialNumber>FLNTURT-2496</SerialNumber>
#       <CalibrationDate>25-Jan-2017</CalibrationDate>
#       <ScaleFactor>5.30000000e+001</ScaleFactor>
#       <!-- Dark output -->
#       <Vblank>0.0560</Vblank>
#     </FluoroWetlabECO_AFL_FL_Sensor>
#   </sensor>
#   <sensor Channel="9" >
#     <!-- A/D voltage 5, Turbidity Meter, WET Labs, ECO-NTU -->
#     <TurbidityMeter SensorID="67" >
#       <SerialNumber>FLNTURT-2496</SerialNumber>
#       <CalibrationDate>25-Jan-2017</CalibrationDate>
#       <ScaleFactor>176.000000</ScaleFactor>
#       <!-- Dark output -->
#       <DarkVoltage>0.072000</DarkVoltage>
#     </TurbidityMeter>
#   </sensor>
# </Sensors>
# datcnv_date = May 08 2018 08:16:29, 7.26.7.114 [datcnv_vars = 14]
# datcnv_in = C:\DATA\042318_fcr50(2).hex C:\DATA\SBE19plusV2_7809.xmlcon
# datcnv_skipover = 0
# datcnv_ox_hysteresis_correction = yes
# datcnv_ox_tau_correction = yes
# filter_date = May 08 2018 08:16:55, 7.26.7.114
# filter_in = C:\DATA\042318_fcr50(2).cnv
# filter_low_pass_tc_A = 0.030
# filter_low_pass_tc_B = 0.150
# filter_low_pass_A_vars = prdM prdE tv290C
# filter_low_pass_B_vars = depFM dz/dtM sbeox0Mg/L sbeox0PS specc c0uS/cm flECO-AFL ph orp par/sat/log turbWETntu0
# alignctd_date = May 08 2018 08:17:15, 7.26.7.114
# alignctd_in = C:\DATA\042318_fcr50(2).cnv
# alignctd_adv = dz/dtM 1.000, sbeox0Mg/L 1.000, sbeox0PS 1.000, specc 1.000, c0uS/cm 1.000, flECO-AFL 1.000, ph 1.000, orp 1.000, turbWETntu0 1.000                                                                                 
# file_type = ascii
*END*
     -0.513 3.0491e-10     9.9416     98.875      0.568   0.456242    -0.2158     -2.804 -1240.7455 3.2486e+02    -0.2332     -0.503     -0.730    15.1341 0.0000e+00
     -0.513 3.3586e-09     9.9430     98.879      0.582   0.467657    -0.2147     -2.819 -1240.7455 3.3069e+02    -0.2782     -0.503     -0.729    15.1372 0.0000e+00
     -0.513 3.6947e-08     9.9453     98.886      0.597   0.478978    -0.1993     -2.820 -1240.7455 3.3078e+02    -0.2643     -0.503     -0.729    15.1392 0.0000e+00
     -0.513 4.0642e-07     9.9483     98.896      0.581   0.466306    -0.1855     -2.820 -1240.7455 3.2535e+02    -0.2179     -0.503     -0.730    15.1373 0.0000e+00
     -0.513      0.000     9.9516     98.913      0.550   0.441263    -0.1857     -2.821 -1240.7455 3.1957e+02    -0.2049     -0.503     -0.730    15.1337 0.0000e+00
     -0.513      0.000     9.9545     98.939      0.536   0.429838    -0.1929     -2.821 -1240.7455 3.2027e+02    -0.1979     -0.503     -0.730    15.1293 0.0000e+00
     -0.513      0.001     9.9547     98.948      0.567   0.454984    -0.1993     -2.821 -1240.7455 3.1954e+02    -0.1949     -0.503     -0.729    15.1232 0.0000e+00
     -0.513      0.001     9.9522     98.933      0.613   0.491659    -0.1981     -2.820 -1240.7455 3.0216e+02    -0.2303     -0.503     -0.729    15.1117 0.0000e+00
     -0.513      0.000     9.9516     98.939      0.614   0.492802    -0.1971     -2.820 -1240.7455 2.8290e+02    -0.2895     -0.503     -0.730    15.1017 0.0000e+00
     -0.512 1.8783e-08     9.9515     98.950      0.584   0.468799    -0.1962     -2.820 -1240.7455 2.8078e+02    -0.3007     -0.502     -0.728    15.1013 0.0000e+00
     -0.512 2.0661e-07     9.9480     98.930      0.566   0.455087    -0.1874     -2.820 -1240.7455 2.8829e+02    -0.2433     -0.502     -0.728    15.1054 0.0000e+00
     -0.512 2.4060e-07     9.9440     98.905      0.565   0.453841    -0.1916     -2.820 -1240.7455 2.9947e+02    -0.2055     -0.502     -0.729    15.1113 0.0000e+00
     -0.512 4.2978e-07     9.9413     98.893      0.565   0.453728    -0.2097     -2.819 -1240.7455 3.1659e+02    -0.2101     -0.502     -0.729    15.1173 0.0000e+00
     -0.513      0.000     9.9402     98.895      0.565   0.453724    -0.2051     -2.819 -1240.7452 3.2854e+02    -0.2078     -0.503     -0.729    15.1223 0.0000e+00
     -0.513      0.000     9.9412     98.917      0.565   0.453796    -0.1902     -2.819 -1240.7423 3.1379e+02    -0.2087     -0.503     -0.730    15.1288 0.0000e+00
     -0.512      0.001     9.9434     98.948      0.566   0.454595    -0.1948     -2.819 -1240.7104 2.6635e+02    -0.2212     -0.502     -0.729    15.1364 0.0000e+00
     -0.512      0.001     9.9445     98.968      0.577   0.463385    -0.2064     -2.816 -1240.3590 2.1574e+02    -0.2366     -0.501     -0.727    15.1437 0.0000e+00
     -0.512      0.001     9.9451     98.980      0.698   0.560076    -0.2109     -2.784 -1236.4937 1.9388e+02    -0.2416     -0.502     -0.728    15.1495 0.0000e+00
     -0.512      0.004     9.9474     98.994      2.025   1.623677    -0.2033     -2.433 -1193.9759 2.0057e+02    -0.2214     -0.502     -0.728    15.1550 0.0000e+00
     -0.511      0.015     9.9601     99.001      8.413   6.727890    -0.1964     -0.864  -726.2797 2.2253e+02    -0.2057     -0.501     -0.727    15.1597 0.0000e+00
     -0.511      0.043    10.0012     99.008     20.936  16.663733    -0.2011      1.996    67.6341 2.4835e+02    -0.2042     -0.501     -0.727    15.1640 0.0000e+00
     -0.510      0.084    10.0665     99.013     31.900  25.245050    -0.2050      4.648   399.6452 2.7040e+02    -0.2037     -0.502     -0.728    15.1664 0.0000e+00
     -0.500      0.133    10.1282     99.009     35.885  28.228389    -0.2069      6.267   359.1758 2.8922e+02    -0.1686     -0.501     -0.727    15.1696 0.0000e+00
     -0.463      0.178    10.1750     99.002     36.321  28.420496    -0.1967      7.141   345.8784 3.0511e+02     0.2806     -0.470     -0.682    15.1638 0.0000e+00
     -0.392      0.217    10.2117     99.010     36.435  28.393135     0.0190      7.572   334.8869 3.1238e+02     5.3196     -0.388     -0.563    14.9734 0.0000e+00
     -0.307      0.247    10.2399     99.044     36.554  28.405437     0.4264      7.761   328.6646 3.1213e+02    14.5833     -0.297     -0.431    14.5969 0.0000e+00
     -0.230      0.264    10.2652     99.149     36.662  28.442145     0.6482      7.821   325.9686 3.1117e+02    19.6352     -0.219     -0.317    14.3061 0.0000e+00
     -0.169      0.261    10.2965     99.380     36.710  28.455903     0.6789      7.806   322.5951 3.1286e+02    19.6787     -0.163     -0.236    14.1077 0.0000e+00
     -0.111      0.241    10.3327     99.696     36.710  28.444758     0.7614      7.749   319.6249 3.1710e+02    14.9567     -0.118     -0.171    13.9403 0.0000e+00
     -0.044      0.217    10.3764    100.101     36.704  28.434375     0.8919      7.691   317.9324 2.9792e+02     6.2735     -0.043     -0.061    13.8348 0.0000e+00
      0.020      0.194    10.4309    100.618     36.737  28.457360     0.9519      7.649   316.4998 2.5536e+02     1.5454      0.030      0.044    13.7753 0.0000e+00
      0.064      0.175    10.4775    101.063     36.754  28.468669     0.9536      7.622   315.2952 2.3205e+02     1.0953      0.067      0.096    13.7492 0.0000e+00
      0.096      0.159    10.4991    101.265     36.725  28.444098     0.9853      7.608   314.8111 2.1958e+02     1.0757      0.091      0.133    13.7374 0.0000e+00
      0.127      0.146    10.4872    101.145     36.689  28.414278     1.0408      7.594   314.7761 2.0318e+02     1.1857      0.127      0.184    13.7294 0.0000e+00
      0.158      0.138    10.4287    100.575     36.625  28.362123     1.0739      7.576   315.2175 1.9623e+02     1.2964      0.153      0.222    13.7271 0.0000e+00
      0.193      0.133    10.3182     99.491     36.580  28.321496     1.0818      7.556   315.7590 1.9136e+02     1.3154      0.182      0.263    13.7267 0.0000e+00
      0.236      0.126    10.1555     97.890     36.571  28.304065     1.0908      7.530   315.6449 1.8294e+02     1.2317      0.235      0.341    13.7214 0.0000e+00
      0.274      0.114     9.9439     95.808     36.557  28.278350     1.1085      7.505   315.2141 1.7499e+02     1.1091      0.273      0.397    13.7202 0.0000e+00
      0.303      0.097     9.6991     93.408     36.558  28.264574     1.1217      7.487   314.9382 1.6776e+02     1.0533      0.299      0.433    13.7199 0.0000e+00
      0.324      0.077     9.4537     91.012     36.573  28.264479     1.1303      7.478   314.8910 1.6421e+02     1.0454      0.321      0.467    13.7117 0.0000e+00
      0.338      0.056     9.2493     89.025     36.599  28.277179     1.1396      7.475   314.8155 1.6579e+02     1.0444      0.332      0.482    13.6965 0.0000e+00
      0.346      0.039     9.1076     87.653     36.622  28.291128     1.1422      7.474   314.3697 1.6690e+02     1.0415      0.340      0.492    13.6746 0.0000e+00
      0.352      0.025     9.0275     86.878     36.642  28.306125     1.1347      7.472   313.8024 1.6496e+02     1.0411      0.344      0.500    13.6521 0.0000e+00
      0.357      0.015     8.9997     86.611     36.675  28.331506     1.1308      7.470   313.3766 1.6480e+02     1.0697      0.351      0.510    13.6349 0.0000e+00
      0.360      0.007     9.0087     86.698     36.691  28.344008     1.1315      7.467   312.9215 1.6753e+02     1.0820      0.355      0.514    13.6260 0.0000e+00
      0.360      0.002     9.0353     86.955     36.672  28.330278     1.1246      7.465   312.6877 1.6856e+02     1.0673      0.353      0.512    13.6226 0.0000e+00
      0.358     -0.001     9.0589     87.186     36.622  28.292502     1.1214      7.463   312.9597 1.6904e+02     1.0455      0.352      0.509    13.6215 0.0000e+00
      0.356     -0.002     9.0624     87.227     36.587  28.268268     1.1295      7.456   313.1119 1.7103e+02     1.0318      0.349      0.506    13.6220 0.0000e+00
      0.354     -0.001     9.0399     87.024     36.610  28.291274     1.1397      7.440   312.8929 1.7118e+02     1.0537      0.347      0.503    13.6226 0.0000e+00
      0.354      0.000     8.9927     86.586     36.635  28.316673     1.1257      7.420   312.7212 1.6986e+02     1.0662      0.346      0.502    13.6230 0.0000e+00
      0.355      0.002     8.9256     85.954     36.633  28.321366     1.0892      7.408   312.6710 1.7037e+02     1.0610      0.347      0.503    13.6242 0.0000e+00
      0.356      0.003     8.8472     85.208     36.663  28.348016     1.0665      7.407   312.2859 1.7104e+02     1.0518      0.349      0.507    13.6277 0.0000e+00
      0.358      0.004     8.7719     84.487     36.709  28.384897     1.0616      7.411   311.5927 1.7093e+02     1.0469      0.351      0.511    13.6346 0.0000e+00
      0.359      0.004     8.7177     83.965     36.711  28.386284     1.0673      7.416   311.3443 1.7244e+02     1.0630      0.352      0.511    13.6443 0.0000e+00
      0.359      0.004     8.6952     83.749     36.683  28.364787     1.0802      7.419   311.4335 1.7394e+02     1.0630      0.352      0.511    13.6530 0.0000e+00
      0.360      0.003     8.7053     83.849     36.700  28.378984     1.0801      7.423   311.4665 1.7315e+02     1.0465      0.353      0.512    13.6579 0.0000e+00
      0.361      0.003     8.7445     84.228     36.766  28.430942     1.0742      7.430   311.4854 1.7278e+02     1.0466      0.353      0.512    13.6591 0.0000e+00
      0.362      0.004     8.8075     84.837     36.835  28.484988     1.0925      7.438   311.0596 1.7375e+02     1.0644      0.355      0.514    13.6591 0.0000e+00
      0.364      0.004     8.8866     85.599     36.885  28.524444     1.1257      7.448   310.4482 1.7351e+02     1.0786      0.357      0.518    13.6592 0.0000e+00
      0.365      0.004     8.9704     86.404     36.890  28.526995     1.1443      7.458   310.2013 1.7119e+02     1.0658      0.358      0.519    13.6601 0.0000e+00
      0.366      0.005     9.0444     87.114     36.876  28.515838     1.1434      7.466   309.9674 1.6801e+02     1.0620      0.358      0.519    13.6621 0.0000e+00
      0.367      0.008     9.0992     87.643     36.877  28.516546     1.1428      7.470   309.7717 1.6593e+02     1.0945      0.360      0.521    13.6638 0.0000e+00
      0.367      0.012     9.1381     88.021     36.900  28.535553     1.1468      7.470   309.7278 1.6583e+02     1.0924      0.360      0.522    13.6635 0.0000e+00
      0.368      0.014     9.1663     88.296     36.924  28.555143     1.1458      7.470   309.6089 1.6611e+02     1.0671      0.360      0.523    13.6614 0.0000e+00
      0.373      0.014     9.1848     88.469     36.937  28.562898     1.1393      7.470   309.0223 1.6320e+02     1.0631      0.364      0.527    13.6602 0.0000e+00
      0.382      0.010     9.1923     88.530     36.946  28.565827     1.1325      7.473   308.0562 1.5745e+02     1.0433      0.376      0.546    13.6600 0.0000e+00
      0.389      0.003     9.1886     88.487     36.899  28.527051     1.1375      7.480   307.6502 1.5332e+02     1.0415      0.384      0.556    13.6623 0.0000e+00
      0.391     -0.005     9.1763     88.364     36.834  28.475063     1.1442      7.486   307.8990 1.5363e+02     1.0723      0.383      0.557    13.6665 0.0000e+00
      0.386     -0.011     9.1569     88.170     36.799  28.445258     1.1402      7.488   308.1385 1.5673e+02     1.0794      0.382      0.554    13.6622 0.0000e+00
      0.374     -0.016     9.1281     87.884     36.772  28.420679     1.1353      7.488   308.3089 1.5778e+02     1.0665      0.367      0.532    13.6532 0.0000e+00
      0.364     -0.018     9.0871     87.482     36.790  28.431892     1.1310      7.488   308.4110 1.5713e+02     1.0685      0.354      0.513    13.6517 0.0000e+00
      0.360     -0.015     9.0321     86.948     36.821  28.453827     1.1338      7.488   308.2549 1.5705e+02     1.0733      0.353      0.512    13.6511 0.0000e+00
      0.360     -0.010     8.9688     86.337     36.793  28.431881     1.1410      7.487   308.0563 1.5615e+02     1.0640      0.353      0.513    13.6464 0.0000e+00
      0.360     -0.005     8.9043     85.717     36.778  28.420546     1.1355      7.486   307.9023 1.5559e+02     1.0467      0.353      0.512    13.6412 0.0000e+00
      0.360     -0.001     8.8441     85.138     36.807  28.443780     1.1315      7.485   307.7683 1.5700e+02     1.0474      0.353      0.513    13.6371 0.0000e+00
      0.360      0.000     8.7933     84.652     36.826  28.458791     1.1395      7.483   307.7276 1.5848e+02     1.0732      0.353      0.512    13.6344 0.0000e+00
      0.360      0.000     8.7562     84.300     36.845  28.475046     1.1396      7.482   307.6686 1.5774e+02     1.0840      0.353      0.512    13.6340 0.0000e+00
      0.360      0.001     8.7343     84.096     36.890  28.513311     1.1335      7.481   307.5705 1.5544e+02     1.0864      0.353      0.512    13.6347 0.0000e+00
      0.360      0.001     8.7215     83.982     36.920  28.540455     1.1474      7.479   307.4882 1.5466e+02     1.1022      0.353      0.512    13.6349 0.0000e+00
      0.360      0.001     8.7140     83.919     36.927  28.549236     1.1792      7.479   307.4478 1.5616e+02     1.1229      0.353      0.513    13.6358 0.0000e+00
      0.361      0.001     8.7114     83.900     36.933  28.555978     1.2061      7.479   307.3400 1.5791e+02     1.1232      0.354      0.513    13.6384 0.0000e+00
      0.361      0.000     8.7102     83.893     36.933  28.558473     1.2150      7.480   307.2172 1.5804e+02     1.0749      0.354      0.514    13.6428 0.0000e+00
      0.361 1.8626e-08     8.7079     83.876     36.958  28.579408     1.2223      7.482   307.2537 1.5729e+02     1.0273      0.354      0.513    13.6487 0.0000e+00
      0.361 2.0489e-07     8.7058     83.861     37.006  28.618607     1.2579      7.484   307.3510 1.5742e+02     1.0357      0.353      0.513    13.6537 0.0000e+00
      0.361 2.0489e-07     8.7045     83.854     37.045  28.651408     1.2879      7.485   307.4478 1.5773e+02     1.0536      0.354      0.513    13.6565 0.0000e+00
      0.361 1.8626e-08     8.7028     83.843     37.052  28.658503     1.2808      7.486   307.5628 1.5796e+02     1.0606      0.354      0.514    13.6587 0.0000e+00
      0.361 1.6933e-09     8.7007     83.828     37.027  28.640885     1.2642      7.485   307.7095 1.5836e+02     1.0910      0.354      0.513    13.6612 0.0000e+00
      0.361 1.5394e-10     8.6949     83.776     37.009  28.628897     1.2440      7.484   307.8450 1.5851e+02     1.1461      0.353      0.513    13.6644 0.0000e+00
      0.361 1.3994e-11     8.6802     83.639     37.022  28.640568     1.2197      7.482   307.9115 1.5824e+02     1.1469      0.354      0.513    13.6676 0.0000e+00
      0.361 1.2722e-12     8.6551     83.402     37.037  28.654991     1.2091      7.479   307.9100 1.5749e+02     1.0701      0.354      0.514    13.6704 0.0000e+00
      0.361 1.1565e-13     8.6199     83.068     37.062  28.676288     1.2080      7.478   307.9140 1.5686e+02     1.0418      0.353      0.513    13.6730 0.0000e+00
      0.361 1.0514e-14     8.5802     82.692     37.100  28.707567     1.2063      7.477   307.9591 1.5714e+02     1.1095      0.354      0.514    13.6753 0.0000e+00
      0.361 9.5585e-16     8.5394     82.305     37.107  28.715668     1.2075      7.476   307.9394 1.5798e+02     1.2175      0.354      0.513    13.6776 0.0000e+00
      0.361 8.6895e-17     8.4940     81.873     37.097  28.710745     1.2127      7.476   307.8474 1.5831e+02     1.2791      0.354      0.513    13.6801 0.0000e+00
      0.361 7.9049e-18     8.4472     81.426     37.096  28.711540     1.2138      7.476   307.7077 1.5763e+02     1.2746      0.354      0.513    13.6833 0.0000e+00
      0.361 7.7750e-19     8.4020     80.995     37.112  28.725292     1.2302      7.477   307.4544 1.5679e+02     1.2857      0.354      0.514    13.6870 0.0000e+00
      0.361 7.1817e-19     8.3562     80.557     37.142  28.750013     1.2638      7.477   307.1942 1.5656e+02     1.3212      0.354      0.514    13.6905 0.0000e+00
      0.361 7.1876e-18     8.3094     80.110     37.148  28.756425     1.2711      7.477   307.0562 1.5677e+02     1.3384      0.354      0.513    13.6935 0.0000e+00
      0.361 7.8999e-17     8.2622     79.658     37.124  28.739316     1.2632      7.476   306.9907 1.5712e+02     1.3105      0.354      0.513    13.6962 0.0000e+00
      0.361 8.6899e-16     8.2132     79.189     37.115  28.733656     1.2598      7.473   306.9189 1.5678e+02     1.2280      0.354      0.513    13.6984 0.0000e+00
      0.361 9.5589e-15     8.1655     78.732     37.135  28.751504     1.2671      7.466   306.7903 1.5638e+02     1.1338      0.354      0.513    13.7005 0.0000e+00
      0.361 1.0515e-13     8.1216     78.312     37.150  28.764611     1.2870      7.460   306.7265 1.5670e+02     1.0869      0.354      0.514    13.7023 0.0000e+00
      0.361 1.1566e-12     8.0778     77.895     37.149  28.765123     1.2892      7.459   306.8358 1.5730e+02     1.0891      0.354      0.513    13.7042 0.0000e+00
      0.361 1.2723e-11     8.0308     77.445     37.137  28.757694     1.2750      7.459   307.0790 1.5829e+02     1.0687      0.354      0.514    13.7062 0.0000e+00
      0.361 1.3995e-10     7.9830     76.988     37.110  28.738294     1.2713      7.459   307.2577 1.5914e+02     1.0232      0.354      0.514    13.7082 0.0000e+00
      0.361 1.5395e-09     7.9396     76.574     37.085  28.721071     1.2820      7.459   307.2757 1.5803e+02     1.0274      0.354      0.514    13.7101 0.0000e+00
      0.361 1.6934e-08     7.8996     76.193     37.107  28.739964     1.2847      7.459   307.2963 1.5646e+02     1.0587      0.354      0.514    13.7122 0.0000e+00
      0.362 1.8627e-07     7.8599     75.815     37.151  28.776223     1.2762      7.458   307.3349 1.5763e+02     1.0647      0.355      0.515    13.7146 0.0000e+00
      0.362 1.8627e-07     7.8206     75.440     37.151  28.778459     1.2901      7.455   307.3119 1.5870e+02     1.0693      0.355      0.515    13.7173 0.0000e+00
      0.361 1.6934e-08     7.7793     75.046     37.134  28.767014     1.3327      7.448   307.1904 1.5766e+02     1.0846      0.354      0.514    13.7199 0.0000e+00
      0.361 1.5395e-09     7.7352     74.625     37.129  28.764848     1.3592      7.438   307.0709 1.5693e+02     1.0972      0.354      0.514    13.7226 0.0000e+00
      0.361 1.3995e-10     7.6923     74.216     37.110  28.752263     1.3536      7.428   307.0716 1.5606e+02     1.0998      0.354      0.514    13.7254 0.0000e+00
      0.361 1.2723e-11     7.6500     73.812     37.094  28.741854     1.3382      7.421   307.1134 1.5513e+02     1.0849      0.354      0.514    13.7283 0.0000e+00
      0.361 1.1558e-12     7.6070     73.401     37.122  28.766014     1.3299      7.418   307.0598 1.5630e+02     1.0697      0.354      0.514    13.7310 0.0000e+00
      0.362 9.5590e-14     7.5677     73.026     37.152  28.790364     1.3356      7.418   306.8538 1.5807e+02     1.0682      0.355      0.515    13.7336 0.0000e+00
      0.362 -9.560e-14     7.5330     72.694     37.139  28.782264     1.3436      7.420   306.6011 1.5788e+02     1.0674      0.355      0.515    13.7363 0.0000e+00
      0.362 -1.156e-12     7.4982     72.363     37.153  28.795078     1.3427      7.421   306.4997 1.5612e+02     1.0595      0.355      0.515    13.7389 0.0000e+00
      0.361 -1.272e-11     7.4629     72.026     37.182  28.818294     1.3342      7.424   306.4885 1.5537e+02     1.0640      0.354      0.514    13.7415 0.0000e+00
      0.361 -1.400e-10     7.4306     71.718     37.167  28.808963     1.3323      7.426   306.3796 1.5642e+02     1.0917      0.354      0.514    13.7439 0.0000e+00
      0.361 -1.540e-09     7.3999     71.424     37.165  28.809268     1.3384      7.426   306.3010 1.5770e+02     1.1205      0.354      0.513    13.7462 0.0000e+00
      0.361 -1.694e-08     7.3690     71.129     37.180  28.821977     1.3343      7.422   306.3130 1.5775e+02     1.1067      0.354      0.513    13.7484 0.0000e+00
      0.361 -1.863e-07     7.3396     70.848     37.196  28.835624     1.3286      7.415   306.3528 1.5652e+02     1.0780      0.354      0.514    13.7507 0.0000e+00
      0.361 -1.863e-07     7.3115     70.580     37.209  28.847266     1.3343      7.408   306.4378 1.5606e+02     1.0777      0.354      0.514    13.7528 0.0000e+00
      0.361 -1.693e-08     7.2834     70.313     37.192  28.835738     1.3391      7.402   306.4803 1.5746e+02     1.0730      0.354      0.514    13.7549 0.0000e+00
      0.361 -1.539e-09     7.2548     70.040     37.173  28.823248     1.3223      7.398   306.5225 1.5866e+02     1.1120      0.354      0.514    13.7568 0.0000e+00
      0.361 -1.400e-10     7.2295     69.799     37.171  28.823258     1.2874      7.397   306.6894 1.5822e+02     1.2143      0.354      0.514    13.7588 0.0000e+00
      0.361 -1.272e-11     7.2060     69.576     37.185  28.835864     1.2659      7.397   306.7779 1.5713e+02     1.3022      0.354      0.514    13.7608 0.0000e+00
      0.361 -1.157e-12     7.1802     69.331     37.200  28.848660     1.2655      7.396   306.6458 1.5653e+02     1.3504      0.354      0.514    13.7631 0.0000e+00
      0.361 -1.052e-13     7.1545     69.086     37.200  28.850967     1.2729      7.396   306.5545 1.5743e+02     1.3391      0.354      0.514    13.7655 0.0000e+00
      0.362 -9.560e-15     7.1286     68.838     37.214  28.863762     1.2720      7.397   306.6211 1.5847e+02     1.2274      0.355      0.515    13.7678 0.0000e+00
      0.362 -8.690e-16     7.1012     68.578     37.228  28.876358     1.2642      7.398   306.6765 1.5793e+02     1.0682      0.355      0.515    13.7703 0.0000e+00
      0.362 -7.900e-17     7.0756     68.334     37.226  28.876264     1.2699      7.397   306.6217 1.5668e+02     1.0015      0.354      0.514    13.7726 0.0000e+00
      0.362 -7.180e-18     7.0525     68.114     37.206  28.862628     1.2773      7.396   306.5611 1.5543e+02     1.0312      0.355      0.515    13.7747 0.0000e+00
      0.362 -6.530e-19     7.0300     67.900     37.173  28.838495     1.2710      7.395   306.4601 1.5486e+02     1.0611      0.355      0.515    13.7771 0.0000e+00
      0.361 -5.935e-20     7.0090     67.700     37.171  28.838486     1.2676      7.396   306.3467 1.5582e+02     1.0581      0.354      0.514    13.7794 0.0000e+00
      0.361 -5.395e-21     6.9893     67.514     37.200  28.862514     1.2724      7.397   306.3955 1.5831e+02     1.0554      0.354      0.514    13.7816 0.0000e+00
      0.361 -4.865e-22     6.9693     67.323     37.215  28.875005     1.2737      7.397   306.3611 1.5950e+02     1.0592      0.354      0.514    13.7837 0.0000e+00
      0.361 -2.158e-27     6.9485     67.125     37.197  28.862513     1.2747      7.398   306.1890 1.5737e+02     1.0426      0.354      0.514    13.7859 0.0000e+00
      0.361 4.8647e-22     6.9287     66.935     37.164  28.838485     1.2745      7.400   306.2076 1.5495e+02     1.0379      0.354      0.514    13.7880 0.0000e+00
      0.362 5.3954e-21     6.9108     66.766     37.163  28.838495     1.2711      7.402   306.3277 1.5449e+02     1.0635      0.355      0.515    13.7899 0.0000e+00
      0.362 5.9353e-20     6.8936     66.602     37.193  28.862637     1.2713      7.404   306.3506 1.5577e+02     1.0776      0.355      0.515    13.7916 0.0000e+00
      0.362 6.5288e-19     6.8748     66.424     37.208  28.876377     1.2675      7.405   306.3984 1.5798e+02     1.0554      0.354      0.514    13.7934 0.0000e+00
      0.362 7.1817e-18     6.8545     66.230     37.208  28.877616     1.2621      7.406   306.4760 1.5889e+02     1.0399      0.355      0.515    13.7953 0.0000e+00
      0.362 7.8999e-17     6.8367     66.060     37.206  28.877626     1.2612      7.407   306.5143 1.5835e+02     1.0419      0.355      0.515    13.7972 0.0000e+00
      0.362 8.6899e-16     6.8222     65.923     37.202  28.876501     1.2560      7.407   306.6033 1.5762e+02     1.0498      0.355      0.515    13.7989 0.0000e+00
      0.362 9.5589e-15     6.8072     65.781     37.184  28.864010     1.2268      7.407   306.6915 1.5642e+02     1.0736      0.355      0.515    13.8009 0.0000e+00
      0.362 1.0515e-13     6.7916     65.634     37.168  28.853610     1.1744      7.406   306.6341 1.5562e+02     1.0560      0.355      0.515    13.8028 0.0000e+00
      0.362 1.1566e-12     6.7770     65.495     37.198  28.877751     1.1374      7.405   306.5116 1.5669e+02     1.0204      0.355      0.515    13.8048 0.0000e+00
      0.362 1.2723e-11     6.7637     65.369     37.227  28.901892     1.1285      7.404   306.5011 1.5820e+02     1.0391      0.355      0.515    13.8069 0.0000e+00
      0.362 1.3995e-10     6.7523     65.262     37.212  28.891492     1.1318      7.403   306.5074 1.5811e+02     1.0378      0.355      0.515    13.8089 0.0000e+00
      0.362 1.5395e-09     6.7406     65.151     37.194  28.879009     1.1488      7.402   306.4153 1.5851e+02     1.0354      0.355      0.515    13.8108 0.0000e+00
      0.362 1.6934e-08     6.7268     65.020     37.191  28.877979     1.1785      7.402   306.4199 1.5994e+02     1.0709      0.355      0.515    13.8125 0.0000e+00
      0.363 1.8627e-07     6.7129     64.888     37.191  28.879030     1.1969      7.400   306.4777 1.6006e+02     1.0404      0.356      0.516    13.8144 0.0000e+00
      0.363 1.8627e-07     6.6988     64.754     37.206  28.891720     1.2050      7.397   306.3392 1.5989e+02     1.0015      0.356      0.516    13.8163 0.0000e+00
      0.362 1.6934e-08     6.6840     64.613     37.220  28.904410     1.2310      7.394   306.1227 1.6013e+02     1.0288      0.355      0.515    13.8181 0.0000e+00
      0.362 1.5371e-09     6.6707     64.488     37.220  28.905460     1.2633      7.391   306.0108 1.6017e+02     1.0645      0.355      0.515    13.8199 0.0000e+00
      0.362 1.1450e-10     6.6601     64.387     37.218  28.904410     1.2742      7.390   305.9321 1.5977e+02     1.0675      0.355      0.515    13.8215 0.0000e+00
      0.362 -1.400e-10     6.6510     64.301     37.200  28.891720     1.2709      7.392   305.8596 1.5942e+02     1.0343      0.356      0.516    13.8233 0.0000e+00
      0.362 -1.540e-09     6.6427     64.223     37.182  28.879030     1.2685      7.392   305.9081 1.6009e+02     1.0292      0.355      0.515    13.8250 0.0000e+00
      0.362 -1.694e-08     6.6352     64.153     37.179  28.877990     1.2730      7.392   306.0893 1.6103e+02     1.0673      0.355      0.515    13.8266 0.0000e+00
      0.362 -1.863e-07     6.6275     64.081     37.179  28.879135     1.2697      7.393   306.2429 1.6108e+02     1.0974      0.355      0.515    13.8282 0.0000e+00
      0.362 -1.863e-07     6.6176     63.988     37.195  28.892875     1.2658      7.393   306.3023 1.5948e+02     1.1189      0.354      0.514    13.8296 0.0000e+00
      0.362 -1.693e-08     6.6063     63.881     37.225  28.917120     1.2636      7.394   306.2916 1.5773e+02     1.1444      0.355      0.515    13.8312 0.0000e+00
      0.362 -1.539e-09     6.5949     63.773     37.225  28.918265     1.2418      7.394   306.2853 1.5760e+02     1.1311      0.355      0.515    13.8328 0.0000e+00
      0.362 -1.400e-10     6.5836     63.665     37.208  28.906729     1.2143      7.393   306.3123 1.5840e+02     1.0798      0.355      0.515    13.8344 0.0000e+00
      0.362 -1.272e-11     6.5744     63.579     37.204  28.904648     1.1978      7.391   306.3608 1.5912e+02     1.0729      0.355      0.515    13.8361 0.0000e+00
      0.362 -1.157e-12     6.5669     63.509     37.188  28.893102     1.1979      7.390   306.4410 1.5883e+02     1.1092      0.355      0.515    13.8377 0.0000e+00
      0.362 -1.052e-13     6.5594     63.438     37.188  28.894134     1.2067      7.390   306.4211 1.5872e+02     1.1219      0.355      0.515    13.8393 0.0000e+00
      0.362 -9.560e-15     6.5531     63.380     37.216  28.917121     1.2127      7.390   306.3789 1.6027e+02     1.1040      0.354      0.514    13.8409 0.0000e+00
      0.362 -8.690e-16     6.5488     63.340     37.214  28.917026     1.2143      7.390   306.4467 1.6195e+02     1.0763      0.355      0.515    13.8426 0.0000e+00
      0.362 -7.900e-17     6.5443     63.298     37.182  28.892988     1.2169      7.390   306.4674 1.6296e+02     1.0609      0.355      0.516    13.8439 0.0000e+00
      0.362 -7.180e-18     6.5378     63.237     37.164  28.880494     1.2170      7.389   306.3705 1.6321e+02     1.0713      0.355      0.515    13.8456 0.0000e+00
      0.362 -6.530e-19     6.5306     63.169     37.179  28.892979     1.2067      7.389   306.3070 1.6195e+02     1.0799      0.355      0.515    13.8471 0.0000e+00
      0.362 -5.935e-20     6.5234     63.101     37.209  28.916928     1.1930      7.391   306.3023 1.6097e+02     1.0731      0.355      0.515    13.8484 0.0000e+00
      0.362 -5.395e-21     6.5161     63.032     37.207  28.916058     1.1897      7.394   306.2272 1.6196e+02     1.0809      0.355      0.515    13.8503 0.0000e+00
      0.362 -4.905e-22     6.5086     62.962     37.162  28.882458     1.2317      7.395   306.0875 1.6382e+02     1.1433      0.355      0.515    13.8517 0.0000e+00
      0.361 -4.459e-23     6.4986     62.864     37.011  28.764681     1.3052      7.395   306.0770 1.6430e+02     1.2488      0.354      0.514    13.8530 0.0000e+00
      0.361 -4.054e-24     6.4902     62.766     36.774  28.571563     1.3431      7.397   306.1859 1.6214e+02     1.3185      0.354      0.514    13.8541 0.0000e+00
      0.361 -3.686e-25     6.4987     62.793     36.659  28.452541     1.3411      7.399   306.1988 1.5993e+02     1.3144      0.354      0.514    13.8555 0.0000e+00
      0.362 -3.351e-26     6.5652     63.351     36.654  28.405084     1.3169      7.400   306.1472 1.6033e+02     1.2298      0.355      0.515    13.8565 0.0000e+00
      0.362 -3.046e-27     6.7656     65.210     36.669  28.378725     1.2901      7.400   306.1647 1.6226e+02     1.1189      0.355      0.515    13.8586 0.0000e+00
      0.362 -2.769e-28     7.1580     68.943     36.711  28.387790     1.2831      7.399   306.2387 1.6371e+02     1.0722      0.355      0.515    13.8565 0.0000e+00
      0.362 -2.517e-29     7.7207     74.333     36.729  28.387669     1.2780      7.398   306.3522 1.6431e+02     1.0625      0.355      0.515    13.8129 0.0000e+00
      0.361 -2.289e-30     8.3724     80.592     36.724  28.377249     1.2647      7.397   306.5043 1.6405e+02     1.0630      0.354      0.514    13.7369 0.0000e+00
      0.361 -2.080e-31     9.0389     87.001     36.742  28.388794     1.2610      7.397   306.6151 1.6245e+02     1.0776      0.354      0.514    13.6839 0.0000e+00
      0.361 -1.891e-32     9.6595     92.974     36.757  28.400254     1.2705      7.396   306.6603 1.6054e+02     1.0871      0.354      0.514    13.6559 0.0000e+00
      0.361 -1.719e-33    10.1741     97.930     36.741  28.388803     1.2770      7.394   306.7066 1.6016e+02     1.0856      0.355      0.515    13.6389 0.0000e+00
      0.361 -1.563e-34    10.5441    101.495     36.725  28.377350     1.2762      7.391   306.7449 1.6213e+02     1.0898      0.354      0.514    13.6305 0.0000e+00
      0.361 -1.421e-35    10.7607    103.585     36.738  28.388780     1.2692      7.391   306.6927 1.6403e+02     1.1082      0.354      0.514    13.6274 0.0000e+00
      0.361 -1.292e-36    10.8407    104.356     36.752  28.400004     1.2661      7.391   306.5920 1.6340e+02     1.0946      0.354      0.514    13.6281 0.0000e+00
      0.362 -1.174e-37    10.8218    104.173     36.735  28.386056     1.2753      7.391   306.5603 1.6230e+02     1.0466      0.355      0.515    13.6295 0.0000e+00
      0.362 -1.068e-38    10.7505    103.483     36.685  28.347132     1.2795      7.391   306.5668 1.6294e+02     1.0168      0.355      0.515    13.6316 0.0000e+00
      0.362 -9.705e-40    10.6592    102.601     36.639  28.310385     1.2618      7.390   306.5847 1.6516e+02     1.0385      0.355      0.515    13.6337 0.0000e+00
      0.361 -8.825e-41    10.5638    101.681     36.655  28.322752     1.2264      7.390   306.6046 1.6745e+02     1.0646      0.354      0.514    13.6345 0.0000e+00
      0.361 -8.020e-42    10.4737    100.816     36.715  28.369660     1.2005      7.391   306.5488 1.6773e+02     1.0584      0.354      0.514    13.6339 0.0000e+00
      0.361 -7.290e-43    10.3907    100.028     36.711  28.369536     1.1974      7.391   306.5133 1.6657e+02     1.0552      0.354      0.514    13.6320 0.0000e+00
      0.361 -6.630e-44    10.3135     99.294     36.645  28.321251     1.2158      7.392   306.6046 1.6629e+02     1.0560      0.354      0.514    13.6306 0.0000e+00
      0.361 -6.025e-45    10.2465     98.651     36.608  28.293874     1.2487      7.393   306.7066 1.6681e+02     1.0690      0.354      0.514    13.6292 0.0000e+00
      0.361 -5.479e-46    10.1915     98.121     36.607  28.292520     1.2651      7.393   306.7140 1.6708e+02     1.0905      0.354      0.514    13.6299 0.0000e+00
      0.361 -4.853e-47    10.1450     97.670     36.624  28.304888     1.2578      7.393   306.6940 1.6597e+02     1.1013      0.354      0.514    13.6358 0.0000e+00
      0.361 9.4906e-48    10.1059     97.286     36.642  28.316413     1.2431      7.393   306.7237 1.6337e+02     1.1079      0.354      0.513    13.6405 0.0000e+00
      0.361 1.5379e-46    10.0759     96.986     36.632  28.304856     1.2247      7.392   306.8151 1.6347e+02     1.0794      0.354      0.513    13.6418 0.0000e+00
      0.361 1.6962e-45    10.0540     96.763     36.622  28.292157     1.2104      7.391   306.8521 1.6727e+02     1.0317      0.354      0.513    13.6414 0.0000e+00
      0.361 1.8658e-44    10.0380     96.596     36.624  28.289869     1.2084      7.391   306.8271 1.6914e+02     1.0492      0.354      0.514    13.6392 0.0000e+00
      0.361 2.0524e-43    10.0285     96.496     36.612  28.277180     1.2274      7.390   306.8570 1.6734e+02     1.0771      0.354      0.514    13.6361 0.0000e+00
      0.361 2.2576e-42    10.0232     96.443     36.598  28.265739     1.2569      7.388   306.8691 1.6495e+02     1.0647      0.354      0.514    13.6311 0.0000e+00
      0.361 2.4834e-41    10.0172     96.386     36.613  28.278533     1.2615      7.387   306.8881 1.6361e+02     1.0823      0.354      0.514    13.6242 0.0000e+00
      0.361 2.7317e-40    10.0102     96.321     36.647  28.304868     1.2550      7.384   307.0001 1.6320e+02     1.1073      0.354      0.514    13.6180 0.0000e+00
      0.361 3.0049e-39    10.0048     96.271     36.678  28.330154     1.2615      7.381   307.1048 1.6404e+02     1.0918      0.354      0.514    13.6138 0.0000e+00
      0.362 3.3054e-38    10.0010     96.238     36.677  28.330267     1.2673      7.379   307.1215 1.6590e+02     1.0776      0.355      0.515    13.6129 0.0000e+00
      0.362 3.6359e-37     9.9969     96.206     36.642  28.306231     1.2689      7.379   307.1164 1.6796e+02     1.0878      0.355      0.515    13.6145 0.0000e+00
      0.362 3.9995e-36     9.9895     96.147     36.620  28.293541     1.2726      7.378   307.0433 1.7016e+02     1.0929      0.355      0.515    13.6151 0.0000e+00
      0.361 4.3995e-35     9.9788     96.052     36.630  28.303846     1.2749      7.376   306.9255 1.7167e+02     1.0791      0.354      0.514    13.6157 0.0000e+00
      0.361 4.8394e-34     9.9678     95.947     36.630  28.303818     1.2692      7.376   306.8967 1.7120e+02     1.0738      0.354      0.514    13.6174 0.0000e+00
      0.362 5.3234e-33     9.9580     95.848     36.618  28.293208     1.2687      7.377   306.8665 1.6915e+02     1.0900      0.355      0.515    13.6210 0.0000e+00
      0.362 5.8557e-32     9.9495     95.761     36.633  28.302558     1.2771      7.379   306.8190 1.6784e+02     1.0919      0.355      0.515    13.6274 0.0000e+00
      0.361 6.4413e-31     9.9428     95.696     36.617  28.289866     1.2792      7.379   306.8382 1.6821e+02     1.0656      0.354      0.514    13.6325 0.0000e+00
      0.361 7.0854e-30     9.9387     95.658     36.586  28.266756     1.2666      7.379   306.8414 1.6819e+02     1.0465      0.354      0.513    13.6322 0.0000e+00
      0.362 7.7939e-29     9.9378     95.649     36.600  28.277147     1.2336      7.379   306.7719 1.6707e+02     1.0442      0.355      0.515    13.6284 0.0000e+00
      0.362 8.5733e-28     9.9383     95.655     36.614  28.288492     1.2022      7.379   306.7724 1.6677e+02     1.0375      0.355      0.515    13.6257 0.0000e+00
      0.362 9.4307e-27     9.9389     95.663     36.597  28.276928     1.1999      7.379   306.8470 1.6682e+02     1.0264      0.355      0.515    13.6258 0.0000e+00
      0.362 1.0374e-25     9.9401     95.673     36.582  28.264331     1.2154      7.378   306.8997 1.6618e+02     1.0014      0.355      0.514    13.6273 0.0000e+00
      0.362 1.1411e-24     9.9421     95.686     36.584  28.263176     1.2240      7.376   306.8928 1.6608e+02     0.9801      0.354      0.515    13.6265 0.0000e+00
      0.362 1.2552e-23     9.9421     95.681     36.585  28.262968     1.2208      7.373   306.8498 1.6758e+02     1.0131      0.355      0.516    13.6268 0.0000e+00
      0.362 1.3807e-22     9.9393     95.652     36.584  28.261813     1.2138      7.371   306.8958 1.6858e+02     1.0647      0.355      0.515    13.6302 0.0000e+00
      0.362 1.5188e-21     9.9384     95.646     36.568  28.249207     1.2221      7.369   307.0187 1.6775e+02     1.0547      0.355      0.515    13.6288 0.0000e+00
      0.362 1.6707e-20     9.9422     95.683     36.552  28.237547     1.2481      7.366   307.1312 1.6687e+02     1.0146      0.354      0.514    13.6244 0.0000e+00
      0.362 1.8378e-19     9.9490     95.748     36.566  28.247841     1.2706      7.361   307.1386 1.6718e+02     1.0061      0.355      0.515    13.6218 0.0000e+00
      0.362 2.0215e-18     9.9550     95.802     36.566  28.246676     1.2735      7.357   307.1075 1.6818e+02     1.0131      0.355      0.515    13.6209 0.0000e+00
      0.362 2.2237e-17     9.9586     95.831     36.539  28.223461     1.2736      7.354   307.0991 1.6680e+02     1.0385      0.355      0.515    13.6221 0.0000e+00
      0.362 2.4461e-16     9.9621     95.856     36.540  28.221142     1.3000      7.354   307.0372 1.6360e+02     1.0691      0.355      0.515    13.6234 0.0000e+00
      0.362 2.6907e-15     9.9663     95.886     36.541  28.218635     1.3260      7.354   307.0473 1.6291e+02     1.0780      0.355      0.515    13.6229 0.0000e+00
      0.362 2.9597e-14     9.9683     95.894     36.512  28.193140     1.3303      7.355   307.1354 1.6435e+02     1.0853      0.354      0.514    13.6214 0.0000e+00
      0.362 3.2557e-13     9.9671     95.874     36.482  28.166888     1.3340      7.356   307.1558 1.6529e+02     1.0967      0.355      0.515    13.6184 0.0000e+00
      0.362 3.5813e-12     9.9641     95.840     36.470  28.155227     1.3432      7.357   307.0355 1.6477e+02     1.0932      0.356      0.516    13.6138 0.0000e+00
      0.362 3.9394e-11     9.9591     95.791     36.501  28.179152     1.3404      7.358   306.8859 1.6316e+02     1.0427      0.355      0.516    13.6090 0.0000e+00
      0.362 4.3334e-10     9.9554     95.757     36.531  28.202149     1.3283      7.358   306.8089 1.6323e+02     1.0056      0.355      0.516    13.6039 0.0000e+00
      0.362 4.7667e-09     9.9565     95.768     36.501  28.179287     1.3339      7.358   306.7934 1.6530e+02     1.0401      0.356      0.516    13.5995 0.0000e+00
      0.362 5.2434e-08     9.9599     95.798     36.472  28.156729     1.3626      7.357   306.8708 1.6654e+02     1.0632      0.355      0.515    13.5969 0.0000e+00
      0.362 5.7677e-07     9.9630     95.822     36.509  28.183396     1.3902      7.356   306.8845 1.6670e+02     1.0409      0.355      0.515    13.5967 0.0000e+00
      0.362      0.000     9.9666     95.850     36.596  28.247717     1.3913      7.354   306.8728 1.6600e+02     1.0152      0.355      0.516    13.5979 0.0000e+00
      0.362      0.000     9.9686     95.866     36.665  28.299424     1.3767      7.352   306.9010 1.6527e+02     1.0272      0.355      0.516    13.5983 0.0000e+00
      0.362      0.001     9.9669     95.852     36.665  28.300577     1.3607      7.352   306.7099 1.6546e+02     1.0944      0.355      0.516    13.5974 0.0000e+00
      0.362      0.003     9.9627     95.818     36.611  28.261656     1.3356      7.350   306.3684 1.6578e+02     1.1262      0.355      0.515    13.5949 0.0000e+00
      0.362      0.008     9.9572     95.766     36.543  28.209836     1.3206      7.332   306.1274 1.6673e+02     1.0758      0.355      0.516    13.5901 0.0000e+00
      0.363      0.012     9.9528     95.714     36.512  28.182034     1.3269      7.300   306.1199 1.6736e+02     1.0339      0.356      0.516    13.5878 0.0000e+00
      0.366      0.015     9.9516     95.689     36.515  28.179509     1.3293      7.273   306.2764 1.6586e+02     1.0459      0.356      0.517    13.5898 0.0000e+00
      0.373      0.016     9.9534     95.698     36.518  28.179291     1.3214      7.261   306.3850 1.6323e+02     1.0699      0.364      0.530    13.5938 0.0000e+00
      0.381      0.015     9.9562     95.725     36.519  28.179406     1.3234      7.256   306.4874 1.6149e+02     1.0491      0.376      0.547    13.5971 0.0000e+00
      0.386      0.012     9.9585     95.749     36.520  28.180893     1.3354      7.254   306.4817 1.6220e+02     1.0082      0.380      0.552    13.5907 0.0000e+00
      0.388      0.003     9.9600     95.766     36.540  28.197278     1.3378      7.274   306.1435 1.6412e+02     1.0330      0.381      0.551    13.5809 0.0000e+00
      0.388     -0.013     9.9595     95.775     36.603  28.250510     1.3342      7.328   305.4957 1.6443e+02     1.1040      0.381      0.553    13.5784 0.0000e+00
      0.388     -0.037     9.9555     95.767     36.675  28.316516     1.3283      7.391   304.9306 1.6461e+02     1.1043      0.382      0.554    13.5786 0.0000e+00
      0.382     -0.066     9.9500     95.758     36.712  28.360359     1.3222      7.437   304.7314 1.6694e+02     1.0675      0.377      0.548    13.5798 0.0000e+00
      0.367     -0.096     9.9467     95.775     36.740  28.399623     1.3244      7.465   304.3776 1.7084e+02     1.0850      0.366      0.531    13.5798 0.0000e+00
      0.335     -0.125     9.9457     95.815     36.732  28.410260     1.3280      7.484   303.7504 1.7642e+02     1.1028      0.336      0.487    13.5838 0.0000e+00
      0.289     -0.147     9.9479     95.879     36.650  28.361997     1.3287      7.497   303.4292 1.8318e+02     1.1007      0.284      0.412    13.5995 0.0000e+00
      0.239     -0.157     9.9542     95.970     36.587  28.324107     1.3328      7.507   303.5046 1.9158e+02     1.0587      0.234      0.339    13.6220 0.0000e+00
      0.191     -0.153     9.9608     96.050     36.592  28.333144     1.3412      7.512   303.6291 2.0145e+02     1.0229      0.188      0.272    13.6462 0.0000e+00
      0.148     -0.138     9.9640     96.083     36.605  28.344271     1.3467      7.505   303.5582 2.1240e+02     1.0649      0.142      0.205    13.6701 0.0000e+00
      0.114     -0.118     9.9653     96.091     36.591  28.331636     1.3447      7.487   303.2507 2.1831e+02     1.0776      0.106      0.154    13.6920 0.0000e+00
      0.092     -0.099     9.9666     96.097     36.563  28.307378     1.3442      7.471   302.7500 2.2020e+02     1.0543      0.089      0.130    13.7071 0.0000e+00
      0.077     -0.084     9.9660     96.082     36.564  28.304973     1.3494      7.472   302.4941 2.3019e+02     1.0578      0.077      0.112    13.7139 0.0000e+00
      0.062     -0.072     9.9639     96.051     36.565  28.302560     1.3348      7.485   302.6530 2.4330e+02     1.0592      0.061      0.088    13.7141 0.0000e+00
      0.044     -0.065     9.9634     96.034     36.539  28.278200     1.2954      7.494   302.7777 2.5002e+02     1.0708      0.046      0.066    13.7109 0.0000e+00
      0.024     -0.060     9.9647     96.034     36.527  28.264431     1.2680      7.498   302.8822 2.4904e+02     1.0753      0.023      0.034    13.7071 0.0000e+00
      0.007     -0.057     9.9676     96.052     36.529  28.263074     1.2618      7.499   303.1430 2.4452e+02     1.0537      0.003      0.004    13.7034 0.0000e+00
     -0.004     -0.053     9.9718     96.083     36.532  28.261797     1.2481      7.494   303.0051 2.4115e+02     1.0535     -0.003     -0.005    13.6994 0.0000e+00
     -0.014     -0.052     9.9736     96.086     36.522  28.248984     1.2213      7.489   302.4203 2.3890e+02     1.0725     -0.013     -0.018    13.6922 0.0000e+00
     -0.025     -0.052     9.9715     96.048     36.512  28.235149     1.2047      7.493   302.0953 2.3915e+02     1.0699     -0.026     -0.037    13.6853 0.0000e+00
     -0.037     -0.056     9.9689     96.013     36.499  28.221514     1.2042      7.504   302.0866 2.4196e+02     1.0529     -0.035     -0.051    13.6822 0.0000e+00
     -0.051     -0.060     9.9661     95.983     36.486  28.211122     1.2238      7.515   302.4015 2.4421e+02     1.0799     -0.048     -0.069    13.6789 0.0000e+00
     -0.070     -0.060     9.9615     95.937     36.520  28.236503     1.2575      7.523   302.9770 2.4297e+02     1.1214     -0.067     -0.096    13.6710 0.0000e+00
     -0.091     -0.055     9.9565     95.882     36.572  28.274384     1.2811      7.529   303.0215 2.3994e+02     1.0979     -0.090     -0.130    13.6609 0.0000e+00
     -0.110     -0.048     9.9526     95.842     36.592  28.288134     1.2880      7.532   302.3384 2.3902e+02     1.0394     -0.111     -0.161    13.6552 0.0000e+00
     -0.121     -0.039     9.9505     95.828     36.573  28.275746     1.2769      7.533   301.6862 2.3868e+02     1.0247     -0.122     -0.176    13.6562 0.0000e+00
     -0.124     -0.033     9.9520     95.851     36.538  28.251616     1.2487      7.534   301.4165 2.3718e+02     1.0422     -0.123     -0.177    13.6565 0.0000e+00
     -0.124     -0.030     9.9558     95.891     36.534  28.250378     1.2131      7.536   301.4868 2.3631e+02     1.0379     -0.122     -0.176    13.6512 0.0000e+00
     -0.127     -0.030     9.9598     95.928     36.549  28.260779     1.1952      7.541   301.7621 2.3571e+02     1.0336     -0.123     -0.178    13.6483 0.0000e+00
     -0.136     -0.034     9.9653     95.979     36.536  28.250378     1.1979      7.545   301.9923 2.3467e+02     1.0511     -0.131     -0.190    13.6534 0.0000e+00
     -0.150     -0.039     9.9718     96.041     36.538  28.251628     1.1819      7.546   302.1185 2.3437e+02     1.0663     -0.147     -0.214    13.6591 0.0000e+00
     -0.165     -0.042     9.9785     96.105     36.570  28.275882     1.1484      7.544   301.9975 2.3400e+02     1.0650     -0.164     -0.237    13.6602 0.0000e+00
     -0.176     -0.042     9.9845     96.160     36.589  28.289622     1.1329      7.539   301.6470 2.3276e+02     1.0657     -0.173     -0.251    13.6582 0.0000e+00
     -0.185     -0.037     9.9893     96.204     36.591  28.290767     1.1320      7.530   301.4089 2.3058e+02     1.0752     -0.180     -0.263    13.6573 0.0000e+00
     -0.195     -0.032     9.9923     96.233     36.590  28.289726     1.1380      7.520   301.3553 2.2859e+02     1.0568     -0.192     -0.278    13.6582 0.0000e+00
     -0.204     -0.028     9.9917     96.230     36.572  28.277026     1.1503      7.511   301.3434 2.2733e+02     1.0272     -0.202     -0.292    13.6573 0.0000e+00
     -0.209     -0.025     9.9879     96.198     36.553  28.264221     1.1523      7.504   301.4372 2.2464e+02     1.0527     -0.206     -0.298    13.6558 0.0000e+00
     -0.212     -0.022     9.9811     96.136     36.549  28.261901     1.1438      7.500   301.6283 2.2172e+02     1.0903     -0.208     -0.300    13.6542 0.0000e+00
     -0.216     -0.018     9.9716     96.049     36.530  28.248982     1.1296      7.502   301.6753 2.1965e+02     1.0848     -0.210     -0.305    13.6536 0.0000e+00
     -0.223     -0.013     9.9633     95.973     36.510  28.235022     1.1006      7.508   301.6614 2.1865e+02     1.1083     -0.219     -0.317    13.6562 0.0000e+00
     -0.229     -0.008     9.9610     95.949     36.491  28.220115     1.0690      7.512   301.7181 2.1919e+02     1.1309     -0.226     -0.328    13.6591 0.0000e+00
     -0.231      0.000     9.9635     95.961     36.466  28.195745     1.0591      7.507   301.7591 2.2006e+02     1.0833     -0.228     -0.330    13.6599 0.0000e+00
     -0.231      0.011     9.9661     95.966     36.474  28.194364     1.0731      7.496   301.8990 2.2091e+02     1.0518     -0.228     -0.331    13.6621 0.0000e+00
     -0.228      0.022     9.9685     95.967     36.494  28.203401     1.0642      7.481   302.2908 2.2215e+02     1.0241     -0.226     -0.327    13.6650 0.0000e+00
     -0.219      0.032     9.9708     95.971     36.469  28.178001     1.0253      7.469   302.6247 2.2368e+02     0.9923     -0.216     -0.313    13.6652 0.0000e+00
     -0.206      0.037     9.9726     95.974     36.428  28.141246     1.0167      7.463   302.5812 2.2488e+02     1.0336     -0.203     -0.294    13.6586 0.0000e+00
     -0.193      0.040     9.9746     95.983     36.431  28.139996     1.0239      7.461   302.4530 2.2621e+02     1.0658     -0.189     -0.274    13.6471 0.0000e+00
     -0.181      0.041     9.9749     95.980     36.464  28.162887     1.0204      7.457   302.2793 2.2787e+02     1.0455     -0.177     -0.256    13.6378 0.0000e+00
     -0.171      0.044     9.9714     95.940     36.468  28.164013     1.0208      7.449   301.8575 2.2897e+02     1.0636     -0.167     -0.242    13.6286 0.0000e+00
     -0.165      0.049     9.9669     95.893     36.456  28.153610     1.0195      7.444   301.4824 2.2978e+02     1.1015     -0.162     -0.235    13.6208 0.0000e+00
     -0.157      0.056     9.9623     95.846     36.471  28.164115     1.0140      7.444   301.6154 2.3115e+02     1.1069     -0.156     -0.227    13.6169 0.0000e+00
     -0.143      0.063     9.9563     95.784     36.473  28.164021     1.0088      7.444   302.0038 2.3351e+02     1.0989     -0.143     -0.208    13.6142 0.0000e+00
     -0.122      0.069     9.9526     95.743     36.460  28.152465     1.0023      7.441   302.0486 2.3636e+02     1.0961     -0.122     -0.175    13.6112 0.0000e+00
     -0.096      0.073     9.9492     95.707     36.460  28.151395     1.0000      7.437   301.8135 2.3888e+02     1.1033     -0.092     -0.134    13.6092 0.0000e+00
     -0.073      0.076     9.9446     95.653     36.464  28.151077     1.0077      7.432   301.4844 2.4092e+02     1.0941     -0.069     -0.101    13.6088 0.0000e+00
     -0.056      0.077     9.9426     95.615     36.469  28.148622     1.0128      7.425   301.1669 2.4242e+02     1.0772     -0.054     -0.079    13.6072 0.0000e+00
     -0.042      0.078     9.9425     95.591     36.445  28.121698     1.0075      7.414   301.1575 2.4381e+02     1.0509     -0.041     -0.060    13.6045 0.0000e+00
     -0.026      0.079     9.9415     95.563     36.398  28.079534     0.9983      7.397   301.3701 2.4490e+02     1.0199     -0.027     -0.040    13.6028 0.0000e+00
     -0.005      0.079     9.9414     95.550     36.408  28.083314     1.0033      7.379   301.4151 2.4528e+02     1.0385     -0.007     -0.010    13.5998 0.0000e+00
      0.021      0.078     9.9440     95.570     36.438  28.103902     1.0311      7.374   301.3567 2.3400e+02     1.0629      0.020      0.029    13.5896 0.0000e+00
      0.048      0.075     9.9483     95.612     36.399  28.074456     1.0582      7.382   301.3528 2.1729e+02     1.0394      0.050      0.073    13.5765 0.0000e+00
      0.068      0.070     9.9528     95.661     36.358  28.044788     1.0734      7.397   301.3683 2.1548e+02     1.0291      0.070      0.103    13.5680 0.0000e+00
      0.078      0.067     9.9550     95.691     36.378  28.062686     1.0863      7.411   301.4582 2.1506e+02     1.0600      0.077      0.112    13.5627 0.0000e+00
      0.088      0.067     9.9552     95.700     36.423  28.100368     1.1042      7.419   301.5789 2.0771e+02     1.1385      0.085      0.122    13.5604 0.0000e+00
      0.103      0.072     9.9528     95.679     36.446  28.119393     1.1247      7.420   301.5369 2.0252e+02     1.2464      0.101      0.147    13.5607 0.0000e+00
      0.121      0.078     9.9462     95.614     36.425  28.102216     1.1317      7.418   301.3814 1.9606e+02     1.2957      0.117      0.171    13.5639 0.0000e+00
      0.143      0.083     9.9360     95.510     36.403  28.083182     1.1337      7.419   301.3326 1.8890e+02     1.3077      0.136      0.197    13.5688 0.0000e+00
      0.173      0.086     9.9229     95.380     36.400  28.079748     1.1488      7.426   301.4637 1.8709e+02     1.3307      0.170      0.248    13.5724 0.0000e+00
      0.201      0.086     9.9109     95.260     36.378  28.060698     1.1767      7.433   301.6760 1.8679e+02     1.3301      0.203      0.295    13.5736 0.0000e+00
      0.220      0.086     9.9041     95.183     36.361  28.043353     1.2049      7.438   301.8337 1.8464e+02     1.3000      0.218      0.317    13.5725 0.0000e+00
      0.235      0.085     9.9038     95.163     36.390  28.060528     1.2134      7.442   302.0802 1.8157e+02     1.2725      0.228      0.331    13.5692 0.0000e+00
      0.253      0.085     9.9095     95.203     36.420  28.077845     1.2150      7.444   302.4202 1.7828e+02     1.2720      0.246      0.356    13.5664 0.0000e+00
      0.276      0.087     9.9191     95.284     36.405  28.062232     1.2339      7.445   302.5886 1.7550e+02     1.2324      0.271      0.392    13.5665 0.0000e+00
      0.301      0.090     9.9294     95.377     36.408  28.062247     1.2583      7.445   302.6535 1.7179e+02     1.0996      0.294      0.427    13.5606 0.0000e+00
      0.328      0.092     9.9384     95.459     36.430  28.078019     1.2712      7.444   302.7744 1.6829e+02     1.0088      0.322      0.468    13.5507 0.0000e+00
      0.355      0.089     9.9447     95.518     36.410  28.062432     1.2791      7.442   302.9317 1.6683e+02     1.0196      0.351      0.509    13.5435 0.0000e+00
      0.376      0.085     9.9483     95.552     36.413  28.064284     1.3261      7.441   303.1790 1.6650e+02     1.0472      0.369      0.534    13.5386 0.0000e+00
      0.396      0.081     9.9505     95.572     36.460  28.100405     1.4081      7.439   303.4418 1.6609e+02     1.0680      0.388      0.563    13.5356 0.0000e+00
      0.415      0.079     9.9514     95.580     36.484  28.118167     1.4524      7.435   303.5279 1.6534e+02     1.0880      0.410      0.594    13.5341 0.0000e+00
      0.432      0.079     9.9503     95.568     36.445  28.088541     1.4569      7.433   303.5315 1.6378e+02     1.1052      0.423      0.613    13.5337 0.0000e+00
      0.450      0.080     9.9485     95.550     36.408  28.059691     1.4901      7.433   303.5717 1.6049e+02     1.0927      0.439      0.636    13.5332 0.0000e+00
      0.473      0.082     9.9482     95.546     36.444  28.086850     1.5600      7.433   303.5836 1.5693e+02     1.0590      0.463      0.672    13.5327 0.0000e+00
      0.497      0.082     9.9487     95.547     36.462  28.099421     1.5945      7.435   303.5893 1.5445e+02     1.0643      0.487      0.707    13.5323 0.0000e+00
      0.519      0.082     9.9488     95.546     36.443  28.084690     1.5952      7.436   303.8984 1.5223e+02     1.0961      0.510      0.740    13.5320 0.0000e+00
      0.540      0.081     9.9481     95.537     36.463  28.099236     1.6143      7.436   304.4824 1.5003e+02     1.1083      0.531      0.770    13.5316 0.0000e+00
      0.558      0.079     9.9451     95.506     36.445  28.084791     1.6409      7.434   304.7994 1.4804e+02     1.0892      0.548      0.794    13.5309 0.0000e+00
      0.577      0.074     9.9398     95.456     36.384  28.037036     1.6507      7.433   304.7195 1.4599e+02     1.0478      0.565      0.820    13.5297 0.0000e+00
      0.597      0.069     9.9326     95.388     36.374  28.029829     1.6499      7.433   304.4626 1.4343e+02     1.0356      0.585      0.849    13.5283 0.0000e+00
      0.617      0.065     9.9218     95.284     36.414  28.061160     1.6586      7.434   304.2755 1.4119e+02     1.0636      0.607      0.880    13.5268 0.0000e+00
      0.633      0.061     9.9094     95.163     36.464  28.098346     1.6920      7.437   304.6070 1.4028e+02     1.0809      0.624      0.905    13.5259 0.0000e+00
      0.645      0.059     9.9029     95.099     36.464  28.098436     1.7322      7.440   305.3739 1.3986e+02     1.0616      0.632      0.917    13.5264 0.0000e+00
      0.656      0.058     9.8987     95.058     36.417  28.062246     1.7397      7.440   305.8901 1.3884e+02     1.0438      0.642      0.931    13.5272 0.0000e+00
      0.670      0.059     9.8918     94.992     36.391  28.041784     1.7279      7.438   306.0306 1.3762e+02     1.0788      0.657      0.953    13.5271 0.0000e+00
      0.686      0.061     9.8905     94.978     36.391  28.041530     1.7276      7.436   305.8687 1.3668e+02     1.2109      0.672      0.975    13.5264 0.0000e+00
      0.703      0.063     9.8935     95.006     36.415  28.059172     1.7268      7.434   305.5676 1.3555e+02     1.3892      0.689      1.000    13.5258 0.0000e+00
      0.722      0.064     9.8960     95.029     36.422  28.064599     1.7176      7.431   305.4869 1.3434e+02     1.4644      0.709      1.028    13.5254 0.0000e+00
      0.740      0.061     9.9026     95.089     36.396  28.043644     1.7084      7.426   305.7535 1.3354e+02     1.4492      0.728      1.055    13.5250 0.0000e+00
      0.755      0.054     9.9122     95.178     36.418  28.059808     1.6892      7.422   306.2953 1.3279e+02     1.3585      0.741      1.075    13.5244 0.0000e+00
      0.770      0.048     9.9207     95.258     36.432  28.069533     1.6605      7.422   306.7028 1.3179e+02     1.1920      0.754      1.095    13.5241 0.0000e+00
      0.782      0.043     9.9309     95.355     36.387  28.034231     1.6461      7.424   306.8097 1.3115e+02     1.0842      0.769      1.115    13.5238 0.0000e+00
      0.788      0.043     9.9418     95.457     36.362  28.013967     1.6526      7.426   306.7273 1.3113e+02     1.0615      0.774      1.123    13.5221 0.0000e+00
      0.793      0.046     9.9477     95.512     36.364  28.015025     1.6754      7.426   306.5670 1.3116e+02     1.0703      0.775      1.125    13.5203 0.0000e+00
      0.803      0.052     9.9521     95.553     36.406  28.047021     1.7008      7.426   306.5055 1.3074e+02     1.0684      0.785      1.138    13.5199 0.0000e+00
      0.818      0.058     9.9571     95.599     36.454  28.083322     1.7108      7.425   306.5004 1.2982e+02     1.0384      0.800      1.160    13.5194 0.0000e+00
      0.838      0.064     9.9582     95.608     36.441  28.072944     1.7146      7.423   306.6771 1.2879e+02     1.0127      0.821      1.190    13.5180 0.0000e+00
      0.858      0.067     9.9547     95.574     36.410  28.048540     1.7192      7.422   307.0080 1.2780e+02     1.0025      0.843      1.221    13.5168 0.0000e+00
      0.878      0.065     9.9487     95.516     36.401  28.042257     1.7208      7.421   307.0585 1.2685e+02     1.0060      0.861      1.249    13.5166 0.0000e+00
      0.896      0.060     9.9420     95.451     36.425  28.060474     1.7241      7.422   306.9444 1.2600e+02     1.0248      0.880      1.276    13.5160 0.0000e+00
      0.910      0.056     9.9380     95.409     36.450  28.078289     1.7225      7.422   306.9190 1.2529e+02     1.0461      0.894      1.297    13.5147 0.0000e+00
      0.920      0.052     9.9381     95.404     36.438  28.067158     1.7200      7.419   306.6656 1.2467e+02     1.0505      0.903      1.310    13.5146 0.0000e+00
      0.929      0.049     9.9352     95.369     36.423  28.052893     1.7300      7.416   306.2034 1.2385e+02     1.0468      0.909      1.318    13.5150 0.0000e+00
      0.941      0.047     9.9287     95.300     36.400  28.032808     1.7335      7.416   306.1487 1.2265e+02     1.0627      0.920      1.334    13.5146 0.0000e+00
      0.956      0.046     9.9259     95.269     36.379  28.014809     1.7255      7.416   306.3487 1.2115e+02     1.0599      0.938      1.361    13.5135 0.0000e+00
      0.971      0.047     9.9245     95.253     36.394  28.025773     1.7251      7.416   306.2988 1.1973e+02     1.0439      0.955      1.385    13.5103 0.0000e+00
      0.981      0.048     9.9189     95.198     36.411  28.038367     1.7474      7.417   306.1475 1.1842e+02     1.1132      0.963      1.396    13.5056 0.0000e+00
      0.990      0.051     9.9110     95.122     36.414  28.040080     1.7833      7.417   306.1541 1.1700e+02     1.2253      0.969      1.405    13.5022 0.0000e+00
      1.002      0.055     9.9029     95.045     36.421  28.046481     1.8008      7.416   306.2926 1.1592e+02     1.2712      0.983      1.425    13.5007 0.0000e+00
      1.015      0.061     9.8940     94.960     36.428  28.052264     1.7941      7.413   306.3589 1.1506e+02     1.2715      0.994      1.441    13.5000 0.0000e+00
      1.030      0.067     9.8864     94.885     36.421  28.046508     1.7846      7.411   306.3532 1.1359e+02     1.2280      1.006      1.460    13.4991 0.0000e+00
      1.051      0.070     9.8824     94.846     36.414  28.040380     1.7873      7.409   306.3960 1.1160e+02     1.1424      1.030      1.494    13.4990 0.0000e+00
      1.076      0.069     9.8824     94.844     36.417  28.041671     1.7895      7.405   306.2741 1.0992e+02     1.0909      1.057      1.533    13.4999 0.0000e+00
      1.096      0.064     9.8854     94.870     36.444  28.062125     1.7842      7.400   305.9116 1.0879e+02     1.0638      1.077      1.561    13.4999 0.0000e+00
      1.112      0.056     9.8914     94.925     36.491  28.097176     1.7690      7.396   306.0566 1.0785e+02     1.0282      1.090      1.581    13.4993 0.0000e+00
      1.124      0.050     9.9003     95.008     36.476  28.084466     1.7437      7.396   306.7371 1.0704e+02     1.0258      1.104      1.600    13.4985 0.0000e+00
      1.132      0.047     9.9108     95.105     36.414  28.035449     1.7261      7.398   307.0846 1.0653e+02     1.0659      1.112      1.612    13.4976 0.0000e+00
      1.137      0.049     9.9200     95.185     36.388  28.012510     1.7221      7.399   307.1613 1.0581e+02     1.0864      1.113      1.614    13.4964 0.0000e+00
      1.146      0.054     9.9247     95.218     36.374  27.997612     1.7221      7.396   306.9758 1.0430e+02     1.0596      1.120      1.623    13.4948 0.0000e+00
      1.163      0.059     9.9264     95.221     36.360  27.982316     1.7263      7.389   306.3901 1.0254e+02     1.0461      1.139      1.652    13.4942 0.0000e+00
      1.185      0.063     9.9278     95.218     36.331  27.954561     1.7363      7.383   306.0155 1.0112e+02     1.0761      1.163      1.686    13.4933 0.0000e+00
      1.206      0.064     9.9270     95.183     36.294  27.916023     1.7418      7.379   306.4910 1.0009e+02     1.0873      1.185      1.717    13.4890 0.0000e+00
      1.222      0.062     9.9233     95.111     36.286  27.897343     1.7382      7.379   307.4935 9.9380e+01     1.0590      1.200      1.741    13.4827 0.0000e+00
      1.235      0.059     9.9198     95.044     36.246  27.855684     1.7204      7.381   307.9844 9.8700e+01     1.0394      1.211      1.756    13.4761 0.0000e+00
      1.247      0.057     9.9194     95.005     36.181  27.793311     1.6914      7.382   308.0375 9.8173e+01     1.0341      1.224      1.775    13.4712 0.0000e+00
      1.259      0.060     9.9262     95.015     36.186  27.778178     1.6724      7.381   307.8775 9.7878e+01     1.0254      1.235      1.791    13.4584 0.0000e+00
      1.273      0.066     9.9387     95.052     36.251  27.799697     1.6747      7.379   307.3401 9.7406e+01     1.0246      1.247      1.808    13.4355 0.0000e+00
      1.290      0.072     9.9545     95.102     36.296  27.799463     1.6825      7.376   307.0467 9.6670e+01     1.0548      1.263      1.832    13.4219 0.0000e+00
      1.311      0.075     9.9750     95.187     36.314  27.775304     1.6747      7.372   307.4272 9.5882e+01     1.1166      1.285      1.863    13.4102 0.0000e+00
      1.335      0.073     9.9995     95.319     36.341  27.761554     1.6540      7.364   308.0697 9.5066e+01     1.1306      1.309      1.899    13.3842 0.0000e+00
      1.359      0.067    10.0225     95.472     36.369  27.760167     1.6438      7.357   308.4482 9.4203e+01     1.0719      1.335      1.936    13.3443 0.0000e+00
      1.378      0.057    10.0365     95.588     36.375  27.758502     1.6704      7.355   308.3895 9.3638e+01     1.0173      1.355      1.966    13.2930 0.0000e+00
      1.390      0.050    10.0445     95.660     36.355  27.741414     1.7098      7.358   308.1354 9.3537e+01     1.0191      1.365      1.980    13.2403 0.0000e+00
      1.395      0.045    10.0508     95.682     36.291  27.680566     1.7247      7.362   308.0424 9.3591e+01     1.0639      1.369      1.985    13.1862 0.0000e+00
      1.398      0.044    10.0524     95.605     36.218  27.594276     1.7306      7.365   307.9533 9.3181e+01     1.0703      1.369      1.986    13.1502 0.0000e+00
      1.407      0.047    10.0479     95.435     36.183  27.523532     1.7175      7.369   307.8321 9.1867e+01     1.0656      1.376      1.996    13.1514 0.0000e+00
      1.423      0.052    10.0386     95.230     36.152  27.460145     1.6860      7.372   307.9542 9.0230e+01     1.0681      1.396      2.024    13.1572 0.0000e+00
      1.443      0.057    10.0252     95.017     36.111  27.399301     1.6801      7.372   308.1382 8.8934e+01     1.0398      1.417      2.055    13.1433 0.0000e+00
      1.459      0.059    10.0133     94.818     36.097  27.359321     1.6830      7.368   308.0786 8.7917e+01     1.0282      1.432      2.077    13.0986 0.0000e+00
      1.473      0.056    10.0064     94.664     36.134  27.357708     1.6653      7.363   307.8355 8.6806e+01     1.0492      1.443      2.093    13.0277 0.0000e+00
      1.487      0.049    10.0051     94.595     36.189  27.379773     1.6686      7.360   307.6089 8.5413e+01     1.0810      1.458      2.115    12.9670 0.0000e+00
      1.502      0.043    10.0127     94.647     36.188  27.372090     1.7045      7.362   307.4894 8.4206e+01     1.0773      1.476      2.141    12.9372 0.0000e+00
      1.512      0.042    10.0315     94.798     36.141  27.328303     1.7223      7.366   307.5084 8.3531e+01     1.0658      1.487      2.155    12.8980 0.0000e+00
      1.516      0.045    10.0602     94.993     36.131  27.294823     1.7188      7.366   307.5807 8.2984e+01     1.0940      1.488      2.157    12.8446 0.0000e+00
      1.520      0.048    10.0913     95.171     36.170  27.284753     1.6988      7.365   307.5892 8.1870e+01     1.1433      1.487      2.158    12.8186 0.0000e+00
      1.534      0.052    10.1190     95.325     36.199  27.269993     1.6742      7.364   307.5252 8.0062e+01     1.2048      1.500      2.175    12.8166 0.0000e+00
      1.555      0.057    10.1406     95.453     36.197  27.243314     1.6690      7.362   307.3235 7.8322e+01     1.2569      1.527      2.215    12.8156 0.0000e+00
      1.575      0.060    10.1519     95.515     36.181  27.216146     1.6639      7.362   307.0434 7.7169e+01     1.2858      1.548      2.246    12.7770 0.0000e+00
      1.590      0.060    10.1568     95.530     36.167  27.195489     1.6765      7.363   307.1498 7.6156e+01     1.2494      1.558      2.260    12.7106 0.0000e+00
      1.604      0.056    10.1578     95.499     36.169  27.184031     1.7109      7.366   307.4911 7.5094e+01     1.1527      1.574      2.282    12.6580 0.0000e+00
      1.619      0.053    10.1518     95.389     36.136  27.141096     1.7309      7.371   307.5562 7.4426e+01     1.0926      1.591      2.306    12.6234 0.0000e+00
      1.629      0.054    10.1423     95.234     36.055  27.057325     1.7344      7.375   307.5929 7.3953e+01     1.1017      1.597      2.317    12.6062 0.0000e+00
      1.639      0.059    10.1349     95.082     36.011  26.996603     1.7435      7.375   307.5054 7.3254e+01     1.1108      1.605      2.329    12.5960 0.0000e+00
      1.653      0.066    10.1294     94.925     36.033  26.978355     1.7672      7.375   307.1001 7.2331e+01     1.0805      1.620      2.350    12.5781 0.0000e+00
      1.671      0.071    10.1247     94.765     36.066  26.963641     1.7819      7.376   306.8230 7.1210e+01     1.0709      1.636      2.373    12.5522 0.0000e+00
      1.694      0.075    10.1228     94.640     36.091  26.945653     1.8022      7.376   307.4236 7.0000e+01     1.0869      1.659      2.407    12.5221 0.0000e+00
      1.719      0.076    10.1242     94.566     36.138  26.951311     1.9297      7.375   308.5970 6.8942e+01     1.0909      1.687      2.446    12.4854 0.0000e+00
      1.740      0.072    10.1300     94.562     36.187  26.968525     2.1381      7.371   309.0514 6.8115e+01     1.0876      1.709      2.478    12.4344 0.0000e+00
      1.757      0.064    10.1407     94.635     36.192  26.963263     2.2363      7.366   308.5302 6.7461e+01     1.0776      1.724      2.500    12.3763 0.0000e+00
      1.771      0.053    10.1540     94.751     36.180  26.951177     2.2350      7.363   307.6290 6.6901e+01     1.0624      1.736      2.518    12.3250 0.0000e+00
      1.785      0.044    10.1693     94.886     36.181  26.949387     2.2417      7.363   307.2759 6.6529e+01     1.0256      1.751      2.540    12.2818 0.0000e+00
      1.795      0.040    10.1843     95.014     36.176  26.941627     2.2167      7.365   308.0460 6.6558e+01     1.0296      1.763      2.557    12.2535 0.0000e+00
      1.799      0.044    10.1949     95.089     36.159  26.920838     2.1532      7.367   309.1970 6.6824e+01     1.1406      1.765      2.560    12.2440 0.0000e+00
      1.801      0.053    10.1985     95.084     36.132  26.888513     2.1263      7.367   309.6629 6.6851e+01     1.2697      1.764      2.559    12.2438 0.0000e+00
      1.811      0.063    10.1935     94.987     36.128  26.868250     2.1390      7.366   309.6355 6.6252e+01     1.3394      1.771      2.568    12.2410 0.0000e+00
      1.834      0.073    10.1835     94.836     36.151  26.866311     2.2244      7.365   309.4684 6.5073e+01     1.3419      1.795      2.603    12.2357 0.0000e+00
      1.864      0.080    10.1725     94.684     36.172  26.865042     2.3857      7.362   309.0189 6.3829e+01     1.3004      1.829      2.653    12.2258 0.0000e+00
      1.893      0.082    10.1599     94.526     36.175  26.852902     2.4813      7.357   308.5879 6.3017e+01     1.2946      1.859      2.697    12.2076 0.0000e+00
      1.914      0.075    10.1492     94.388     36.183  26.846499     2.4987      7.353   308.8184 6.2564e+01     1.3029      1.879      2.726    12.1834 0.0000e+00
      1.929      0.062    10.1436     94.313     36.200  26.851107     2.5042      7.352   309.4822 6.2084e+01     1.2787      1.892      2.744    12.1525 0.0000e+00
      1.944      0.048    10.1424     94.306     36.190  26.845113     2.5027      7.353   309.7306 6.1669e+01     1.2763      1.907      2.766    12.1299 0.0000e+00
      1.954      0.038    10.1473     94.365     36.174  26.837527     2.4986      7.356   309.5850 6.1534e+01     1.2742      1.919      2.783    12.1134 0.0000e+00
      1.959      0.034    10.1556     94.436     36.157  26.822887     2.5001      7.359   309.4415 6.1480e+01     1.2537      1.922      2.787    12.0929 0.0000e+00
      1.962      0.038    10.1634     94.484     36.130  26.795085     2.5023      7.360   309.2867 6.1240e+01     1.2414      1.923      2.789    12.0787 0.0000e+00
      1.968      0.046    10.1700     94.513     36.092  26.755351     2.4977      7.360   309.0051 6.0735e+01     1.2484      1.928      2.796    12.0835 0.0000e+00
      1.978      0.058    10.1746     94.505     36.072  26.723436     2.4902      7.358   308.9611 5.9982e+01     1.2763      1.938      2.811    12.0994 0.0000e+00
      1.997      0.072    10.1799     94.481     36.109  26.726669     2.4860      7.355   309.3574 5.8899e+01     1.3038      1.955      2.836    12.0929 0.0000e+00
      2.022      0.084    10.1874     94.467     36.152  26.730912     2.5103      7.353   309.7520 5.7603e+01     1.3072      1.983      2.876    12.0783 0.0000e+00
      2.049      0.090    10.1919     94.428     36.162  26.711216     2.5453      7.351   309.8614 5.6338e+01     1.2863      2.010      2.915    12.0672 0.0000e+00
      2.075      0.090    10.1927     94.365     36.151  26.678976     2.5508      7.346   309.8193 5.5127e+01     1.2656      2.034      2.950    12.0433 0.0000e+00
      2.100      0.082    10.1929     94.308     36.150  26.658563     2.5493      7.342   309.6734 5.3981e+01     1.2698      2.060      2.988    12.0080 0.0000e+00
      2.123      0.072    10.1905     94.251     36.161  26.654865     2.5550      7.340   309.5597 5.3025e+01     1.2753      2.083      3.021    11.9648 0.0000e+00
      2.141      0.065    10.1850     94.184     36.140  26.634255     2.5732      7.339   309.7360 5.2412e+01     1.2103      2.101      3.048    11.9274 0.0000e+00
      2.151      0.066    10.1802     94.097     36.113  26.599852     2.6048      7.338   309.9117 5.2141e+01     1.1248      2.112      3.063    11.8955 0.0000e+00
      2.157      0.071    10.1755     93.953     36.100  26.556363     2.6243      7.337   309.8766 5.1876e+01     1.0661      2.114      3.066    11.8648 0.0000e+00
      2.168      0.080    10.1678     93.753     36.068  26.489365     2.6521      7.335   309.9140 5.1096e+01     1.0505      2.118      3.072    11.8476 0.0000e+00
      2.193      0.093    10.1579     93.537     36.037  26.424695     2.8591      7.330   310.1056 4.9809e+01     1.1800      2.145      3.111    11.8506 0.0000e+00
      2.229      0.107    10.1460     93.308     36.072  26.409357     3.2335      7.325   310.2145 4.8649e+01     1.3802      2.189      3.174    11.8379 0.0000e+00
      2.261      0.115    10.1308     93.058     36.152  26.430865     3.4478      7.319   310.1987 4.7766e+01     1.4870      2.218      3.217    11.7832 0.0000e+00
      2.290      0.111    10.1142     92.819     36.191  26.430722     3.4834      7.314   310.2589 4.6670e+01     1.4955      2.242      3.252    11.7158 0.0000e+00
      2.323      0.099    10.1002     92.641     36.183  26.407594     3.5992      7.311   310.3401 4.5436e+01     1.4823      2.279      3.305    11.6597 0.0000e+00
      2.354      0.087    10.0918     92.540     36.192  26.405189     3.8007      7.311   310.4060 4.4647e+01     1.4802      2.314      3.356    11.6045 0.0000e+00
      2.372      0.082    10.0888     92.491     36.197  26.401636     3.9072      7.312   310.5400 4.4380e+01     1.4701      2.331      3.380    11.5476 0.0000e+00
      2.379      0.087    10.0914     92.463     36.170  26.364634     3.9122      7.311   310.6687 4.4244e+01     1.4525      2.333      3.383    11.5057 0.0000e+00
      2.388      0.096    10.0986     92.427     36.182  26.338752     3.8803      7.311   310.6722 4.3770e+01     1.4502      2.336      3.388    11.4838 0.0000e+00
      2.410      0.108    10.1051     92.359     36.247  26.342640     3.8244      7.311   310.7538 4.2662e+01     1.5028      2.356      3.417    11.4767 0.0000e+00
      2.449      0.119    10.1073     92.275     36.303  26.348094     3.7965      7.308   310.9676 4.1130e+01     1.5397      2.398      3.478    11.4719 0.0000e+00
      2.496      0.124    10.1049     92.192     36.322  26.341159     3.7823      7.305   310.9340 3.9744e+01     1.5002      2.451      3.555    11.4538 0.0000e+00
      2.536      0.123    10.0995     92.113     36.310  26.322267     3.7267      7.305   310.8635 3.8769e+01     1.4824      2.492      3.615    11.4012 0.0000e+00
      2.566      0.115    10.0955     92.062     36.300  26.310145     3.6568      7.305   310.8892 3.8097e+01     1.5075      2.519      3.654    11.3293 0.0000e+00
      2.588      0.106    10.0932     92.035     36.319  26.321585     3.6175      7.304   310.8150 3.7655e+01     1.4982      2.541      3.686    11.2780 0.0000e+00
      2.605      0.100    10.0901     92.002     36.337  26.333592     3.6003      7.301   310.8275 3.7230e+01     1.4614      2.554      3.704    11.2524 0.0000e+00
      2.623      0.099    10.0873     91.965     36.336  26.328325     3.5967      7.299   311.2112 3.6528e+01     1.4601      2.568      3.724    11.2415 0.0000e+00
      2.651      0.101    10.0855     91.925     36.337  26.321388     3.5824      7.297   311.7546 3.5569e+01     1.4820      2.597      3.767    11.2359 0.0000e+00
      2.685      0.104    10.0826     91.869     36.340  26.313201     3.5470      7.296   311.8910 3.4610e+01     1.5124      2.633      3.819    11.2330 0.0000e+00
      2.717      0.108    10.0773     91.786     36.329  26.292830     3.5276      7.294   311.8281 3.3855e+01     1.5222      2.667      3.869    11.2331 0.0000e+00
      2.743      0.112    10.0705     91.681     36.312  26.265546     3.5307      7.290   312.0268 3.3313e+01     1.4790      2.692      3.905    11.2288 0.0000e+00
      2.765      0.115    10.0659     91.583     36.299  26.237276     3.5390      7.285   312.2285 3.2744e+01     1.4480      2.709      3.930    11.2156 0.0000e+00
      2.790      0.118    10.0649     91.493     36.293  26.204984     3.5452      7.281   312.1161 3.2005e+01     1.4522      2.735      3.966    11.2012 0.0000e+00
      2.821      0.122    10.0634     91.377     36.325  26.192553     3.5414      7.279   312.0441 3.1155e+01     1.4685      2.765      4.010    11.1864 0.0000e+00
      2.856      0.122    10.0608     91.257     36.400  26.213917     3.5295      7.277   312.1326 3.0220e+01     1.4930      2.799      4.060    11.1655 0.0000e+00
      2.896      0.118    10.0592     91.176     36.425  26.209282     3.4937      7.273   312.0671 2.9344e+01     1.5037      2.841      4.121    11.1420 0.0000e+00
      2.931      0.109    10.0583     91.131     36.430  26.199981     3.4391      7.272   312.0271 2.8691e+01     1.5067      2.878      4.174    11.1052 0.0000e+00
      2.957      0.099    10.0596     91.126     36.477  26.228440     3.4119      7.270   312.0796 2.8259e+01     1.4987      2.903      4.210    11.0491 0.0000e+00
      2.976      0.092    10.0647     91.163     36.492  26.235891     3.4029      7.268   312.0987 2.7944e+01     1.4680      2.920      4.235    10.9994 0.0000e+00
      2.990      0.089    10.0702     91.208     36.482  26.226573     3.3948      7.266   312.1720 2.7604e+01     1.4713      2.931      4.252    10.9689 0.0000e+00
      3.005      0.090    10.0754     91.251     36.507  26.242768     3.3972      7.262   312.1917 2.7130e+01     1.5378      2.944      4.270    10.9533 0.0000e+00
      3.030      0.093    10.0835     91.317     36.508  26.241208     3.4041      7.259   311.9923 2.6509e+01     1.6014      2.969      4.304    10.9479 0.0000e+00
      3.061      0.096    10.0915     91.373     36.468  26.207712     3.4144      7.257   311.7406 2.5839e+01     1.5995      3.002      4.353    10.9446 0.0000e+00
      3.093      0.096    10.0961     91.388     36.496  26.218732     3.4200      7.256   311.6431 2.5269e+01     1.5451      3.035      4.402    10.9416 0.0000e+00
      3.119      0.091    10.0958     91.355     36.551  26.247456     3.4161      7.256   311.7604 2.4844e+01     1.5231      3.061      4.439    10.9402 0.0000e+00
      3.140      0.086    10.0962     91.329     36.551  26.237525     3.4139      7.256   312.2122 2.4506e+01     1.5477      3.080      4.467    10.9382 0.0000e+00
      3.157      0.085    10.1008     91.339     36.551  26.225630     3.4110      7.253   312.7184 2.4242e+01     1.5377      3.098      4.493    10.9313 0.0000e+00
      3.172      0.090    10.0993     91.281     36.579  26.230617     3.4090      7.248   312.6319 2.4047e+01     1.4933      3.112      4.513    10.9173 0.0000e+00
      3.188      0.100    10.0957     91.189     36.613  26.234310     3.4365      7.243   312.1133 2.3742e+01     1.4382      3.123      4.529    10.9011 0.0000e+00
      3.213      0.109    10.0985     91.149     36.605  26.206764     3.4945      7.241   311.7821 2.3154e+01     1.4205      3.145      4.561    10.8884 0.0000e+00
      3.252      0.116    10.0967     91.074     36.557  26.151511     3.5317      7.240   311.5528 2.2415e+01     1.4620      3.188      4.623    10.8747 0.0000e+00
      3.294      0.119    10.0878     90.939     36.564  26.137683     3.5372      7.238   311.4921 2.1818e+01     1.4830      3.236      4.692    10.8545 0.0000e+00
      3.327      0.116    10.0853     90.856     36.634  26.166547     3.5801      7.235   311.8219 2.1437e+01     1.4916      3.266      4.737    10.8257 0.0000e+00
      3.351      0.107    10.0884     90.825     36.686  26.183003     3.6726      7.231   312.0985 2.1129e+01     1.5049      3.286      4.765    10.7921 0.0000e+00
      3.375      0.097    10.0897     90.788     36.747  26.209636     3.7281      7.228   311.9112 2.0820e+01     1.4907      3.309      4.800    10.7644 0.0000e+00
      3.398      0.092    10.0898     90.745     36.803  26.234576     3.7271      7.227   311.4506 2.0568e+01     1.4729      3.334      4.836    10.7412 0.0000e+00
      3.417      0.093    10.0917     90.708     36.823  26.230549     3.7157      7.225   311.1755 2.0354e+01     1.4725      3.352      4.862    10.7113 0.0000e+00
      3.437      0.096    10.0991     90.697     36.853  26.224423     3.7099      7.223   311.1663 2.0013e+01     1.4864      3.367      4.884    10.6796 0.0000e+00
      3.462      0.099    10.1095     90.692     36.901  26.223978     3.7115      7.220   311.2529 1.9520e+01     1.5184      3.393      4.921    10.6590 0.0000e+00
      3.493      0.099    10.1161     90.655     36.950  26.225127     3.7264      7.218   311.3626 1.9048e+01     1.5244      3.427      4.971    10.6416 0.0000e+00
      3.523      0.097    10.1139     90.562     37.004  26.238276     3.8347      7.219   311.4601 1.8681e+01     1.4969      3.456      5.013    10.6184 0.0000e+00
      3.549      0.092    10.1072     90.459     37.050  26.255948     4.0197      7.219   311.4851 1.8398e+01     1.4913      3.481      5.049    10.5816 0.0000e+00
      3.570      0.085    10.1041     90.411     37.048  26.248287     4.1154      7.219   311.4070 1.8182e+01     1.4872      3.503      5.080    10.5292 0.0000e+00
      3.588      0.079    10.1055     90.414     36.998  26.209141     4.1270      7.218   311.2904 1.7967e+01     1.4787      3.519      5.103    10.4804 0.0000e+00
      3.606      0.077    10.1110     90.447     36.942  26.163604     4.1518      7.216   311.1930 1.7722e+01     1.4801      3.536      5.129    10.4455 0.0000e+00
      3.623      0.079    10.1201     90.500     36.926  26.142157     4.1946      7.213   311.0910 1.7477e+01     1.4731      3.553      5.153    10.4258 0.0000e+00
      3.642      0.082    10.1286     90.544     36.940  26.140312     4.2311      7.211   311.1755 1.7204e+01     1.4851      3.569      5.177    10.4196 0.0000e+00
      3.663      0.086    10.1341     90.560     36.957  26.141282     4.2526      7.209   311.5258 1.6887e+01     1.5344      3.591      5.208    10.4183 0.0000e+00
      3.688      0.090    10.1374     90.556     36.992  26.153861     4.2431      7.206   311.8843 1.6547e+01     1.5498      3.617      5.246    10.4119 0.0000e+00
      3.714      0.091    10.1406     90.546     37.027  26.165406     4.1906      7.203   312.0688 1.6220e+01     1.4885      3.643      5.284    10.3958 0.0000e+00
      3.738      0.088    10.1433     90.531     37.029  26.153863     4.1413      7.203   311.9505 1.5933e+01     1.4643      3.665      5.318    10.3793 0.0000e+00
      3.761      0.081    10.1428     90.501     37.024  26.141281     4.1252      7.203   311.7441 1.5652e+01     1.5014      3.687      5.349    10.3644 0.0000e+00
      3.783      0.075    10.1384     90.448     37.029  26.140257     4.1242      7.204   311.6384 1.5412e+01     1.5103      3.712      5.383    10.3499 0.0000e+00
      3.801      0.071    10.1330     90.385     37.039  26.141470     4.1288      7.204   311.5329 1.5284e+01     1.5112      3.730      5.410    10.3314 0.0000e+00
      3.813      0.070    10.1286     90.319     37.073  26.155943     4.1262      7.203   311.8448 1.5176e+01     1.4808      3.739      5.423    10.3095 0.0000e+00
      3.826      0.071    10.1237     90.240     37.136  26.188255     4.1209      7.201   312.4842 1.4976e+01     1.4483      3.749      5.437    10.2976 0.0000e+00
      3.844      0.075    10.1178     90.154     37.191  26.214650     4.1294      7.200   312.7257 1.4721e+01     1.4847      3.767      5.464    10.2942 0.0000e+00
      3.867      0.082    10.1103     90.047     37.220  26.221096     4.1916      7.200   312.7856 1.4470e+01     1.5232      3.792      5.499    10.2899 0.0000e+00
      3.890      0.090    10.1011     89.901     37.226  26.202684     4.3025      7.198   312.8638 1.4214e+01     1.5171      3.815      5.534    10.2759 0.0000e+00
      3.913      0.095    10.0915     89.728     37.242  26.182499     4.3671      7.196   312.6390 1.3945e+01     1.5021      3.837      5.565    10.2556 0.0000e+00
      3.938      0.095    10.0824     89.553     37.267  26.167482     4.3849      7.194   312.3047 1.3645e+01     1.4955      3.860      5.599    10.2414 0.0000e+00
      3.965      0.093    10.0720     89.382     37.279  26.148069     4.4805      7.193   312.7787 1.3352e+01     1.4369      3.888      5.640    10.2280 0.0000e+00
      3.992      0.089    10.0588     89.202     37.296  26.138235     4.6504      7.192   313.8103 1.3149e+01     1.3436      3.917      5.681    10.1969 0.0000e+00
      4.013      0.084    10.0457     89.044     37.280  26.112050     4.7391      7.191   314.1097 1.2990e+01     1.3129      3.938      5.711    10.1498 0.0000e+00
      4.032      0.079    10.0348     88.925     37.254  26.085435     4.7536      7.188   313.9887 1.2807e+01     1.3408      3.953      5.734    10.1033 0.0000e+00
      4.051      0.077    10.0263     88.828     37.244  26.070414     4.8069      7.185   313.8103 1.2633e+01     1.3443      3.973      5.762    10.0653 0.0000e+00
      4.069      0.079    10.0215     88.743     37.247  26.057411     4.8869      7.182   313.3288 1.2488e+01     1.2948      3.991      5.788    10.0354 0.0000e+00
      4.084      0.084    10.0194     88.667     37.273  26.055190     4.9218      7.179   313.0712 1.2333e+01     1.2609      4.004      5.808    10.0139 0.0000e+00
      4.104      0.090    10.0172     88.579     37.291  26.043532     4.9170      7.174   313.7932 1.2113e+01     1.2704      4.021      5.832    10.0070 0.0000e+00
      4.132      0.095    10.0142     88.474     37.331  26.043420     4.9209      7.168   315.0891 1.1821e+01     1.2875      4.051      5.876    10.0031 0.0000e+00
      4.163      0.100    10.0104     88.363     37.386  26.053811     5.0328      7.163   315.6624 1.1553e+01     1.2840      4.085      5.925     9.9801 0.0000e+00
      4.189      0.104    10.0045     88.249     37.401  26.042154     5.2413      7.160   315.5621 1.1354e+01     1.2589      4.109      5.960     9.9495 0.0000e+00
      4.214      0.104     9.9953     88.119     37.407  26.029437     5.3557      7.157   315.1669 1.1155e+01     1.2588      4.131      5.992     9.9203 0.0000e+00
      4.240      0.102     9.9807     87.951     37.424  26.027023     5.3678      7.153   314.5838 1.0930e+01     1.2833      4.157      6.029     9.8788 0.0000e+00
      4.267      0.101     9.9592     87.726     37.423  26.012953     5.3418      7.149   314.4485 1.0724e+01     1.2807      4.185      6.071     9.8387 0.0000e+00
      4.292      0.102     9.9323     87.451     37.404  25.986288     5.2808      7.146   315.1660 1.0543e+01     1.2571      4.210      6.106     9.8107 0.0000e+00
      4.317      0.104     9.9049     87.162     37.389  25.958582     5.2364      7.143   316.2900 1.0359e+01     1.2421      4.233      6.139     9.7880 0.0000e+00
      4.342      0.106     9.8777     86.867     37.380  25.931917     5.2283      7.141   316.7682 1.0161e+01     1.2526      4.257      6.174     9.7699 0.0000e+00
      4.370      0.107     9.8444     86.517     37.389  25.917837     5.2563      7.139   316.4738 9.9400e+00     1.2925      4.284      6.213     9.7539 0.0000e+00
      4.400      0.107     9.8099     86.157     37.415  25.915311     5.2987      7.137   316.1714 9.7343e+00     1.2961      4.316      6.260     9.7373 0.0000e+00
      4.428      0.106     9.7860     85.891     37.425  25.901354     5.3084      7.134   315.9513 9.5666e+00     1.2666      4.342      6.299     9.7139 0.0000e+00
      4.455      0.105     9.7706     85.705     37.415  25.876053     5.2912      7.132   315.6195 9.3876e+00     1.2714      4.368      6.335     9.6844 0.0000e+00
      4.481      0.105     9.7584     85.551     37.422  25.863356     5.2744      7.130   315.9452 9.2141e+00     1.2928      4.396      6.376     9.6576 0.0000e+00
      4.506      0.105     9.7493     85.422     37.465  25.874796     5.2621      7.127   316.8779 9.0498e+00     1.3115      4.419      6.409     9.6298 0.0000e+00
      4.530      0.105     9.7419     85.307     37.510  25.887372     5.2528      7.124   317.2602 8.8466e+00     1.3143      4.440      6.441     9.6009 0.0000e+00
      4.558      0.104     9.7368     85.221     37.534  25.888412     5.2538      7.123   317.2119 8.6240e+00     1.2968      4.468      6.480     9.5766 0.0000e+00
      4.588      0.101     9.7363     85.188     37.547  25.887353     5.3750      7.123   317.2402 8.4050e+00     1.3136      4.500      6.526     9.5539 0.0000e+00
      4.618      0.098     9.7377     85.171     37.544  25.874550     5.6069      7.121   317.0861 8.2486e+00     1.3346      4.534      6.575     9.5299 0.0000e+00
      4.641      0.095     9.7372     85.123     37.548  25.860593     5.7325      7.119   316.7252 8.1508e+00     1.2747      4.553      6.604     9.5034 0.0000e+00
      4.660      0.090     9.7371     85.065     37.557  25.845578     5.7448      7.117   316.6624 8.0243e+00     1.2006      4.567      6.625     9.4807 0.0000e+00
      4.682      0.088     9.7392     85.026     37.551  25.819962     5.7459      7.115   317.1015 7.8832e+00     1.2011      4.591      6.659     9.4705 0.0000e+00
      4.704      0.091     9.7418     84.997     37.557  25.804825     5.7454      7.111   317.6465 7.7492e+00     1.2807      4.614      6.692     9.4606 0.0000e+00
      4.725      0.097     9.7448     84.967     37.565  25.789533     5.7482      7.107   317.8317 7.6242e+00     1.4007      4.634      6.722     9.4361 0.0000e+00
      4.747      0.103     9.7472     84.917     37.562  25.762034     5.7517      7.104   317.6201 7.4867e+00     1.4612      4.653      6.749     9.4067 0.0000e+00
      4.775      0.106     9.7455     84.826     37.552  25.726280     5.7701      7.102   317.3250 7.2912e+00     1.4637      4.679      6.787     9.3765 0.0000e+00
      4.810      0.106     9.7412     84.712     37.518  25.674677     5.9794      7.102   317.1027 7.0853e+00     1.4307      4.718      6.842     9.3527 0.0000e+00
      4.843      0.104     9.7366     84.593     37.519  25.646018     6.3618      7.102   316.9973 6.9353e+00     1.3372      4.752      6.892     9.3286 0.0000e+00
      4.870      0.099     9.7315     84.455     37.552  25.633721     6.5613      7.103   316.9963 6.8383e+00     1.2792      4.778      6.930     9.2906 0.0000e+00
      4.890      0.091     9.7240     84.281     37.546  25.589453     6.5718      7.103   317.0052 6.7481e+00     1.2792      4.796      6.956     9.2513 0.0000e+00
      4.910      0.086     9.7125     84.081     37.551  25.555190     6.5812      7.102   317.1050 6.6372e+00     1.2761      4.814      6.982     9.2139 0.0000e+00
      4.930      0.086     9.6996     83.883     37.571  25.536873     6.6022      7.098   317.3423 6.5413e+00     1.3020      4.836      7.013     9.1782 0.0000e+00
      4.948      0.091     9.6851     83.670     37.557  25.494938     6.6227      7.094   317.4653 6.4595e+00     1.3179      4.852      7.037     9.1335 0.0000e+00
      4.968      0.098     9.6683     83.413     37.522  25.429078     6.6268      7.091   317.3873 6.3163e+00     1.2841      4.869      7.062     9.0725 0.0000e+00
      4.996      0.104     9.6514     83.099     37.536  25.375461     6.5965      7.087   317.4324 6.1182e+00     1.2600      4.897      7.103     9.0219 0.0000e+00
      5.028      0.107     9.6271     82.679     37.623  25.354536     6.5603      7.084   317.7526 5.9479e+00     1.2407      4.932      7.153     8.9833 0.0000e+00
      5.060      0.109     9.5886     82.160     37.652  25.302976     6.5568      7.079   318.2466 5.8048e+00     1.2335      4.963      7.198     8.9407 0.0000e+00
      5.090      0.113     9.5495     81.618     37.611  25.196434     6.5632      7.074   318.6741 5.6894e+00     1.2649      4.993      7.242     8.8950 0.0000e+00
      5.115      0.119     9.5197     80.998     37.651  25.082146     6.5637      7.066   318.7054 5.6198e+00     1.2842      5.018      7.278     8.8131 0.0000e+00
      5.136      0.126     9.4832     80.199     37.811  25.000351     6.5623      7.061   318.4522 5.5357e+00     1.2843      5.034      7.301     8.6826 0.0000e+00
      5.166      0.131     9.4284     79.316     38.012  24.969172     6.5553      7.058   318.2805 5.3796e+00     1.2968      5.060      7.339     8.5918 0.0000e+00
      5.208      0.133     9.3570     78.446     38.158  24.958967     6.5534      7.056   318.4359 5.1824e+00     1.2824      5.105      7.405     8.5356 0.0000e+00
      5.254      0.131     9.2661     77.533     38.221  24.940356     6.5761      7.056   318.7823 5.0273e+00     1.2622      5.156      7.477     8.3396 0.0000e+00
      5.293      0.124     9.1483     76.473     38.258  24.934564     6.7554      7.056   318.7695 4.9287e+00     1.3275      5.195      7.535     8.0371 0.0000e+00
      5.322      0.110     8.9988     75.195     38.303  24.952404     7.0761      7.055   318.5392 4.8551e+00     1.4310      5.221      7.573     7.8112 0.0000e+00
      5.343      0.091     8.8259     73.744     38.328  24.965565     7.2468      7.054   318.4922 4.7912e+00     1.4757      5.239      7.599     7.6836 0.0000e+00
      5.361      0.074     8.6423     72.208     38.331  24.966700     7.2567      7.054   318.2020 4.7277e+00     1.4716      5.258      7.626     7.6119 0.0000e+00
      5.378      0.064     8.4546     70.639     38.330  24.966132     7.2886      7.054   317.7837 4.6842e+00     1.4727      5.277      7.652     7.5766 0.0000e+00
      5.391      0.060     8.2662     69.068     38.316  24.958699     7.3472      7.052   318.2525 4.6629e+00     1.5206      5.287      7.669     7.5666 0.0000e+00
      5.401      0.064     8.0901     67.595     38.289  24.940325     7.3773      7.047   319.2245 4.6414e+00     1.5619      5.296      7.683     7.5667 0.0000e+00
      5.412      0.071     7.9485     66.401     38.288  24.934440     7.3772      7.042   319.5548 4.6010e+00     1.5453      5.305      7.694     7.5645 0.0000e+00
      5.430      0.080     7.8499     65.563     38.324  24.951031     7.3270      7.038   319.5794 4.5225e+00     1.5025      5.321      7.717     7.5640 0.0000e+00
      5.455      0.089     7.7893     65.047     38.331  24.950454     7.2385      7.035   319.6941 4.4261e+00     1.4711      5.350      7.759     7.5687 0.0000e+00
      5.484      0.095     7.7598     64.792     38.302  24.927452     7.1990      7.033   319.3923 4.3408e+00     1.5013      5.380      7.802     7.5693 0.0000e+00
      5.513      0.095     7.7568     64.759     38.307  24.926875     7.1988      7.030   318.8557 4.2544e+00     1.5325      5.407      7.842     7.5601 0.0000e+00
      5.540      0.090     7.7698     64.860     38.337  24.943476     7.1538      7.027   319.1428 4.1715e+00     1.4519      5.433      7.881     7.5494 0.0000e+00
      5.563      0.081     7.7876     65.004     38.332  24.937695     7.0681      7.026   320.1104 4.1157e+00     1.3203      5.457      7.916     7.5433 0.0000e+00
      5.581      0.073     7.8101     65.189     38.308  24.920465     7.0173      7.024   320.8327 4.0734e+00     1.2541      5.475      7.940     7.5389 0.0000e+00
      5.596      0.072     7.8341     65.386     38.318  24.925625     7.0088      7.019   321.3380 4.0375e+00     1.2611      5.489      7.961     7.5335 0.0000e+00
      5.607      0.077     7.8556     65.559     38.339  24.936592     7.0110      7.013   321.6590 4.0151e+00     1.2832      5.499      7.976     7.5295 0.0000e+00
      5.620      0.086     7.8741     65.706     38.329  24.926080     7.0250      7.006   321.4449 3.9737e+00     1.3379      5.507      7.987     7.5271 0.0000e+00
      5.643      0.096     7.8901     65.831     38.334  24.925503     7.0505      7.001   320.9867 3.8800e+00     1.4337      5.529      8.018     7.5248 0.0000e+00
      5.677      0.106     7.9066     65.954     38.351  24.929607     7.0614      6.997   321.1086 3.7558e+00     1.4655      5.567      8.073     7.5232 0.0000e+00
      5.713      0.112     7.9253     66.078     38.347  24.912197     7.0641      6.993   321.6276 3.6508e+00     1.4480      5.605      8.129     7.5195 0.0000e+00
      5.744      0.112     7.9415     66.166     38.371  24.905463     7.0928      6.990   321.8416 3.5817e+00     1.4656      5.635      8.171     7.5139 0.0000e+00
      5.771      0.104     7.9514     66.208     38.410  24.911656     7.1416      6.988   321.8032 3.5263e+00     1.4952      5.658      8.206     7.5098 0.0000e+00
      5.797      0.092     7.9559     66.227     38.441  24.923568     7.1864      6.987   321.5933 3.4757e+00     1.5012      5.687      8.248     7.5042 0.0000e+00
      5.821      0.081     7.9563     66.229     38.440  24.922500     7.2021      6.986   321.3688 3.4322e+00     1.5075      5.712      8.284     7.4855 0.0000e+00
      5.838      0.075     7.9524     66.206     38.398  24.898739     7.1559      6.983   321.3262 3.3907e+00     1.5101      5.726      8.305     7.4502 0.0000e+00
      5.851      0.074     7.9409     66.122     38.376  24.890248     7.0696      6.979   321.2503 3.3589e+00     1.5022      5.739      8.324     7.4214 0.0000e+00
      5.864      0.074     7.9228     65.983     38.356  24.883331     7.0136      6.977   321.2257 3.3274e+00     1.5042      5.749      8.338     7.4121 0.0000e+00
      5.883      0.076     7.9063     65.853     38.344  24.878598     7.0023      6.976   321.4583 3.2767e+00     1.5028      5.765      8.361     7.4135 0.0000e+00
      5.908      0.080     7.8913     65.728     38.371  24.896523     7.0348      6.975   321.6547 3.2073e+00     1.5465      5.794      8.404     7.4198 0.0000e+00
      5.934      0.085     7.8766     65.599     38.396  24.909584     7.0842      6.971   321.6207 3.1411e+00     1.6356      5.823      8.445     7.4281 0.0000e+00
      5.954      0.087     7.8646     65.483     38.408  24.909539     7.1031      6.968   321.5635 3.0958e+00     1.6956      5.839      8.469     7.4372 0.0000e+00
      5.973      0.086     7.8566     65.397     38.402  24.895963     7.1070      6.966   321.4795 3.0463e+00     1.7236      5.855      8.492     7.4408 0.0000e+00
      5.996      0.083     7.8509     65.335     38.376  24.872408     7.0123      6.965   321.2068 2.9903e+00     1.6678      5.881      8.529     7.4408 0.0000e+00
      6.020      0.083     7.8489     65.313     38.390  24.878706     6.8132      6.961   320.9343 2.9482e+00     1.5395      5.905      8.565     7.4389 0.0000e+00
      6.040      0.087     7.8524     65.343     38.435  24.908616     6.7029      6.955   321.0235 2.9007e+00     1.4855      5.924      8.592     7.4261 0.0000e+00
      6.058      0.092     7.8534     65.353     38.446  24.916582     6.6895      6.949   321.3393 2.8425e+00     1.5027      5.942      8.618     7.4113 0.0000e+00
      6.078      0.096     7.8503     65.331     38.435  24.911534     6.6884      6.946   321.3968 2.7867e+00     1.5024      5.958      8.642     7.4026 0.0000e+00
      6.105      0.100     7.8458     65.306     38.425  24.911069     6.7070      6.944   321.2027 2.7183e+00     1.5434      5.984      8.679     7.3993 0.0000e+00
      6.137      0.104     7.8416     65.287     38.414  24.910974     6.7399      6.942   320.9706 2.6429e+00     1.6319      6.020      8.731     7.4017 0.0000e+00
      6.167      0.105     7.8376     65.262     38.407  24.910388     6.7647      6.939   320.7425 2.5889e+00     1.6570      6.050      8.775     7.4028 0.0000e+00
      6.195      0.101     7.8330     65.223     38.398  24.903987     6.7583      6.937   320.5097 2.5443e+00     1.6637      6.075      8.811     7.4029 0.0000e+00
      6.220      0.094     7.8324     65.213     38.391  24.897070     6.6355      6.936   320.3922 2.4823e+00     1.7134      6.100      8.847     7.4113 0.0000e+00
      6.244      0.087     7.8353     65.235     38.382  24.890248     6.4285      6.934   320.6119 2.4162e+00     1.7389      6.125      8.883     7.4253 0.0000e+00
      6.265      0.087     7.8400     65.272     38.375  24.884992     6.3236      6.929   320.9293 2.3655e+00     1.7282      6.144      8.912     7.4304 0.0000e+00
      6.281      0.092     7.8486     65.339     38.397  24.897008     6.3141      6.924   320.9606 2.3172e+00     1.7057      6.160      8.933     7.4272 0.0000e+00
      6.297      0.098     7.8599     65.429     38.418  24.908550     6.2860      6.919   320.7322 2.2698e+00     1.7112      6.172      8.952     7.4237 0.0000e+00
      6.322      0.105     7.8716     65.521     38.405  24.897565     6.2312      6.916   320.4909 2.2182e+00     1.7335      6.194      8.985     7.4223 0.0000e+00
      6.357      0.109     7.8835     65.616     38.398  24.891164     6.1842      6.914   320.6244 2.1508e+00     1.7001      6.234      9.042     7.4218 0.0000e+00
      6.394      0.108     7.8930     65.692     38.406  24.894637     6.1600      6.912   320.8830 2.0842e+00     1.6751      6.272      9.097     7.4196 0.0000e+00
      6.426      0.100     7.8966     65.720     38.378  24.876063     6.1225      6.911   320.6926 2.0274e+00     1.7061      6.303      9.142     7.4162 0.0000e+00
      6.451      0.087     7.8937     65.696     38.349  24.857068     6.0512      6.911   320.4726 1.9941e+00     1.7387      6.331      9.181     7.4125 0.0000e+00
      6.470      0.075     7.8862     65.633     38.347  24.855446     6.0066      6.909   320.5469 1.9695e+00     1.7336      6.347      9.205     7.4097 0.0000e+00
      6.482      0.070     7.8763     65.548     38.350  24.856443     6.0059      6.906   320.5593 1.9400e+00     1.7042      6.358      9.222     7.4083 0.0000e+00
      6.490      0.070     7.8624     65.430     38.371  24.869127     6.0509      6.904   320.4502 1.9296e+00     1.7188      6.365      9.231     7.4072 0.0000e+00
      6.502      0.073     7.8469     65.299     38.392  24.881814     6.1279      6.903   320.6903 1.9123e+00     1.7582      6.370      9.238     7.4068 0.0000e+00
      6.526      0.079     7.8369     65.211     38.397  24.882864     6.1655      6.903   321.3108 1.8647e+00     1.7542      6.396      9.276     7.4069 0.0000e+00
      6.556      0.085     7.8305     65.153     38.400  24.881825     6.1740      6.903   321.6720 1.8172e+00     1.7310      6.434      9.330     7.4058 0.0000e+00
      6.582      0.090     7.8226     65.081     38.385  24.869241     6.1852      6.902   321.6170 1.7869e+00     1.7219      6.457      9.365     7.4046 0.0000e+00
      6.602      0.091     7.8177     65.031     38.374  24.857692     6.2097      6.901   321.1606 1.7580e+00     1.7353      6.474      9.389     7.4034 0.0000e+00
      6.622      0.087     7.8157     65.003     38.400  24.869175     6.2409      6.900   320.5417 1.7229e+00     1.7405      6.494      9.418     7.4004 0.0000e+00
      6.644      0.082     7.8103     64.948     38.427  24.881084     6.2491      6.899   320.3292 1.6919e+00     1.6930      6.514      9.449     7.3964 0.0000e+00
      6.668      0.080     7.8033     64.883     38.422  24.874692     6.2446      6.899   320.8282 1.6631e+00     1.6492      6.538      9.484     7.3934 0.0000e+00
      6.690      0.081     7.7980     64.832     38.397  24.855381     6.2606      6.897   321.7567 1.6443e+00     1.6694      6.563      9.519     7.3884 0.0000e+00
      6.707      0.084     7.7942     64.787     38.380  24.838066     6.2949      6.893   322.3501 1.6380e+00     1.6927      6.578      9.540     7.3795 0.0000e+00
      6.722      0.089     7.7906     64.736     38.423  24.855804     6.3106      6.890   322.4952 1.6213e+00     1.6559      6.588      9.555     7.3721 0.0000e+00
      6.743      0.094     7.7890     64.698     38.478  24.879365     6.3122      6.888   322.4797 1.5883e+00     1.6213      6.610      9.586     7.3692 0.0000e+00
      6.772      0.100     7.7868     64.658     38.478  24.868967     6.3874      6.885   322.4201 1.5484e+00     1.6411      6.641      9.632     7.3669 0.0000e+00
      6.802      0.106     7.7793     64.577     38.473  24.857057     6.5310      6.883   322.3772 1.5114e+00     1.6820      6.670      9.675     7.3588 0.0000e+00
      6.831      0.109     7.7727     64.503     38.495  24.862322     6.6145      6.881   322.3049 1.4689e+00     1.7190      6.698      9.715     7.3447 0.0000e+00
      6.860      0.108     7.7692     64.461     38.515  24.869137     6.6256      6.881   322.3214 1.4188e+00     1.7515      6.728      9.757     7.3269 0.0000e+00
      6.887      0.103     7.7607     64.385     38.531  24.875959     6.6006      6.881   322.5759 1.3865e+00     1.7705      6.755      9.797     7.3131 0.0000e+00
      6.913      0.100     7.7467     64.263     38.543  24.881310     6.5693      6.880   322.8876 1.3789e+00     1.7660      6.780      9.833     7.3036 0.0000e+00
      6.937      0.099     7.7317     64.132     38.531  24.870340     6.5684      6.878   323.0781 1.3737e+00     1.7276      6.805      9.869     7.2901 0.0000e+00
      6.959      0.100     7.7171     64.004     38.536  24.870299     6.5634      6.875   323.0724 1.3538e+00     1.6726      6.825      9.900     7.2809 0.0000e+00
      6.981      0.102     7.7037     63.884     38.559  24.880807     6.4716      6.871   322.9046 1.3203e+00     1.6502      6.844      9.926     7.2796 0.0000e+00
      7.008      0.104     7.6876     63.740     38.550  24.870409     6.3044      6.869   322.5976 1.2680e+00     1.6702      6.871      9.965     7.2767 0.0000e+00
      7.039      0.104     7.6690     63.578     38.558  24.871554     6.1956      6.868   322.2856 1.2225e+00     1.7009      6.903     10.012     7.2714 0.0000e+00
      7.069      0.104     7.6555     63.460     38.599  24.894650     6.1765      6.867   322.3163 1.2025e+00     1.7156      6.934     10.056     7.2681 0.0000e+00
      7.096      0.103     7.6450     63.367     38.606  24.895693     6.1745      6.867   322.4528 1.1830e+00     1.7264      6.960     10.095     7.2627 0.0000e+00
      7.120      0.102     7.6335     63.265     38.592  24.884154     6.1166      6.865   322.4728 1.1586e+00     1.7399      6.983     10.128     7.2543 0.0000e+00
      7.142      0.101     7.6217     63.164     38.592  24.882116     6.0182      6.862   322.5593 1.1345e+00     1.7265      7.003     10.156     7.2497 0.0000e+00
      7.167      0.100     7.6109     63.069     38.578  24.871051     5.9587      6.859   322.6374 1.1160e+00     1.7168      7.026     10.191     7.2467 0.0000e+00
      7.194      0.098     7.6010     62.982     38.592  24.877350     5.9292      6.857   322.4709 1.1015e+00     1.7450      7.055     10.233     7.2422 0.0000e+00
      7.223      0.097     7.5904     62.888     38.623  24.894770     5.8273      6.855   322.1804 1.0805e+00     1.7617      7.083     10.273     7.2379 0.0000e+00
      7.250      0.097     7.5802     62.799     38.621  24.891201     5.6463      6.853   322.2225 1.0465e+00     1.7356      7.113     10.315     7.2359 0.0000e+00
      7.270      0.099     7.5717     62.727     38.633  24.897689     5.5516      6.850   322.6357 1.0154e+00     1.7032      7.132     10.344     7.2338 0.0000e+00
      7.289      0.102     7.5623     62.648     38.653  24.909723     5.5549      6.846   322.9602 9.9189e-01     1.7065      7.145     10.363     7.2289 0.0000e+00
      7.313      0.106     7.5511     62.555     38.653  24.909724     5.5114      6.843   322.9624 9.6102e-01     1.7141      7.170     10.399     7.2251 0.0000e+00
      7.343      0.110     7.5411     62.473     38.633  24.897698     5.4205      6.841   322.8352 9.3482e-01     1.7038      7.201     10.445     7.2229 0.0000e+00
      7.377      0.111     7.5352     62.424     38.623  24.891304     5.3753      6.841   322.8847 9.1249e-01     1.7044      7.234     10.492     7.2213 0.0000e+00
      7.410      0.108     7.5321     62.398     38.631  24.895914     5.3697      6.842   323.1306 8.7976e-01     1.7214      7.269     10.543     7.2206 0.0000e+00
      7.440      0.100     7.5273     62.358     38.622  24.889943     5.3251      6.842   323.3132 8.5680e-01     1.7573      7.299     10.586     7.2206 0.0000e+00
      7.463      0.093     7.5193     62.291     38.612  24.882597     5.2405      6.842   323.4571 8.5328e-01     1.8330      7.321     10.618     7.2213 0.0000e+00
      7.482      0.088     7.5113     62.226     38.592  24.870581     5.1918      6.839   323.5796 8.4429e-01     1.9041      7.339     10.645     7.2222 0.0000e+00
      7.498      0.086     7.5067     62.190     38.591  24.871631     5.1865      6.837   323.5046 8.2421e-01     1.9141      7.353     10.663     7.2215 0.0000e+00
      7.515      0.085     7.5057     62.184     38.626  24.895305     5.1755      6.835   323.3250 8.0340e-01     1.8930      7.366     10.683     7.2201 0.0000e+00
      7.540      0.083     7.5057     62.184     38.638  24.902849     5.1420      6.834   323.3868 7.8810e-01     1.8933      7.392     10.722     7.2197 0.0000e+00
      7.570      0.082     7.5051     62.176     38.635  24.899358     5.0946      6.835   323.7363 7.8501e-01     1.8881      7.426     10.771     7.2203 0.0000e+00
      7.595      0.082     7.5067     62.185     38.665  24.916578     5.0616      6.835   324.1087 7.8802e-01     1.8599      7.451     10.807     7.2228 0.0000e+00
      7.611      0.082     7.5112     62.218     38.675  24.920588     5.0559      6.833   324.4482 7.8865e-01     1.8572      7.464     10.827     7.2246 0.0000e+00
      7.624      0.081     7.5161     62.255     38.621  24.884341     5.0709      6.830   324.6575 7.8145e-01     1.8559      7.475     10.842     7.2241 0.0000e+00
      7.641      0.078     7.5196     62.283     38.583  24.859258     5.0963      6.830   324.6603 7.5747e-01     1.8444      7.490     10.864     7.2229 0.0000e+00
      7.664      0.073     7.5215     62.302     38.599  24.871283     5.1146      6.829   324.5683 7.3438e-01     1.8710      7.513     10.898     7.2201 0.0000e+00
      7.692      0.067     7.5212     62.303     38.645  24.902758     5.1182      6.828   324.3193 7.3294e-01     1.9326      7.544     10.942     7.2160 0.0000e+00
      7.715      0.057     7.5197     62.293     38.674  24.922353     5.0568      6.829   323.9733 7.3934e-01     1.9789      7.569     10.979     7.2131 0.0000e+00
      7.726      0.046     7.5185     62.285     38.666  24.917734     4.9418      6.830   323.9115 7.3131e-01     1.9733      7.579     10.993     7.2126 0.0000e+00
      7.729      0.035     7.5155     62.262     38.653  24.910405     4.8855      6.832   324.1747 7.1401e-01     1.9253      7.580     10.993     7.2153 0.0000e+00
      7.731      0.028     7.5100     62.218     38.631  24.897240     4.8821      6.834   324.4883 7.0561e-01     1.9187      7.581     10.995     7.2188 0.0000e+00
      7.734      0.028     7.5042     62.172     38.611  24.885536     4.9104      6.836   324.6921 7.0652e-01     1.9535      7.583     10.998     7.2200 0.0000e+00
      7.740      0.035     7.5013     62.150     38.626  24.895877     4.9701      6.836   324.7451 7.1217e-01     1.9500      7.588     11.006     7.2205 0.0000e+00
      7.751      0.046     7.5040     62.171     38.625  24.895294     4.9968      6.835   324.6995 7.1413e-01     1.9366      7.599     11.022     7.2216 0.0000e+00
      7.765      0.058     7.5079     62.198     38.603  24.878484     4.9948      6.834   324.3986 7.1167e-01     1.9442      7.615     11.044     7.2231 0.0000e+00
      7.781      0.069     7.5090     62.201     38.615  24.883102     4.9828      6.833   324.0322 6.9996e-01     1.9502      7.629     11.064     7.2244 0.0000e+00
      7.800      0.078     7.5105     62.210     38.625  24.887635     4.9528      6.831   324.0553 6.7537e-01     1.9486      7.648     11.092     7.2258 0.0000e+00
      7.824      0.085     7.5125     62.226     38.598  24.869795     4.9353      6.829   324.2486 6.5804e-01     1.9255      7.673     11.128     7.2260 0.0000e+00
      7.848      0.087     7.5145     62.246     38.577  24.857874     4.9364      6.828   324.4761 6.5455e-01     1.8844      7.697     11.163     7.2222 0.0000e+00
      7.872      0.085     7.5171     62.273     38.592  24.870476     4.9294      6.826   324.8276 6.5473e-01     1.8784      7.720     11.197     7.2172 0.0000e+00
      7.896      0.082     7.5168     62.274     38.628  24.895191     4.9059      6.824   325.1418 6.4625e-01     1.9134      7.743     11.231     7.2141 0.0000e+00
      7.917      0.079     7.5156     62.264     38.640  24.902738     4.8719      6.822   324.7477 6.3195e-01     1.9422      7.766     11.263     7.2136 0.0000e+00
      7.933      0.079     7.5170     62.272     38.635  24.898235     4.8504      6.821   323.7626 6.2925e-01     1.9517      7.782     11.286     7.2170 0.0000e+00
      7.948      0.081     7.5172     62.270     38.648  24.904227     4.8568      6.819   323.4699 6.2677e-01     1.9668      7.791     11.301     7.2211 0.0000e+00
      7.966      0.086     7.5167     62.263     38.662  24.911689     4.9126      6.816   323.7889 6.1339e-01     1.9731      7.810     11.327     7.2231 0.0000e+00
      7.990      0.094     7.5181     62.271     38.685  24.924964     5.0019      6.813   324.1784 6.0730e-01     1.9365      7.836     11.365     7.2233 0.0000e+00
      8.016      0.100     7.5203     62.286     38.707  24.937758     5.0537      6.809   324.6515 6.0029e-01     1.8898      7.861     11.403     7.2207 0.0000e+00
      8.045      0.103     7.5204     62.284     38.712  24.939395     5.0611      6.808   324.8631 5.8441e-01     1.8667      7.888     11.441     7.2172 0.0000e+00
      8.076      0.102     7.5183     62.264     38.722  24.944746     5.0270      6.809   324.4998 5.6880e-01     1.8704      7.920     11.486     7.2154 0.0000e+00
      8.105      0.099     7.5171     62.253     38.715  24.938974     4.9634      6.809   323.8729 5.5594e-01     1.9041      7.951     11.532     7.2142 0.0000e+00
      8.128      0.096     7.5144     62.229     38.705  24.933099     4.9258      6.808   323.6499 5.4876e-01     1.9385      7.973     11.563     7.2123 0.0000e+00
      8.148      0.094     7.5075     62.173     38.711  24.937192     4.9208      6.806   323.8689 5.3440e-01     1.9509      7.989     11.587     7.2098 0.0000e+00
      8.168      0.093     7.5001     62.113     38.692  24.924975     4.9406      6.804   324.1105 5.1424e-01     1.9320      8.008     11.615     7.2075 0.0000e+00
      8.191      0.092     7.4946     62.069     38.671  24.912362     4.9715      6.803   324.2492 5.0209e-01     1.8925      8.033     11.650     7.2065 0.0000e+00
      8.218      0.090     7.4896     62.029     38.669  24.911680     4.9827      6.803   324.3421 4.9273e-01     1.8704      8.058     11.688     7.2073 0.0000e+00
      8.245      0.088     7.4869     62.008     38.676  24.916727     4.9842      6.802   324.3734 4.8159e-01     1.8784      8.087     11.729     7.2080 0.0000e+00
      8.270      0.087     7.4866     62.004     38.666  24.909895     4.9611      6.801   324.4554 4.6483e-01     1.8976      8.112     11.766     7.2077 0.0000e+00
      8.288      0.088     7.4816     61.963     38.639  24.892570     4.8967      6.797   324.6445 4.5198e-01     1.8892      8.129     11.790     7.2090 0.0000e+00
      8.303      0.090     7.4777     61.933     38.645  24.897723     4.8582      6.794   324.7672 4.5603e-01     1.8686      8.141     11.808     7.2105 0.0000e+00
      8.322      0.093     7.4784     61.940     38.661  24.908708     4.8637      6.792   324.8198 4.5536e-01     1.8612      8.157     11.831     7.2109 0.0000e+00
      8.349      0.098     7.4730     61.893     38.647  24.898405     4.8704      6.790   324.8504 4.3923e-01     1.8607      8.185     11.873     7.2098 0.0000e+00
      8.381      0.103     7.4664     61.834     38.653  24.900126     4.8851      6.789   324.8792 4.3043e-01     1.8934      8.220     11.922     7.2091 0.0000e+00
      8.411      0.107     7.4653     61.819     38.703  24.929520     4.9129      6.789   325.0814 4.3680e-01     1.9213      8.249     11.964     7.2119 0.0000e+00
      8.438      0.107     7.4670     61.828     38.718  24.936343     4.9309      6.788   325.3164 4.3773e-01     1.9225      8.276     12.003     7.2133 0.0000e+00
      8.464      0.107     7.4706     61.855     38.693  24.919133     4.9274      6.786   325.3979 4.2938e-01     1.9393      8.302     12.040     7.2120 0.0000e+00
      8.488      0.107     7.4735     61.879     38.683  24.911900     4.8977      6.784   325.4654 4.2162e-01     1.9412      8.324     12.073     7.2085 0.0000e+00
      8.513      0.109     7.4743     61.885     38.683  24.912383     4.8658      6.783   325.6153 4.0715e-01     1.9156      8.347     12.106     7.2041 0.0000e+00
      8.541      0.112     7.4684     61.834     38.705  24.924968     4.8637      6.782   325.8342 3.8143e-01     1.9043      8.376     12.148     7.2009 0.0000e+00
      8.572      0.115     7.4615     61.771     38.728  24.937079     4.8725      6.781   325.9608 3.6343e-01     1.9267      8.407     12.193     7.1983 0.0000e+00
      8.604      0.119     7.4597     61.751     38.724  24.931831     4.8616      6.778   326.0277 3.6617e-01     1.9421      8.438     12.238     7.1985 0.0000e+00
      8.635      0.119     7.4526     61.689     38.716  24.925011     4.8333      6.776   326.0405 3.6312e-01     1.9377      8.470     12.285     7.2003 0.0000e+00
      8.665      0.115     7.4424     61.603     38.707  24.918104     4.8065      6.776   325.8584 3.4489e-01     1.9340      8.499     12.326     7.1979 0.0000e+00
      8.695      0.108     7.4356     61.546     38.697  24.911809     4.7942      6.776   325.8042 3.4193e-01     1.9276      8.527     12.366     7.1931 0.0000e+00
      8.726      0.102     7.4288     61.490     38.698  24.912387     4.7857      6.774   326.2456 3.4907e-01     1.9214      8.559     12.413     7.1901 0.0000e+00
      8.753      0.102     7.4208     61.423     38.718  24.925095     4.7679      6.769   326.8069 3.4245e-01     1.9205      8.588     12.455     7.1879 0.0000e+00
      8.771      0.107     7.4113     61.342     38.741  24.938466     4.7534      6.764   326.9982 3.3111e-01     1.9172      8.604     12.478     7.1868 0.0000e+00
      8.787      0.115     7.3977     61.224     38.759  24.947071     4.7486      6.760   327.0104 3.2242e-01     1.9120      8.612     12.492     7.1866 0.0000e+00
      8.815      0.123     7.3826     61.091     38.794  24.965647     4.7560      6.758   326.9540 3.1636e-01     1.9179      8.638     12.529     7.1869 0.0000e+00
      8.856      0.133     7.3747     61.017     38.811  24.972583     4.7687      6.756   326.7473 3.0989e-01     1.9280      8.686     12.597     7.1868 0.0000e+00
      8.901      0.139     7.3697     60.971     38.806  24.967441     4.7645      6.755   326.4902 2.9844e-01     1.9431      8.731     12.663     7.1849 0.0000e+00
      8.941      0.139     7.3612     60.900     38.807  24.966968     4.7515      6.755   326.3405 2.8844e-01     1.9475      8.769     12.719     7.1817 0.0000e+00
      8.976      0.129     7.3540     60.840     38.807  24.966863     4.7400      6.756   326.3993 2.8178e-01     1.9505      8.803     12.768     7.1765 0.0000e+00
      9.009      0.116     7.3487     60.795     38.806  24.966173     4.6448      6.756   326.5983 2.7575e-01     1.9796      8.835     12.814     7.1690 0.0000e+00
      9.036      0.108     7.3407     60.732     38.793  24.958616     4.4732      6.755   326.7679 2.7485e-01     1.9943      8.865     12.859     7.1662 0.0000e+00
      9.056      0.107     7.3299     60.648     38.758  24.938991     4.3836      6.753   326.7293 2.7822e-01     1.9751      8.883     12.883     7.1672 0.0000e+00
      9.073      0.108     7.3156     60.538     38.720  24.919366     4.3787      6.751   326.4764 2.7507e-01     1.9305      8.894     12.899     7.1660 0.0000e+00
      9.099      0.109     7.2996     60.415     38.701  24.911811     4.4420      6.750   326.1191 2.7052e-01     1.8824      8.918     12.934     7.1656 0.0000e+00
      9.137      0.113     7.2887     60.327     38.698  24.911140     4.5605      6.750   325.9370 2.7078e-01     1.8817      8.960     12.995     7.1670 0.0000e+00
      9.174      0.117     7.2848     60.288     38.703  24.911254     4.6165      6.749   325.9947 2.6268e-01     1.8915      9.002     13.056     7.1701 0.0000e+00
      9.203      0.118     7.2867     60.292     38.716  24.913184     4.6236      6.749   325.9563 2.4648e-01     1.8786      9.028     13.095     7.1770 0.0000e+00
      9.228      0.113     7.2943     60.343     38.758  24.934469     4.6369      6.750   325.7313 2.3985e-01     1.8789      9.047     13.123     7.1844 0.0000e+00
      9.255      0.105     7.3068     60.438     38.833  24.978129     4.6393      6.753   325.4249 2.3454e-01     1.8946      9.075     13.162     7.1872 0.0000e+00
      9.284      0.100     7.3199     60.540     38.867  24.996622     4.6431      6.754   325.1769 2.2010e-01     1.9163      9.108     13.209     7.1823 0.0000e+00
      9.310      0.100     7.3319     60.634     38.827  24.967583     4.6456      6.752   325.2284 2.2306e-01     1.9280      9.131     13.244     7.1723 0.0000e+00
      9.332      0.106     7.3408     60.701     38.796  24.944482     4.5881      6.748   325.5313 2.3109e-01     1.9139      9.152     13.273     7.1637 0.0000e+00
      9.353      0.116     7.3401     60.686     38.845  24.971264     4.4898      6.741   325.7419 2.2006e-01     1.8988      9.172     13.302     7.1582 0.0000e+00
      9.378      0.129     7.3294     60.587     38.956  25.037434     4.4407      6.735   325.7093 2.1107e-01     1.9279      9.193     13.333     7.1541 0.0000e+00
      9.413      0.142     7.3103     60.417     39.078  25.109617     4.4257      6.731   325.6535 2.0877e-01     1.9600      9.228     13.384     7.1509 0.0000e+00
      9.457      0.150     7.2840     60.187     39.145  25.145604     4.3999      6.730   325.6693 2.0722e-01     1.9517      9.272     13.448     7.1472 0.0000e+00
      9.507      0.152     7.2543     59.933     39.167  25.155078     4.3773      6.731   325.3840 1.9860e-01     1.9492      9.323     13.522     7.1411 0.0000e+00
      9.554      0.147     7.2210     59.652     39.180  25.160671     4.3725      6.733   324.7859 1.8214e-01     1.9603      9.373     13.596     7.1346 0.0000e+00
      9.590      0.133     7.1864     59.357     39.170  25.149726     4.3795      6.734   324.3744 1.7749e-01     1.9648      9.408     13.645     7.1263 0.0000e+00
      9.618      0.117     7.1546     59.086     39.178  25.149733     4.3790      6.735   324.1937 1.8185e-01     1.9423      9.431     13.679     7.1153 0.0000e+00
      9.643      0.101     7.1205     58.798     39.200  25.160753     4.3579      6.736   323.8908 1.8472e-01     1.9008      9.458     13.718     7.1096 0.0000e+00
      9.665      0.089     7.0787     58.450     39.195  25.155973     4.3258      6.737   323.8101 1.8723e-01     1.8904      9.482     13.752     7.1082 0.0000e+00
      9.683      0.080     7.0322     58.066     39.195  25.155431     4.3129      6.739   324.0789 1.7556e-01     1.9091      9.495     13.771     7.1017 0.0000e+00
      9.703      0.072     6.9838     57.667     39.291  25.217683     4.3122      6.740   324.0443 1.6102e-01     1.9440      9.513     13.798     7.0946 0.0000e+00
      9.724      0.063     6.9370     57.281     39.575  25.400721     4.2532      6.741   323.7357 1.6512e-01     1.9458      9.538     13.833     7.0906 0.0000e+00
      9.742      0.054     6.8936     56.925     39.969  25.654207     4.1504      6.742   323.3577 1.7722e-01     1.9001      9.556     13.860     7.0886 0.0000e+00
      9.754      0.046     6.8529     56.591     40.303  25.869812     4.1074      6.744   322.9161 1.9104e-01     1.8800      9.567     13.876     7.0887 0.0000e+00
      9.762      0.037     6.8194     56.319     40.464  25.975775     4.1110      6.747   322.6117 1.9736e-01     1.8851      9.574     13.885     7.0893 0.0000e+00
      9.768      0.028     6.7932     56.108     40.470  25.982982     4.0932      6.749   322.7749 1.8709e-01     1.9009      9.579     13.893     7.0897 0.0000e+00
      9.774      0.022     6.7717     55.935     40.426  25.956953     4.0663      6.751   323.2544 1.6932e-01     1.9188      9.585     13.902     7.0904 0.0000e+00
      9.779      0.018     6.7531     55.782     40.359  25.915041     4.0614      6.752   323.3344 1.6101e-01     1.9188      9.591     13.910     7.0924 0.0000e+00
      9.783      0.014     6.7270     55.567     40.268  25.857201     4.0700      6.753   323.1388 1.6174e-01     1.9311      9.594     13.916     7.0955 0.0000e+00
      9.786      0.010     6.6935     55.291     40.125  25.765572     4.1249      6.754   323.0404 1.6432e-01     1.9466      9.596     13.919     7.1001 0.0000e+00
      9.787      0.007     6.6585     55.006     39.915  25.632590     4.2293      6.756   322.8334 1.7353e-01     1.9224      9.598     13.921     7.1036 0.0000e+00
      9.789      0.005     6.6220     54.708     39.735  25.519207     4.2928      6.757   322.5283 1.7983e-01     1.9122      9.600     13.923     7.1041 0.0000e+00
      9.790      0.003     6.5842     54.402     39.660  25.474060     4.3048      6.757   322.3626 1.7035e-01     1.9457      9.600     13.924     7.1041 0.0000e+00
      9.790      0.002     6.5492     54.118     39.645  25.467684     4.3112      6.758   322.4651 1.6452e-01     1.9613      9.601     13.925     7.1048 0.0000e+00
      9.790      0.001     6.5217     53.895     39.600  25.442125     4.3151      6.759   322.7355 1.7062e-01     1.9482      9.601     13.925     7.1067 0.0000e+00
      9.790      0.001     6.5103     53.803     39.562  25.419006     4.3147      6.759   322.8789 1.7137e-01     1.9395      9.600     13.924     7.1098 0.0000e+00
      9.790 -9.990e-29 -9.990e-29 -9.990e-29 -9.990e-29 -9.990e-29 -9.990e-29 -9.990e-29 -9.990e-29 1.7279e-01 -9.990e-29      9.601     13.925     7.1146 0.0000e+00
      9.790 -9.990e-29 -9.990e-29 -9.990e-29 -9.990e-29 -9.990e-29 -9.990e-29 -9.990e-29 -9.990e-29 1.7795e-01 -9.990e-29      9.601     13.925     7.1183 0.0000e+00
      9.790 -9.990e-29 -9.990e-29 -9.990e-29 -9.990e-29 -9.990e-29 -9.990e-29 -9.990e-29 -9.990e-29 1.8490e-01 -9.990e-29      9.601     13.925     7.1221 0.0000e+00
      9.790 -9.990e-29 -9.990e-29 -9.990e-29 -9.990e-29 -9.990e-29 -9.990e-29 -9.990e-29 -9.990e-29 1.9020e-01 -9.990e-29      9.601     13.925     7.1252 0.0000e+00
