* Sea-Bird SBE19plus  Data File:
* FileName = C:\DATA\043018_fcr_0011.hex
* Software version 2.6.3.104 SB_Terminal.dll
* Temperature SN = 7809
* Conductivity SN = 7809
* System UpLoad Time = May 01 2018 12:01:02
* <ApplicationData>
* <Seaterm232>
* <SoftwareVersion>2.6.3.104</SoftwareVersion>
* <BuildDate>30-Jun-2017</BuildDate>
* </Seaterm232>
* </ApplicationData>
* cast  11 30 Apr 2018 20:50:12 samples 11254 to 12386, avg = 1, stop = mag switch
# nquan = 15
# nvalues = 974                         
# units = specified
# name 0 = depFM: Depth [fresh water, m]
# name 1 = dz/dtM: Descent Rate [m/s]
# name 2 = sbeox0Mg/L: Oxygen, SBE 43 [mg/l]
# name 3 = sbeox0PS: Oxygen, SBE 43 [% saturation]
# name 4 = specc: Specific Conductance [uS/cm]
# name 5 = c0uS/cm: Conductivity [uS/cm]
# name 6 = flECO-AFL: Fluorescence, WET Labs ECO-AFL/FL [mg/m^3]
# name 7 = ph: pH
# name 8 = orp: Oxidation Reduction Potential [mV]
# name 9 = par/sat/log: PAR/Logarithmic, Satlantic
# name 10 = turbWETntu0: Turbidity, WET Labs ECO [NTU]
# name 11 = prdM: Pressure, Strain Gauge [db]
# name 12 = prdE: Pressure, Strain Gauge [psi]
# name 13 = tv290C: Temperature [ITS-90, deg C]
# name 14 = flag:  0.000e+00
# span 0 =     -0.555,      7.364       
# span 1 =     -0.096,      0.349       
# span 2 =     6.7822,    10.0834       
# span 3 =     62.993,    102.815       
# span 4 =      0.488,     38.591       
# span 5 =   0.399297,  29.513845       
# span 6 =    -0.2036,     8.0347       
# span 7 =      6.334,     11.088       
# span 8 =  -812.8210,   490.2694       
# span 9 = 1.7455e+00, 1.5885e+03       
# span 10 =    -3.3398,     2.1623      
# span 11 =     -0.544,      7.222      
# span 12 =     -0.790,     10.475      
# span 13 =     8.0823,    16.3111      
# span 14 = 0.0000e+00, 0.0000e+00      
# interval = seconds: 0.25
# start_time = Apr 30 2018 20:50:12 [Instrument's time stamp, header]
# bad_flag = -9.990e-29
# <Sensors count="9" >
#   <sensor Channel="1" >
#     <!-- Count, Temperature -->
#     <TemperatureSensor SensorID="58" >
#       <SerialNumber>7809</SerialNumber>
#       <CalibrationDate>09-Mar-18</CalibrationDate>
#       <A0>1.21093245e-003</A0>
#       <A1>2.84356597e-004</A1>
#       <A2>-1.94507398e-006</A2>
#       <A3>2.12806664e-007</A3>
#       <Slope>1.00000000</Slope>
#       <Offset>0.0000</Offset>
#     </TemperatureSensor>
#   </sensor>
#   <sensor Channel="2" >
#     <!-- Frequency 0, Conductivity -->
#     <ConductivitySensor SensorID="3" >
#       <SerialNumber>7809</SerialNumber>
#       <CalibrationDate>09-Mar-18</CalibrationDate>
#       <UseG_J>1</UseG_J>
#       <!-- Cell const and series R are applicable only for wide range sensors. -->
#       <SeriesR>0.0000</SeriesR>
#       <CellConst>2000.0000</CellConst>
#       <ConductivityType>0</ConductivityType>
#       <Coefficients equation="0" >
#         <A>0.00000000e+000</A>
#         <B>0.00000000e+000</B>
#         <C>0.00000000e+000</C>
#         <D>0.00000000e+000</D>
#         <M>0.0</M>
#         <CPcor>-9.57000000e-008</CPcor>
#       </Coefficients>
#       <Coefficients equation="1" >
#         <G>-1.00672082e+000</G>
#         <H>1.26906489e-001</H>
#         <I>-1.40584351e-004</I>
#         <J>2.47837121e-005</J>
#         <CPcor>-9.57000000e-008</CPcor>
#         <CTcor>3.2500e-006</CTcor>
#         <!-- WBOTC not applicable unless ConductivityType = 1. -->
#         <WBOTC>0.00000000e+000</WBOTC>
#       </Coefficients>
#       <Slope>1.00000000</Slope>
#       <Offset>0.00000</Offset>
#     </ConductivitySensor>
#   </sensor>
#   <sensor Channel="3" >
#     <!-- Count, Pressure, Strain Gauge -->
#     <PressureSensor SensorID="46" >
#       <SerialNumber>7809</SerialNumber>
#       <CalibrationDate>07-Mar-18</CalibrationDate>
#       <PA0>-4.08176359e-002</PA0>
#       <PA1>4.85188419e-004</PA1>
#       <PA2>-3.51168169e-012</PA2>
#       <PTEMPA0>-5.37806900e+001</PTEMPA0>
#       <PTEMPA1>5.36620721e+001</PTEMPA1>
#       <PTEMPA2>4.87214332e-002</PTEMPA2>
#       <PTCA0>5.25213435e+005</PTCA0>
#       <PTCA1>1.79532409e+000</PTCA1>
#       <PTCA2>-2.84353509e-001</PTCA2>
#       <PTCB0>2.51668750e+001</PTCB0>
#       <PTCB1>3.75000000e-004</PTCB1>
#       <PTCB2>0.00000000e+000</PTCB2>
#       <Offset>0.000000</Offset>
#     </PressureSensor>
#   </sensor>
#   <sensor Channel="4" >
#     <!-- A/D voltage 0, pH -->
#     <pH_Sensor SensorID="43" >
#       <SerialNumber>0363</SerialNumber>
#       <CalibrationDate>16-Mar-18</CalibrationDate>
#       <Slope>4.6194</Slope>
#       <Offset>2.5947</Offset>
#     </pH_Sensor>
#   </sensor>
#   <sensor Channel="5" >
#     <!-- A/D voltage 1, Oxidation Reduction Potential -->
#     <OxidationReductionPotentialSensor SensorID="41" >
#       <SerialNumber>0363</SerialNumber>
#       <CalibrationDate>16-Mar-18</CalibrationDate>
#       <B>2.499480</B>
#       <M>-0.496195</M>
#       <Offset>0.0</Offset>
#     </OxidationReductionPotentialSensor>
#   </sensor>
#   <sensor Channel="6" >
#     <!-- A/D voltage 2, Oxygen, SBE 43 -->
#     <OxygenSensor SensorID="38" >
#       <SerialNumber>0434</SerialNumber>
#       <CalibrationDate>13-Mar-18</CalibrationDate>
#       <Use2007Equation>1</Use2007Equation>
#       <CalibrationCoefficients equation="0" >
#         <!-- Coefficients for Owens-Millard equation. -->
#         <Boc>0.0000</Boc>
#         <Soc>0.0000e+000</Soc>
#         <offset>0.0000</offset>
#         <Pcor>0.00e+000</Pcor>
#         <Tcor>0.0000</Tcor>
#         <Tau>0.0</Tau>
#       </CalibrationCoefficients>
#       <CalibrationCoefficients equation="1" >
#         <!-- Coefficients for Sea-Bird equation - SBE calibration in 2007 and later. -->
#         <Soc>4.5718e-001</Soc>
#         <offset>-0.6113</offset>
#         <A>-4.0649e-003</A>
#         <B> 2.0945e-004</B>
#         <C>-3.3182e-006</C>
#         <D0> 2.5826e+000</D0>
#         <D1> 1.92634e-004</D1>
#         <D2>-4.64803e-002</D2>
#         <E> 3.6000e-002</E>
#         <Tau20> 1.2200</Tau20>
#         <H1>-3.3000e-002</H1>
#         <H2> 5.0000e+003</H2>
#         <H3> 1.4500e+003</H3>
#       </CalibrationCoefficients>
#     </OxygenSensor>
#   </sensor>
#   <sensor Channel="7" >
#     <!-- A/D voltage 3, PAR/Logarithmic, Satlantic -->
#     <PARLog_SatlanticSensor SensorID="76" >
#       <SerialNumber>1122</SerialNumber>
#       <CalibrationDate>22-Jun-2017</CalibrationDate>
#       <a0>9.6090e-001</a0>
#       <a1>8.0780e-001</a1>
#       <Im>1.3589e+000</Im>
#       <Multiplier>1.0000e+000</Multiplier>
#     </PARLog_SatlanticSensor>
#   </sensor>
#   <sensor Channel="8" >
#     <!-- A/D voltage 4, Fluorometer, WET Labs ECO-AFL/FL -->
#     <FluoroWetlabECO_AFL_FL_Sensor SensorID="20" >
#       <SerialNumber>FLNTURT-2496</SerialNumber>
#       <CalibrationDate>25-Jan-2017</CalibrationDate>
#       <ScaleFactor>5.30000000e+001</ScaleFactor>
#       <!-- Dark output -->
#       <Vblank>0.0560</Vblank>
#     </FluoroWetlabECO_AFL_FL_Sensor>
#   </sensor>
#   <sensor Channel="9" >
#     <!-- A/D voltage 5, Turbidity Meter, WET Labs, ECO-NTU -->
#     <TurbidityMeter SensorID="67" >
#       <SerialNumber>FLNTURT-2496</SerialNumber>
#       <CalibrationDate>25-Jan-2017</CalibrationDate>
#       <ScaleFactor>176.000000</ScaleFactor>
#       <!-- Dark output -->
#       <DarkVoltage>0.072000</DarkVoltage>
#     </TurbidityMeter>
#   </sensor>
# </Sensors>
# datcnv_date = May 08 2018 08:16:32, 7.26.7.114 [datcnv_vars = 14]
# datcnv_in = C:\DATA\043018_fcr45.hex C:\DATA\SBE19plusV2_7809.xmlcon
# datcnv_skipover = 0
# datcnv_ox_hysteresis_correction = yes
# datcnv_ox_tau_correction = yes
# filter_date = May 08 2018 08:16:56, 7.26.7.114
# filter_in = C:\DATA\043018_fcr45.cnv
# filter_low_pass_tc_A = 0.030
# filter_low_pass_tc_B = 0.150
# filter_low_pass_A_vars = prdM prdE tv290C
# filter_low_pass_B_vars = depFM dz/dtM sbeox0Mg/L sbeox0PS specc c0uS/cm flECO-AFL ph orp par/sat/log turbWETntu0
# alignctd_date = May 08 2018 08:17:15, 7.26.7.114
# alignctd_in = C:\DATA\043018_fcr45.cnv
# alignctd_adv = dz/dtM 1.000, sbeox0Mg/L 1.000, sbeox0PS 1.000, specc 1.000, c0uS/cm 1.000, flECO-AFL 1.000, ph 1.000, orp 1.000, turbWETntu0 1.000                                                                                 
# file_type = ascii
*END*
     -0.554     -0.001     9.6792     97.849      0.586   0.478943    -0.2036     11.088  -812.8210 1.5040e+03    -0.4304     -0.543     -0.787    15.8986 0.0000e+00
     -0.554     -0.001     9.6795     97.851      0.570   0.466166    -0.2012     10.913  -707.7524 1.4455e+03    -0.4545     -0.543     -0.788    15.8984 0.0000e+00
     -0.554     -0.001     9.6795     97.851      0.538   0.439755    -0.1822     10.283  -641.6514 1.1215e+03    -0.4963     -0.544     -0.789    15.8982 0.0000e+00
     -0.554     -0.000     9.6793     97.849      0.505   0.413256    -0.0367      9.485  -597.6346 6.0025e+02    -1.2405     -0.544     -0.788    15.8971 0.0000e+00
     -0.555 -1.816e-08     9.6793     97.852      0.488   0.399420     0.2344      8.718  -415.6841 4.5363e+02    -2.6165     -0.544     -0.789    15.8957 0.0000e+00
     -0.555 -1.997e-07     9.6798     97.857      0.488   0.399297     0.3840      8.082  -263.4129 5.4270e+02    -3.3398     -0.544     -0.789    15.8955 0.0000e+00
     -0.555 -1.493e-07     9.6792     97.852      0.503   0.411770     0.3937      7.682  -243.7249 3.8973e+02    -3.3027     -0.544     -0.789    15.8957 0.0000e+00
     -0.554 5.9118e-07     9.6777     97.840      0.517   0.423398     0.3248      7.477  -262.6457 2.3360e+02    -2.1980     -0.544     -0.788    15.8956 0.0000e+00
     -0.554      0.000     9.6767     97.832      0.505   0.413068     0.1940      7.344  -232.7745 2.1063e+02    -0.1455     -0.544     -0.788    15.8959 0.0000e+00
     -0.555      0.000     9.6762     97.834      0.505   0.413697     0.1356      7.191   -34.7574 2.0501e+02     1.0060     -0.544     -0.789    15.8964 0.0000e+00
     -0.555      0.001     9.6750     97.847      0.681   0.557825     0.1429      6.950   281.1152 2.1508e+02     1.1052     -0.544     -0.789    15.8973 0.0000e+00
     -0.555      0.004     9.6722     97.865      2.477   2.028880     0.1722      6.680   468.6094 3.0320e+02     0.9621     -0.544     -0.789    15.8984 0.0000e+00
     -0.555      0.008     9.6676     97.883      6.033   4.945012     0.2322      6.511   490.2694 4.6819e+02     0.7711     -0.544     -0.790    15.9005 0.0000e+00
     -0.554      0.010     9.6603     97.923      7.169   5.880827     0.2715      6.437   461.3530 5.6489e+02     0.6877     -0.542     -0.787    15.8991 0.0000e+00
     -0.552      0.013     9.6490     97.976      5.279   4.337618     0.2795      6.350   230.3188 6.0669e+02     0.6556     -0.544     -0.790    15.9106 0.0000e+00
     -0.543      0.026     9.6376     98.026      8.445   6.963201     0.2920      6.334   -17.9429 6.3109e+02     0.8411     -0.536     -0.777    15.9378 0.0000e+00
     -0.534      0.055     9.6334     98.104     20.065  16.560033     0.3206      6.604   102.7666 5.4283e+02     1.2822     -0.513     -0.743    15.9586 0.0000e+00
     -0.537      0.102     9.6378     98.219     30.895  25.508071     0.3403      7.051   275.8386 3.9827e+02     1.5331     -0.529     -0.768    16.0093 0.0000e+00
     -0.531      0.164     9.6500     98.378     34.687  28.647029     0.3377      7.383   289.2547 3.6654e+02     1.5242     -0.539     -0.782    16.1054 0.0000e+00
     -0.487      0.234     9.6707     98.606     35.022  28.928624     0.3257      7.528   291.3939 5.0350e+02     1.5115     -0.486     -0.705    16.1950 0.0000e+00
     -0.408      0.298     9.7049     98.956     35.002  28.912807     0.2971      7.559   293.7017 7.4958e+02     1.4403     -0.410     -0.594    16.2489 0.0000e+00
     -0.303      0.341     9.7565     99.452     34.921  28.836797     0.2667      7.540   295.3912 7.9538e+02     1.2743     -0.305     -0.443    16.2785 0.0000e+00
     -0.179      0.349     9.8201    100.020     34.875  28.771612     0.2613      7.505   296.7642 7.2256e+02     1.1823     -0.172     -0.250    16.2920 0.0000e+00
     -0.061      0.317     9.8916    100.630     34.907  28.759651     0.2597      7.467   297.9982 1.0747e+03     1.1513     -0.049     -0.071    16.2983 0.0000e+00
      0.029      0.257     9.9606    101.234     35.019  28.819127     0.2659      7.423   298.8691 1.4732e+03     1.1746      0.042      0.063    16.3020 0.0000e+00
      0.080      0.182    10.0119    101.712     35.235  28.982671     0.2995      7.373   299.4638 1.4045e+03     1.2802      0.089      0.129    16.2942 0.0000e+00
      0.100      0.112    10.0459    102.062     35.590  29.276475     0.3262      7.324   299.7680 1.0271e+03     1.3301      0.103      0.148    16.2550 0.0000e+00
      0.102      0.062    10.0616    102.254     35.866  29.513845     0.3315      7.277   300.1384 7.3845e+02     1.3205      0.103      0.149    16.1857 0.0000e+00
      0.096      0.044    10.0399    102.075     35.836  29.503076     0.3360      7.227   300.8450 8.1569e+02     1.2553      0.095      0.138    16.1328 0.0000e+00
      0.090      0.059     9.9738    101.439     35.619  29.336791     0.3350      7.174   301.6863 9.4004e+02     1.1520      0.085      0.124    16.1169 0.0000e+00
      0.095      0.094     9.8826    100.529     35.468  29.217930     0.3280      7.133   302.5671 9.7232e+02     1.1399      0.084      0.121    16.1225 0.0000e+00
      0.122      0.134     9.7706     99.383     35.460  29.209008     0.3346      7.108   303.2347 8.4400e+02     1.1395      0.111      0.162    16.1398 0.0000e+00
      0.173      0.168     9.6288     97.920     35.415  29.165411     0.3414      7.092   303.6494 5.4731e+02     1.0858      0.164      0.237    16.1613 0.0000e+00
      0.240      0.187     9.4615     96.191     35.236  29.008308     0.3361      7.078   304.1389 5.3905e+02     1.0703      0.234      0.340    16.1808 0.0000e+00
      0.309      0.185     9.2774     94.275     35.043  28.833536     0.3350      7.069   304.8524 6.9215e+02     1.1044      0.311      0.452    16.1910 0.0000e+00
      0.362      0.161     9.0923     92.306     34.923  28.703310     0.3367      7.064   305.4787 8.5154e+02     1.1317      0.359      0.521    16.1849 0.0000e+00
      0.401      0.125     8.9205     90.440     34.900  28.640254     0.3298      7.064   305.8616 1.1864e+03     1.1869      0.397      0.576    16.1719 0.0000e+00
      0.424      0.086     8.7650     88.754     34.953  28.642589     0.3157      7.069   306.2976 1.3337e+03     1.2834      0.423      0.614    16.1611 0.0000e+00
      0.431      0.051     8.6364     87.380     35.017  28.667993     0.3129      7.075   306.7929 1.0584e+03     1.3227      0.425      0.616    16.1449 0.0000e+00
      0.431      0.026     8.5519     86.489     35.064  28.693370     0.3240      7.080   307.2048 7.2901e+02     1.3261      0.423      0.613    16.1002 0.0000e+00
      0.432      0.010     8.5129     86.081     35.073  28.695404     0.3295      7.084   307.4913 6.8421e+02     1.3248      0.423      0.614    16.0247 0.0000e+00
      0.433      0.002     8.5096     86.044     35.071  28.692569     0.3435      7.088   307.7616 6.9212e+02     1.2456      0.424      0.615    15.9596 0.0000e+00
      0.433      0.001     8.5299     86.252     35.106  28.722597     0.3738      7.095   308.0637 5.7507e+02     1.1317      0.426      0.618    15.9242 0.0000e+00
      0.432      0.002     8.5584     86.547     35.126  28.740967     0.3918      7.104   308.3062 5.6119e+02     1.1082      0.425      0.617    15.9078 0.0000e+00
      0.430      0.002     8.5823     86.797     35.101  28.724169     0.3967      7.112   308.5417 5.7429e+02     1.1436      0.420      0.608    15.9028 0.0000e+00
      0.431      0.001     8.5897     86.881     35.081  28.710013     0.3779      7.119   308.7594 4.9912e+02     1.1326      0.423      0.613    15.9015 0.0000e+00
      0.435     -0.001     8.5732     86.720     35.061  28.696812     0.3392      7.124   308.8735 5.6919e+02     1.0972      0.428      0.622    15.9029 0.0000e+00
      0.437     -0.004     8.5357     86.342     35.054  28.691561     0.3235      7.129   308.8896 6.8979e+02     1.1125      0.429      0.623    15.9073 0.0000e+00
      0.437     -0.005     8.4836     85.817     35.075  28.710025     0.3256      7.133   308.9538 6.2539e+02     1.1349      0.430      0.623    15.9122 0.0000e+00
      0.432     -0.005     8.4226     85.209     35.094  28.729555     0.3281      7.138   309.0482 5.2047e+02     1.1238      0.426      0.617    15.9174 0.0000e+00
      0.426     -0.003     8.3601     84.593     35.096  28.737197     0.3262      7.143   309.0839 4.9603e+02     1.1312      0.416      0.604    15.9215 0.0000e+00
      0.421      0.000     8.3096     84.101     35.090  28.738928     0.3204      7.147   309.2136 6.7616e+02     1.1321      0.410      0.595    15.9210 0.0000e+00
      0.423      0.003     8.2845     83.861     35.097  28.750493     0.3225      7.149   309.4125 9.3523e+02     1.1042      0.412      0.598    15.9203 0.0000e+00
      0.431      0.006     8.2882     83.909     35.092  28.750031     0.3247      7.152   309.5098 8.4774e+02     1.1301      0.424      0.615    15.9262 0.0000e+00
      0.437      0.007     8.3140     84.177     35.069  28.733351     0.3277      7.157   309.5296 5.9540e+02     1.2008      0.431      0.625    15.9369 0.0000e+00
      0.438      0.006     8.3507     84.549     35.076  28.739322     0.3323      7.161   309.6513 5.4548e+02     1.2268      0.430      0.623    15.9476 0.0000e+00
      0.437      0.004     8.3875     84.914     35.103  28.758721     0.3340      7.163   309.9486 7.2957e+02     1.2305      0.429      0.622    15.9556 0.0000e+00
      0.435      0.000     8.4136     85.162     35.133  28.777391     0.3578      7.165   310.0268 1.0846e+03     1.2154      0.428      0.621    15.9614 0.0000e+00
      0.433     -0.005     8.4218     85.224     35.139  28.774543     0.3896      7.165   309.7365 1.3138e+03     1.1661      0.422      0.613    15.9649 0.0000e+00
      0.434     -0.014     8.4087     85.075     35.085  28.724281     0.3971      7.166   309.5360 1.1358e+03     1.1529      0.423      0.614    15.9657 0.0000e+00
      0.438     -0.024     8.3790     84.761     35.035  28.677694     0.3936      7.169   309.5820 8.2610e+02     1.1466      0.433      0.628    15.9627 0.0000e+00
      0.435     -0.033     8.3466     84.422     35.014  28.655769     0.3749      7.174   309.6902 7.4343e+02     1.1209      0.433      0.627    15.9519 0.0000e+00
      0.418     -0.040     8.3241     84.186     35.010  28.649682     0.3457      7.177   309.8119 7.4922e+02     1.1170      0.412      0.596    15.9385 0.0000e+00
      0.397     -0.047     8.3108     84.051     35.032  28.667592     0.3348      7.177   309.9349 7.0476e+02     1.0992      0.385      0.559    15.9292 0.0000e+00
      0.382     -0.052     8.3011     83.956     35.048  28.681812     0.3256      7.177   309.9727 6.6909e+02     1.0897      0.373      0.541    15.9231 0.0000e+00
      0.372     -0.052     8.2921     83.871     35.061  28.694616     0.3168      7.178   309.9245 6.6232e+02     1.1238      0.364      0.529    15.9165 0.0000e+00
      0.362     -0.049     8.2816     83.771     35.060  28.695402     0.3393      7.180   309.8682 6.3251e+02     1.1152      0.356      0.516    15.9107 0.0000e+00
      0.352     -0.044     8.2722     83.682     35.052  28.691318     0.3768      7.182   309.8092 6.4410e+02     1.0467      0.346      0.502    15.9107 0.0000e+00
      0.338     -0.039     8.2701     83.665     35.071  28.708742     0.3925      7.186   309.8126 6.9440e+02     1.0277      0.331      0.481    15.9139 0.0000e+00
      0.324     -0.033     8.2778     83.747     35.077  28.715574     0.4008      7.191   309.9955 6.4860e+02     1.0691      0.316      0.458    15.9171 0.0000e+00
      0.315     -0.027     8.2909     83.882     35.070  28.710427     0.4134      7.196   310.2143 5.5775e+02     1.1497      0.307      0.444    15.9205 0.0000e+00
      0.311     -0.019     8.3022     83.997     35.069  28.710011     0.4071      7.199   310.3926 5.1760e+02     1.2697      0.305      0.442    15.9234 0.0000e+00
      0.309     -0.011     8.3043     84.019     35.069  28.710541     0.3888      7.201   310.5168 5.1719e+02     1.3300      0.304      0.441    15.9261 0.0000e+00
      0.309     -0.005     8.2926     83.899     35.077  28.716836     0.3762      7.202   310.5103 5.4157e+02     1.2988      0.303      0.439    15.9283 0.0000e+00
      0.309     -0.001     8.2633     83.601     35.085  28.722620     0.3733      7.202   310.5731 8.2054e+02     1.2286      0.303      0.439    15.9297 0.0000e+00
      0.310      0.001     8.2222     83.181     35.080  28.716970     0.3723      7.201   310.7593 1.1350e+03     1.1521      0.304      0.440    15.9306 0.0000e+00
      0.310      0.001     8.1837     82.788     35.075  28.712027     0.3556      7.201   310.8694 1.0277e+03     1.1070      0.304      0.440    15.9310 0.0000e+00
      0.310      0.000     8.1470     82.413     35.095  28.726350     0.3363      7.203   310.7862 8.0580e+02     1.1101      0.304      0.440    15.9303 0.0000e+00
      0.311     -0.005     8.1100     82.035     35.142  28.763149     0.3505      7.205   310.5267 7.4857e+02     1.1287      0.305      0.442    15.9290 0.0000e+00
      0.312     -0.015     8.0760     81.689     35.158  28.775948     0.3798      7.208   310.3987 8.8151e+02     1.1182      0.306      0.444    15.9270 0.0000e+00
      0.312     -0.030     8.0439     81.363     35.133  28.754096     0.3877      7.212   310.5302 1.3184e+03     1.0740      0.306      0.444    15.9248 0.0000e+00
      0.307     -0.047     8.0129     81.048     35.132  28.752942     0.3912      7.214   310.5673 1.5885e+03     1.0530      0.306      0.443    15.9226 0.0000e+00
      0.292     -0.065     7.9830     80.745     35.143  28.761999     0.4125      7.218   310.4175 1.1451e+03     1.0774      0.292      0.425    15.9205 0.0000e+00
      0.266     -0.079     7.9517     80.426     35.113  28.736602     0.4426      7.219   310.3541 7.2382e+02     1.0942      0.260      0.377    15.9191 0.0000e+00
      0.239     -0.083     7.9202     80.105     35.070  28.699875     0.4523      7.212   310.4028 7.2489e+02     1.1042      0.234      0.339    15.9183 0.0000e+00
      0.212     -0.078     7.8982     79.879     35.071  28.698940     0.4477      7.199   310.4041 6.0478e+02     1.1065      0.210      0.307    15.9176 0.0000e+00
      0.184     -0.063     7.8908     79.799     35.106  28.725298     0.4508      7.188   310.4559 4.1253e+02     1.0908      0.174      0.254    15.9169 0.0000e+00
      0.167     -0.045     7.8958     79.844     35.156  28.764554     0.4440      7.180   310.6844 3.2389e+02     1.0982      0.156      0.226    15.9164 0.0000e+00
      0.167     -0.028     7.9047     79.930     35.192  28.792578     0.4197      7.180   311.0163 2.8572e+02     1.1348      0.164      0.237    15.9153 0.0000e+00
      0.170     -0.013     7.9076     79.958     35.214  28.810116     0.3966      7.186   311.2855 2.7499e+02     1.1372      0.168      0.245    15.9122 0.0000e+00
      0.171     -0.003     7.9009     79.891     35.262  28.849602     0.3860      7.194   311.3578 2.7677e+02     1.0966      0.167      0.243    15.9085 0.0000e+00
      0.170      0.001     7.8840     79.722     35.309  28.888991     0.3915      7.201   311.2887 4.2764e+02     1.0710      0.167      0.242    15.9054 0.0000e+00
      0.168     -0.000     7.8575     79.465     35.323  28.905348     0.3993      7.206   311.1375 6.1964e+02     1.0715      0.165      0.239    15.9031 0.0000e+00
      0.168     -0.001     7.8217     79.130     35.328  28.920376     0.3983      7.210   310.9926 6.5388e+02     1.1026      0.165      0.239    15.9026 0.0000e+00
      0.169     -0.000     7.7768     78.719     35.335  28.943704     0.3969      7.213   310.9988 6.4819e+02     1.1412      0.166      0.240    15.9034 0.0000e+00
      0.169     -0.000     7.7277     78.277     35.294  28.933418     0.4013      7.215   310.9551 5.7284e+02     1.2033      0.166      0.240    15.9044 0.0000e+00
      0.169     -0.001     7.6790     77.854     35.244  28.923033     0.4055      7.214   310.8950 4.7359e+02     1.3043      0.166      0.241    15.9079 0.0000e+00
      0.169     -0.002     7.6297     77.434     35.229  28.945185     0.4012      7.213   311.0462 6.4117e+02     1.3551      0.166      0.241    15.9236 0.0000e+00
      0.168     -0.002     7.5803     77.014     35.189  28.947281     0.3959      7.213   311.1482 7.9674e+02     1.3294      0.166      0.241    15.9503 0.0000e+00
      0.167     -0.002     7.5318     76.594     35.153  28.948422     0.3866      7.212   311.0956 5.3188e+02     1.2983      0.164      0.237    15.9822 0.0000e+00
      0.165     -0.002     7.4826     76.150     35.135  28.959026     0.3811      7.211   311.0127 3.1968e+02     1.3150      0.161      0.234    16.0253 0.0000e+00
      0.165     -0.001     7.4333     75.689     35.101  28.948519     0.3940      7.212   310.9200 4.0847e+02     1.3484      0.161      0.234    16.0775 0.0000e+00
      0.166      0.001     7.3875     75.249     35.086  28.948404     0.4039      7.214   310.9212 6.4791e+02     1.3350      0.163      0.236    16.1298 0.0000e+00
      0.166      0.002     7.3475     74.860     35.087  28.957658     0.3997      7.217   311.0280 9.1840e+02     1.2444      0.163      0.237    16.1748 0.0000e+00
      0.167      0.002     7.3078     74.469     35.050  28.933412     0.3990      7.221   311.0923 8.6185e+02     1.1385      0.164      0.238    16.2107 0.0000e+00
      0.169      0.002     7.2668     74.064     35.015  28.909260     0.4045      7.225   311.0956 5.6372e+02     1.0928      0.166      0.240    16.2358 0.0000e+00
      0.169      0.001     7.2252     73.649     35.023  28.919660     0.4020      7.228   311.0688 4.7452e+02     1.0884      0.167      0.242    16.2506 0.0000e+00
      0.169      0.000     7.1814     73.211     35.033  28.932150     0.3968      7.231   311.0265 6.0757e+02     1.0854      0.165      0.241    16.2620 0.0000e+00
      0.168     -0.001     7.1391     72.787     35.030  28.933275     0.3958      7.235   311.0140 6.5854e+02     1.0869      0.165      0.239    16.2709 0.0000e+00
      0.168     -0.001     7.1001     72.394     35.027  28.933274     0.3991      7.239   311.0037 5.7821e+02     1.1069      0.165      0.239    16.2768 0.0000e+00
      0.167     -0.001     7.0652     72.044     35.023  28.932138     0.4086      7.242   310.9879 4.4962e+02     1.1137      0.165      0.239    16.2830 0.0000e+00
      0.167      0.000     7.0367     71.754     35.007  28.919543     0.4097      7.242   310.9954 4.3565e+02     1.1079      0.163      0.237    16.2890 0.0000e+00
      0.167      0.001     7.0143     71.528     34.992  28.907987     0.3856      7.242   311.0076 5.5059e+02     1.1588      0.163      0.237    16.2935 0.0000e+00
      0.168      0.002     6.9975     71.358     35.005  28.919429     0.3468      7.242   311.0498 5.1059e+02     1.2400      0.164      0.238    16.2978 0.0000e+00
      0.168      0.003     6.9854     71.234     35.020  28.930879     0.3261      7.241   311.0760 3.9428e+02     1.2665      0.165      0.239    16.3011 0.0000e+00
      0.169      0.004     6.9778     71.155     35.007  28.919430     0.3284      7.239   311.0664 3.4596e+02     1.2660      0.166      0.240    16.3020 0.0000e+00
      0.170      0.004     6.9749     71.125     34.993  28.907999     0.3385      7.236   311.0199 2.7445e+02     1.2340      0.166      0.241    16.3021 0.0000e+00
      0.171      0.005     6.9734     71.110     35.007  28.919668     0.3468      7.234   310.9434 2.4358e+02     1.1538      0.167      0.243    16.3032 0.0000e+00
      0.173      0.005     6.9703     71.079     35.023  28.933515     0.3466      7.235   310.9157 2.9180e+02     1.0895      0.169      0.246    16.3031 0.0000e+00
      0.174      0.004     6.9647     71.022     35.041  28.948410     0.3454      7.237   310.8571 3.2975e+02     1.0671      0.171      0.247    16.3016 0.0000e+00
      0.176      0.003     6.9582     70.955     35.071  28.972769     0.3409      7.239   310.8373 3.2610e+02     1.0661      0.173      0.250    16.3013 0.0000e+00
      0.177      0.001     6.9523     70.895     35.072  28.974029     0.3293      7.242   311.0195 3.4234e+02     1.0775      0.174      0.252    16.3020 0.0000e+00
      0.177     -0.001     6.9466     70.838     35.059  28.963639     0.3246      7.245   311.2539 3.4175e+02     1.1128      0.175      0.254    16.3026 0.0000e+00
      0.177     -0.002     6.9405     70.775     35.073  28.974145     0.3293      7.246   311.3488 2.8998e+02     1.1266      0.174      0.252    16.3025 0.0000e+00
      0.174     -0.002     6.9360     70.728     35.073  28.974050     0.3400      7.247   311.3062 3.3324e+02     1.0920      0.169      0.247    16.3021 0.0000e+00
      0.171     -0.001     6.9376     70.744     35.059  28.962496     0.3439      7.248   311.1695 4.8605e+02     1.0602      0.167      0.243    16.3027 0.0000e+00
      0.171      0.000     6.9389     70.759     35.057  28.961446     0.3305      7.249   311.0724 5.0683e+02     1.0787      0.167      0.242    16.3026 0.0000e+00
      0.173      0.001     6.9346     70.716     35.057  28.961359     0.3252      7.249   311.1637 3.8143e+02     1.1321      0.169      0.247    16.3018 0.0000e+00
      0.175      0.001     6.9325     70.694     35.057  28.961444     0.3352      7.245   311.2411 3.1277e+02     1.1563      0.172      0.249    16.3012 0.0000e+00
      0.176     -0.001     6.9313     70.679     35.060  28.962483     0.3323      7.240   311.1481 3.1175e+02     1.1578      0.173      0.250    16.3013 0.0000e+00
      0.176     -0.006     6.9257     70.617     35.076  28.973916     0.3263      7.238   311.0717 3.4507e+02     1.1510      0.173      0.250    16.3022 0.0000e+00
      0.175     -0.016     6.9173     70.530     35.075  28.972666     0.3359      7.238   311.0063 4.2627e+02     1.1042      0.171      0.248    16.3029 0.0000e+00
      0.173     -0.027     6.9082     70.439     35.043  28.947379     0.3388      7.238   310.9593 4.7242e+02     1.0492      0.168      0.244    16.3027 0.0000e+00
      0.168     -0.033     6.9031     70.388     35.012  28.922179     0.3337      7.236   311.1057 4.8059e+02     1.0362      0.169      0.245    16.3012 0.0000e+00
      0.155     -0.034     6.9063     70.421     35.012  28.921979     0.3295      7.226   311.3136 5.9914e+02     1.0691      0.157      0.227    16.2967 0.0000e+00
      0.133     -0.033     6.9165     70.522     35.042  28.944967     0.3244      7.209   311.3220 7.4593e+02     1.1106      0.126      0.183    16.2956 0.0000e+00
      0.118     -0.032     6.9302     70.654     35.047  28.946111     0.3277      7.195   311.2932 8.2495e+02     1.1116      0.110      0.159    16.2990 0.0000e+00
      0.117     -0.035     6.9442     70.789     35.040  28.935815     0.3137      7.194   311.4821 8.4702e+02     1.0806      0.113      0.163    16.2984 0.0000e+00
      0.122     -0.040     6.9608     70.953     35.058  28.947474     0.2743      7.200   311.6268 7.7989e+02     1.0715      0.123      0.178    16.2987 0.0000e+00
      0.119     -0.051     6.9875     71.224     35.073  28.960070     0.2557      7.209   311.5797 6.8058e+02     1.0630      0.124      0.179    16.2990 0.0000e+00
      0.103     -0.069     7.0270     71.629     35.073  28.961111     0.2632      7.216   311.6006 6.9110e+02     1.0386      0.104      0.151    16.2925 0.0000e+00
      0.078     -0.086     7.0750     72.118     35.072  28.960060     0.2737      7.222   311.7076 9.1565e+02     1.0507      0.078      0.113    16.2842 0.0000e+00
      0.047     -0.096     7.1253     72.628     35.058  28.947369     0.2729      7.229   311.8412 1.1234e+03     1.0575      0.049      0.071    16.2809 0.0000e+00
      0.013     -0.094     7.1707     73.084     35.046  28.934659     0.2620      7.235   312.0112 1.1656e+03     1.0591      0.012      0.017    16.2814 0.0000e+00
     -0.018     -0.080     7.2042     73.414     35.050  28.933390     0.2616      7.240   312.1282 1.2239e+03     1.1001     -0.021     -0.031    16.2834 0.0000e+00
     -0.039     -0.060     7.2213     73.574     35.057  28.932027     0.2684      7.243   312.2246 1.2728e+03     1.1266     -0.044     -0.063    16.2839 0.0000e+00
     -0.049     -0.038     7.2186     73.530     35.049  28.918162     0.2707      7.245   312.3160 1.2605e+03     1.1041     -0.052     -0.074    16.2813 0.0000e+00
     -0.049     -0.017     7.1947     73.271     35.027  28.892752     0.2711      7.245   312.3727 1.2631e+03     1.0727     -0.048     -0.070    16.2779 0.0000e+00
     -0.046     -0.002     7.1524     72.828     35.017  28.878793     0.2732      7.244   312.3082 1.2735e+03     1.0827     -0.045     -0.066    16.2716 0.0000e+00
     -0.042      0.006     7.0982     72.267     35.019  28.876379     0.2773      7.244   312.1373 1.2831e+03     1.1030     -0.042     -0.060    16.2610 0.0000e+00
     -0.039      0.009     7.0417     71.684     35.007  28.863566     0.2847      7.244   312.1140 1.2921e+03     1.1041     -0.039     -0.056    16.2491 0.0000e+00
     -0.037      0.008     6.9928     71.180     34.995  28.850875     0.2977      7.243   312.1984 1.2951e+03     1.0967     -0.037     -0.053    16.2392 0.0000e+00
     -0.035      0.007     6.9541     70.780     34.998  28.849929     0.3149      7.243   312.2118 1.2934e+03     1.0738     -0.034     -0.049    16.2315 0.0000e+00
     -0.033      0.006     6.9334     70.562     35.004  28.852125     0.3278      7.245   312.1894 1.2897e+03     1.0723     -0.032     -0.047    16.2256 0.0000e+00
     -0.032      0.005     6.9457     70.682     35.039  28.877422     0.3159      7.247   312.1859 1.2823e+03     1.0783     -0.032     -0.047    16.2209 0.0000e+00
     -0.031      0.004     6.9870     71.098     35.070  28.901782     0.2900      7.248   312.2545 1.2697e+03     1.0548     -0.031     -0.045    16.2170 0.0000e+00
     -0.030      0.004     7.0440     71.676     35.060  28.892651     0.2807      7.248   312.4169 1.2687e+03     1.0628     -0.029     -0.043    16.2127 0.0000e+00
     -0.029      0.003     7.1071     72.316     35.063  28.894017     0.2765      7.247   312.6013 1.2816e+03     1.0836     -0.028     -0.042    16.2079 0.0000e+00
     -0.028      0.003     7.1651     72.905     35.094  28.918292     0.2674      7.246   312.6766 1.2891e+03     1.0926     -0.029     -0.041    16.2041 0.0000e+00
     -0.027      0.002     7.2115     73.376     35.111  28.932148     0.2624      7.247   312.6390 1.2872e+03     1.1097     -0.027     -0.039    16.2018 0.0000e+00
     -0.027      0.002     7.2444     73.709     35.115  28.934543     0.2623      7.247   312.5775 1.2923e+03     1.1078     -0.025     -0.038    16.2005 0.0000e+00
     -0.027      0.002     7.2584     73.851     35.130  28.947253     0.2658      7.247   312.5355 1.3009e+03     1.1002     -0.026     -0.038    16.1993 0.0000e+00
     -0.027      0.002     7.2500     73.764     35.145  28.958818     0.2681      7.247   312.4749 1.2996e+03     1.0790     -0.027     -0.039    16.1981 0.0000e+00
     -0.026      0.002     7.2247     73.507     35.131  28.947377     0.2629      7.247   312.3610 1.2961e+03     1.0645     -0.027     -0.038    16.1970 0.0000e+00
     -0.025      0.003     7.1892     73.145     35.117  28.935927     0.2582      7.246   312.3640 1.2872e+03     1.0471     -0.025     -0.036    16.1962 0.0000e+00
     -0.024      0.003     7.1473     72.719     35.131  28.947378     0.2661      7.244   312.4244 1.2727e+03     1.0212     -0.024     -0.035    16.1956 0.0000e+00
     -0.024      0.004     7.1036     72.274     35.145  28.958820     0.2849      7.244   312.4031 1.2675e+03     1.1177     -0.023     -0.034    16.1951 0.0000e+00
     -0.023      0.004     7.0598     71.828     35.132  28.947265     0.3119      7.245   312.4498 1.2716e+03     1.2681     -0.023     -0.033    16.1950 0.0000e+00
     -0.022      0.003     7.0178     71.399     35.117  28.934679     0.3249      7.246   312.6454 1.2821e+03     1.3132     -0.021     -0.031    16.1952 0.0000e+00
     -0.021      0.003     6.9806     71.019     35.116  28.933649     0.3228      7.246   312.7893 1.3011e+03     1.2968     -0.020     -0.029    16.1952 0.0000e+00
     -0.021      0.002     6.9510     70.717     35.118  28.934804     0.3328      7.245   312.8125 1.3143e+03     1.2840     -0.020     -0.029    16.1950 0.0000e+00
     -0.020      0.000     6.9277     70.479     35.136  28.948650     0.3260      7.244   312.8402 1.3151e+03     1.2808     -0.019     -0.028    16.1946 0.0000e+00
     -0.020     -0.001     6.9066     70.264     35.168  28.974048     0.2958      7.239   312.8657 1.3092e+03     1.2882     -0.019     -0.027    16.1937 0.0000e+00
     -0.020     -0.001     6.8879     70.074     35.184  28.987881     0.2803      7.232   312.9487 1.3001e+03     1.3129     -0.020     -0.028    16.1927 0.0000e+00
     -0.021     -0.001     6.8707     69.902     35.184  28.988901     0.2764      7.226   313.0702 1.3028e+03     1.3351     -0.020     -0.029    16.1917 0.0000e+00
     -0.022     -0.001     6.8510     69.707     35.178  28.986382     0.2939      7.223   313.1299 1.3191e+03     1.2816     -0.022     -0.032    16.1907 0.0000e+00
     -0.022      0.000     6.8279     69.482     35.136  28.957422     0.3266      7.224   313.0688 1.3351e+03     1.1545     -0.023     -0.033    16.1902 0.0000e+00
     -0.022      0.000     6.8010     69.224     35.049  28.892765     0.3415      7.227   313.0193 1.3435e+03     1.0797     -0.022     -0.031    16.1909 0.0000e+00
     -0.021      0.001     6.7822     69.056     34.971  28.839651     0.3445      7.230   313.1335 1.3429e+03     1.0790     -0.021     -0.030    16.1928 0.0000e+00
     -0.020      0.003     6.8290     69.566     34.932  28.823266     0.3270      7.233   313.2456 1.3367e+03     1.1157     -0.020     -0.028    16.1940 0.0000e+00
     -0.020      0.005     7.0169     71.513     34.912  28.821672     0.2947      7.235   313.3411 1.3317e+03     1.1581     -0.020     -0.029    16.2027 0.0000e+00
     -0.020      0.007     7.3674     75.104     34.900  28.820390     0.2755      7.235   313.4283 1.3317e+03     1.1338     -0.021     -0.030    16.2132 0.0000e+00
     -0.019      0.008     7.8397     79.929     34.879  28.807781     0.2703      7.235   313.3537 1.3257e+03     1.0962     -0.020     -0.027    16.2259 0.0000e+00
     -0.015      0.008     8.3668     85.308     34.862  28.796234     0.2682      7.236   313.2997 1.3108e+03     1.1000     -0.015     -0.021    16.2539 0.0000e+00
     -0.010      0.007     8.8902     90.646     34.876  28.807779     0.2686      7.238   313.3768 1.2966e+03     1.1193     -0.010     -0.014    16.2777 0.0000e+00
     -0.006      0.004     9.3604     95.441     34.891  28.820366     0.2760      7.238   313.4262 1.2834e+03     1.1461     -0.005     -0.007    16.2889 0.0000e+00
     -0.006      0.002     9.7268     99.177     34.892  28.821416     0.2745      7.238   313.4665 1.2714e+03     1.1489     -0.005     -0.007    16.2944 0.0000e+00
     -0.009      0.000     9.9620    101.577     34.890  28.820479     0.2689      7.237   313.6056 1.2578e+03     1.1232     -0.010     -0.014    16.2960 0.0000e+00
     -0.012     -0.002    10.0721    102.700     34.876  28.809038     0.2900      7.237   313.8178 1.2418e+03     1.1099     -0.013     -0.018    16.2963 0.0000e+00
     -0.012     -0.002    10.0834    102.815     34.878  28.810088     0.3282      7.236   313.9679 1.2278e+03     1.1107     -0.013     -0.019    16.2963 0.0000e+00
     -0.011     -0.001    10.0364    102.336     34.906  28.833171     0.3451      7.230   314.0441 1.2177e+03     1.1017     -0.011     -0.015    16.2973 0.0000e+00
     -0.011      0.001     9.9670    101.631     34.906  28.834116     0.3372      7.218   314.1358 1.2180e+03     1.0931     -0.010     -0.015    16.2980 0.0000e+00
     -0.011      0.001     9.8903    100.853     34.889  28.821520     0.3249      7.203   314.2163 1.2339e+03     1.0979     -0.011     -0.016    16.2984 0.0000e+00
     -0.010      0.001     9.8152    100.090     34.871  28.807884     0.3256      7.192   314.1570 1.2625e+03     1.1292     -0.011     -0.015    16.2978 0.0000e+00
     -0.009      0.001     9.7495     99.420     34.857  28.796253     0.3357      7.185   314.0219 1.2931e+03     1.1360     -0.009     -0.012    16.2976 0.0000e+00
     -0.009      0.001     9.6914     98.827     34.871  28.807894     0.3374      7.181   313.9589 1.3123e+03     1.0882     -0.009     -0.013    16.2988 0.0000e+00
     -0.009      0.001     9.6397     98.300     34.888  28.821624     0.3177      7.182   313.9982 1.3173e+03     1.1316     -0.010     -0.015    16.3008 0.0000e+00
     -0.009      0.000     9.5981     97.876     34.905  28.835261     0.2818      7.187   314.1530 1.3115e+03     1.2641     -0.009     -0.013    16.3027 0.0000e+00
     -0.009 1.8629e-08     9.5632     97.519     34.918  28.845776     0.2622      7.192   314.2813 1.2991e+03     1.3169     -0.008     -0.011    16.3029 0.0000e+00
     -0.009 2.0491e-07     9.5314     97.192     34.890  28.821749     0.2645      7.198   314.2589 1.2875e+03     1.2815     -0.008     -0.012    16.3021 0.0000e+00
     -0.009 2.0491e-07     9.5065     96.937     34.862  28.798762     0.2639      7.204   314.2265 1.2806e+03     1.2018     -0.010     -0.014    16.3023 0.0000e+00
     -0.009 1.8601e-08     9.4894     96.762     34.891  28.821852     0.2638      7.209   314.2341 1.2779e+03     1.1158     -0.009     -0.013    16.3023 0.0000e+00
     -0.009 1.3882e-09     9.4759     96.624     34.921  28.846921     0.2722      7.214   314.2640 1.2777e+03     1.0965     -0.009     -0.013    16.3012 0.0000e+00
     -0.009 -3.205e-09     9.4654     96.515     34.923  28.847857     0.2823      7.219   314.3291 1.2803e+03     1.1218     -0.010     -0.014    16.3000 0.0000e+00
     -0.009 -3.693e-08     9.4584     96.440     34.906  28.833169     0.3036      7.223   314.2473 1.2865e+03     1.1158     -0.009     -0.013    16.2997 0.0000e+00
     -0.008 -4.064e-07     9.4537     96.388     34.863  28.796337     0.3271      7.224   314.1356 1.2931e+03     1.0849     -0.008     -0.012    16.2994 0.0000e+00
     -0.008      0.000     9.4524     96.371     34.849  28.783535     0.3372      7.226   314.1833 1.2991e+03     1.0834     -0.007     -0.011    16.2992 0.0000e+00
     -0.009      0.000     9.4528     96.371     34.878  28.805377     0.3432      7.228   314.3079 1.3047e+03     1.1284     -0.009     -0.013    16.2987 0.0000e+00
     -0.009     -0.001     9.4509     96.347     34.881  28.806417     0.3441      7.230   314.5232 1.3090e+03     1.1716     -0.010     -0.014    16.2969 0.0000e+00
     -0.009     -0.001     9.4467     96.301     34.870  28.796111     0.3476      7.232   314.6353 1.3142e+03     1.2095     -0.009     -0.013    16.2951 0.0000e+00
     -0.009      0.000     9.4407     96.239     34.884  28.807770     0.3490      7.233   314.6318 1.3194e+03     1.2812     -0.009     -0.013    16.2927 0.0000e+00
     -0.010 -2.214e-08     9.4342     96.176     34.898  28.820375     0.3345      7.232   314.6528 1.3205e+03     1.3367     -0.009     -0.014    16.2901 0.0000e+00
     -0.010 -2.435e-07     9.4272     96.109     34.898  28.821519     0.3278      7.232   314.6304 1.3168e+03     1.3311     -0.010     -0.015    16.2885 0.0000e+00
     -0.009 -6.465e-07     9.4196     96.034     34.897  28.821614     0.3143      7.233   314.6194 1.3106e+03     1.2437     -0.009     -0.013    16.2863 0.0000e+00
     -0.009      0.000     9.4150     95.988     34.897  28.821519     0.2810      7.234   314.6061 1.3052e+03     1.1352     -0.008     -0.012    16.2858 0.0000e+00
     -0.009      0.000     9.4154     95.990     34.896  28.820364     0.2656      7.234   314.5551 1.3012e+03     1.1176     -0.009     -0.013    16.2879 0.0000e+00
     -0.010     -0.001     9.4208     96.041     34.882  28.807655     0.2656      7.234   314.6058 1.3017e+03     1.1222     -0.010     -0.014    16.2904 0.0000e+00
     -0.010     -0.001     9.4292     96.120     34.869  28.794850     0.2629      7.234   314.7886 1.3058e+03     1.0688     -0.010     -0.014    16.2919 0.0000e+00
     -0.010     -0.001     9.4373     96.196     34.869  28.792542     0.2600      7.234   314.8729 1.3090e+03     1.0523     -0.010     -0.015    16.2924 0.0000e+00
     -0.011     -0.000     9.4440     96.259     34.856  28.779747     0.2685      7.233   314.8502 1.3106e+03     1.1053     -0.011     -0.015    16.2914 0.0000e+00
     -0.012      0.001     9.4486     96.303     34.842  28.767151     0.2816      7.233   314.7721 1.3092e+03     1.1302     -0.011     -0.017    16.2893 0.0000e+00
     -0.012      0.001     9.4514     96.327     34.844  28.767246     0.2712      7.233   314.6162 1.3077e+03     1.1086     -0.012     -0.018    16.2863 0.0000e+00
     -0.011      0.000     9.4520     96.328     34.862  28.780891     0.2537      7.233   314.5147 1.3157e+03     1.0881     -0.011     -0.015    16.2816 0.0000e+00
     -0.008     -0.001     9.4506     96.314     34.892  28.805127     0.2537      7.230   314.4916 1.3341e+03     1.0662     -0.008     -0.010    16.2792 0.0000e+00
     -0.008     -0.001     9.4490     96.304     34.891  28.806272     0.2631      7.229   314.5077 1.3485e+03     1.0268     -0.006     -0.009    16.2792 0.0000e+00
     -0.010     -0.001     9.4483     96.304     34.874  28.794745     0.2749      7.228   314.5377 1.3476e+03     1.0087     -0.009     -0.014    16.2765 0.0000e+00
     -0.013     -0.002     9.4477     96.302     34.870  28.792759     0.2764      7.226   314.6824 1.3324e+03     1.0303     -0.014     -0.020    16.2727 0.0000e+00
     -0.013     -0.002     9.4463     96.289     34.856  28.782264     0.2727      7.222   314.8818 1.3089e+03     1.0747     -0.013     -0.019    16.2718 0.0000e+00
     -0.012     -0.002     9.4435     96.261     34.871  28.794850     0.2760      7.217   314.8836 1.2887e+03     1.1173     -0.011     -0.017    16.2761 0.0000e+00
     -0.012     -0.001     9.4405     96.232     34.899  28.817931     0.2793      7.213   314.7895 1.2825e+03     1.1183     -0.011     -0.017    16.2815 0.0000e+00
     -0.013      0.000     9.4407     96.238     34.884  28.807331     0.2764      7.211   314.8623 1.2904e+03     1.0872     -0.013     -0.018    16.2833 0.0000e+00
     -0.013      0.000     9.4428     96.263     34.866  28.793686     0.2678      7.211   315.0753 1.3051e+03     1.0465     -0.014     -0.020    16.2830 0.0000e+00
     -0.013      0.000     9.4445     96.283     34.849  28.779964     0.2670      7.212   315.2143 1.3189e+03     1.0224     -0.013     -0.019    16.2831 0.0000e+00
     -0.013      0.001     9.4469     96.308     34.834  28.768420     0.2767      7.212   315.1663 1.3264e+03     1.0708     -0.013     -0.018    16.2838 0.0000e+00
     -0.013      0.002     9.4493     96.333     34.850  28.781111     0.2929      7.212   315.0982 1.3267e+03     1.1126     -0.013     -0.018    16.2857 0.0000e+00
     -0.012      0.004     9.4485     96.325     34.880  28.806404     0.3156      7.212   315.1642 1.3224e+03     1.0698     -0.012     -0.017    16.2881 0.0000e+00
     -0.011      0.004     9.4447     96.287     34.897  28.820239     0.3305      7.211   315.1900 1.3170e+03     1.0421     -0.011     -0.016    16.2895 0.0000e+00
     -0.010      0.004     9.4397     96.236     34.898  28.821383     0.3356      7.210   315.1528 1.3130e+03     1.0834     -0.010     -0.015    16.2898 0.0000e+00
     -0.008      0.004     9.4327     96.166     34.896  28.820240     0.3220      7.209   315.0579 1.3126e+03     1.1108     -0.008     -0.012    16.2894 0.0000e+00
     -0.006      0.003     9.4264     96.104     34.878  28.806415     0.2847      7.208   314.9030 1.3141e+03     1.0688     -0.005     -0.008    16.2894 0.0000e+00
     -0.005      0.002     9.4232     96.073     34.847  28.781234     0.2621      7.207   314.8288 1.3101e+03     1.0329     -0.004     -0.006    16.2898 0.0000e+00
     -0.006      0.002     9.4236     96.078     34.833  28.769784     0.2691      7.207   314.7625 1.2964e+03     1.0732     -0.005     -0.007    16.2903 0.0000e+00
     -0.007      0.002     9.4266     96.108     34.863  28.794964     0.2781      7.208   314.7901 1.2847e+03     1.1288     -0.006     -0.010    16.2914 0.0000e+00
     -0.007      0.001     9.4283     96.127     34.907  28.831683     0.2785      7.208   314.9907 1.2854e+03     1.1257     -0.007     -0.011    16.2920 0.0000e+00
     -0.005     -0.001     9.4299     96.146     34.908  28.832741     0.2738      7.207   315.2088 1.2840e+03     1.0967     -0.005     -0.007    16.2923 0.0000e+00
     -0.004     -0.003     9.4340     96.191     34.876  28.807758     0.2668      7.202   315.3618 1.2773e+03     1.0837     -0.003     -0.004    16.2930 0.0000e+00
     -0.004     -0.004     9.4377     96.235     34.845  28.783627     0.2856      7.192   315.3778 1.2847e+03     1.0903     -0.002     -0.003    16.2934 0.0000e+00
     -0.006     -0.006     9.4412     96.276     34.856  28.794984     0.3180      7.185   315.2306 1.3139e+03     1.1152     -0.006     -0.008    16.2933 0.0000e+00
     -0.010     -0.007     9.4466     96.334     34.882  28.818067     0.3280      7.184   315.1306 1.3577e+03     1.1103     -0.012     -0.016    16.2942 0.0000e+00
     -0.013     -0.007     9.4494     96.363     34.871  28.808715     0.3322      7.185   315.2019 1.3847e+03     1.0609     -0.014     -0.020    16.2964 0.0000e+00
     -0.015     -0.006     9.4458     96.326     34.871  28.808914     0.3230      7.187   315.2316 1.3831e+03     1.0364     -0.015     -0.021    16.2994 0.0000e+00
     -0.015     -0.003     9.4378     96.245     34.885  28.820478     0.2909      7.189   315.2315 1.3750e+03     1.0588     -0.015     -0.022    16.3021 0.0000e+00
     -0.015      0.001     9.4271     96.138     34.885  28.821529     0.2745      7.192   315.3727 1.3675e+03     1.0883     -0.014     -0.021    16.3038 0.0000e+00
     -0.015      0.003     9.4178     96.046     34.884  28.821625     0.2715      7.194   315.6484 1.3675e+03     1.0878     -0.015     -0.021    16.3039 0.0000e+00
     -0.014      0.004     9.4134     96.003     34.883  28.821643     0.2645      7.197   315.7264 1.3742e+03     1.0826     -0.015     -0.021    16.3035 0.0000e+00
     -0.012      0.003     9.4134     96.006     34.883  28.821748     0.2535      7.200   315.5414 1.3662e+03     1.1472     -0.013     -0.019    16.3041 0.0000e+00
     -0.009      0.002     9.4188     96.065     34.883  28.822884     0.2308      7.201   315.4758 1.3379e+03     1.2582     -0.009     -0.013    16.3052 0.0000e+00
     -0.008     -0.000     9.4286     96.166     34.897  28.835384     0.2103      7.202   315.4496 1.3008e+03     1.2965     -0.006     -0.009    16.3066 0.0000e+00
     -0.008     -0.002     9.4395     96.276     34.910  28.845889     0.1992      7.204   315.3110 1.2648e+03     1.2744     -0.007     -0.011    16.3081 0.0000e+00
     -0.011     -0.003     9.4491     96.374     34.882  28.822894     0.2076      7.206   315.2630 1.2344e+03     1.2358     -0.010     -0.016    16.3096 0.0000e+00
     -0.015     -0.003     9.4535     96.417     34.869  28.811358     0.2372      7.205   315.4714 1.2176e+03     1.1345     -0.014     -0.021    16.3108 0.0000e+00
     -0.016     -0.003     9.4509     96.389     34.896  28.833408     0.2532      7.202   315.6790 1.2210e+03     1.0574     -0.017     -0.025    16.3110 0.0000e+00
     -0.015     -0.005     9.4453     96.331     34.899  28.835499     0.2550      7.202   315.6224 1.2419e+03     1.0661     -0.016     -0.023    16.3111 0.0000e+00
     -0.012     -0.008     9.4390     96.265     34.901  28.836636     0.2588      7.202   315.4753 1.2730e+03     1.0874     -0.012     -0.017    16.3111 0.0000e+00
     -0.012     -0.011     9.4300     96.174     34.914  28.847150     0.2631      7.203   315.3626 1.3030e+03     1.1006     -0.010     -0.015    16.3098 0.0000e+00
     -0.016     -0.013     9.4185     96.058     34.900  28.835623     0.2701      7.205   315.2928 1.3220e+03     1.1040     -0.014     -0.020    16.3087 0.0000e+00
     -0.025     -0.014     9.4076     95.946     34.887  28.824268     0.2790      7.208   315.3194 1.3240e+03     1.0980     -0.025     -0.037    16.3086 0.0000e+00
     -0.034     -0.014     9.3990     95.856     34.902  28.836863     0.2875      7.209   315.4260 1.3195e+03     1.1497     -0.036     -0.052    16.3085 0.0000e+00
     -0.037     -0.012     9.3961     95.826     34.931  28.860900     0.2895      7.209   315.5491 1.3185e+03     1.2406     -0.037     -0.054    16.3086 0.0000e+00
     -0.037     -0.007     9.4000     95.867     34.931  28.860890     0.2860      7.209   315.6898 1.3081e+03     1.2818     -0.036     -0.052    16.3089 0.0000e+00
     -0.036     -0.003     9.4070     95.938     34.901  28.836738     0.2815      7.209   315.7504 1.2934e+03     1.2815     -0.036     -0.052    16.3082 0.0000e+00
     -0.036      0.000     9.4165     96.036     34.884  28.822894     0.2723      7.209   315.6789 1.2871e+03     1.2372     -0.035     -0.051    16.3068 0.0000e+00
     -0.036      0.002     9.4268     96.141     34.882  28.820500     0.2658      7.210   315.6000 1.2891e+03     1.1424     -0.035     -0.051    16.3070 0.0000e+00
     -0.035      0.004     9.4350     96.223     34.867  28.807790     0.2678      7.211   315.4850 1.2939e+03     1.0510     -0.035     -0.050    16.3077 0.0000e+00
     -0.035      0.010     9.4412     96.286     34.853  28.796234     0.2693      7.211   315.3203 1.2968e+03     1.0176     -0.034     -0.050    16.3075 0.0000e+00
     -0.034      0.023     9.4446     96.320     34.867  28.807779     0.2644      7.207   315.1578 1.3015e+03     1.0441     -0.033     -0.047    16.3075 0.0000e+00
     -0.031      0.042     9.4461     96.333     34.884  28.820375     0.2551      7.197   314.9836 1.3039e+03     1.0961     -0.031     -0.045    16.3076 0.0000e+00
     -0.026      0.061     9.4466     96.332     34.887  28.821520     0.2482      7.187   314.7629 1.3119e+03     1.1578     -0.029     -0.042    16.3074 0.0000e+00
     -0.008      0.074     9.4461     96.321     34.890  28.821624     0.2548      7.182   314.4676 1.4031e+03     1.1494     -0.016     -0.024    16.3069 0.0000e+00
      0.027      0.081     9.4461     96.316     34.892  28.821633     0.2711      7.183   314.2522 1.3876e+03     1.0862      0.026      0.037    16.3067 0.0000e+00
      0.065      0.081     9.4475     96.325     34.894  28.821624     0.2799      7.187   314.2235 1.0919e+03     1.0656      0.073      0.106    16.3062 0.0000e+00
      0.087      0.076     9.4505     96.351     34.896  28.821511     0.2779      7.190   314.1211 9.6550e+02     1.0530      0.088      0.128    16.3035 0.0000e+00
      0.097      0.065     9.4535     96.375     34.897  28.820262     0.2754      7.192   313.8744 1.0188e+03     1.0859      0.095      0.138    16.3003 0.0000e+00
      0.105      0.053     9.4552     96.385     34.883  28.806522     0.2768      7.194   313.8222 8.6228e+02     1.1579      0.103      0.150    16.2976 0.0000e+00
      0.114      0.044     9.4570     96.395     34.857  28.782380     0.2768      7.194   314.0054 6.7318e+02     1.1615      0.110      0.160    16.2950 0.0000e+00
      0.126      0.042     9.4589     96.404     34.862  28.782371     0.2748      7.195   314.1107 7.5133e+02     1.1291      0.123      0.178    16.2930 0.0000e+00
      0.139      0.043     9.4604     96.409     34.895  28.806408     0.2717      7.197   314.0630 1.0056e+03     1.1019      0.137      0.197    16.2888 0.0000e+00
      0.150      0.043     9.4617     96.415     34.913  28.818993     0.2665      7.199   314.1174 1.0574e+03     1.0768      0.148      0.215    16.2852 0.0000e+00
      0.160      0.043     9.4601     96.395     34.901  28.807533     0.2573      7.200   314.3384 8.7948e+02     1.0694      0.157      0.227    16.2826 0.0000e+00
      0.170      0.042     9.4516     96.308     34.886  28.794851     0.2434      7.201   314.4965 7.8637e+02     1.0427      0.167      0.241    16.2767 0.0000e+00
      0.181      0.039     9.4391     96.181     34.883  28.792656     0.2459      7.201   314.4805 8.6796e+02     1.0291      0.178      0.258    16.2709 0.0000e+00
      0.193      0.036     9.4274     96.060     34.869  28.780997     0.2596      7.201   314.4045 8.3999e+02     1.0877      0.190      0.276    16.2673 0.0000e+00
      0.203      0.032     9.4182     95.960     34.872  28.780882     0.2617      7.202   314.3518 6.4583e+02     1.1101      0.200      0.290    16.2653 0.0000e+00
      0.210      0.030     9.4137     95.905     34.889  28.791264     0.2808      7.205   314.3591 6.5074e+02     1.0866      0.206      0.297    16.2654 0.0000e+00
      0.215      0.029     9.4135     95.893     34.879  28.779509     0.3160      7.207   314.4056 9.8288e+02     1.1095      0.212      0.308    16.2667 0.0000e+00
      0.220      0.032     9.4155     95.907     34.865  28.765759     0.3286      7.207   314.3987 1.2266e+03     1.1428      0.216      0.314    16.2662 0.0000e+00
      0.226      0.037     9.4195     95.937     34.852  28.752017     0.3326      7.206   314.3621 1.0582e+03     1.1220      0.220      0.318    16.2630 0.0000e+00
      0.234      0.044     9.4266     95.980     34.851  28.740359     0.3363      7.203   314.3930 7.9175e+02     1.0720      0.229      0.332    16.2581 0.0000e+00
      0.247      0.049     9.4353     96.026     34.882  28.751787     0.3364      7.197   314.5140 7.5269e+02     1.0575      0.242      0.350    16.2521 0.0000e+00
      0.265      0.052     9.4398     96.045     34.907  28.763175     0.3438      7.192   314.6208 9.3857e+02     1.0675      0.260      0.375    16.2489 0.0000e+00
      0.283      0.052     9.4393     96.030     34.896  28.751028     0.3427      7.185   314.6522 1.1089e+03     1.0714      0.280      0.407    16.2496 0.0000e+00
      0.298      0.048     9.4377     96.013     34.874  28.731914     0.3325      7.180   314.7213 9.7911e+02     1.0740      0.293      0.425    16.2335 0.0000e+00
      0.308      0.043     9.4381     96.013     34.864  28.722581     0.3303      7.179   314.9403 7.1511e+02     1.0691      0.302      0.438    16.2045 0.0000e+00
      0.316      0.038     9.4407     96.025     34.844  28.701684     0.3338      7.180   315.1491 5.7501e+02     1.0734      0.310      0.450    16.1927 0.0000e+00
      0.324      0.033     9.4445     96.031     34.819  28.669758     0.3381      7.183   315.1808 5.2168e+02     1.1263      0.317      0.460    16.1897 0.0000e+00
      0.332      0.030     9.4461     95.996     34.822  28.654058     0.3372      7.187   315.2378 5.4397e+02     1.1590      0.326      0.473    16.1903 0.0000e+00
      0.340      0.028     9.4455     95.936     34.825  28.638825     0.3326      7.189   315.4079 9.9976e+02     1.1026      0.334      0.484    16.1897 0.0000e+00
      0.346      0.028     9.4451     95.893     34.810  28.612562     0.3375      7.191   315.6020 1.5075e+03     1.0548      0.340      0.492    16.1854 0.0000e+00
      0.353      0.027     9.4446     95.858     34.795  28.590500     0.3496      7.194   315.8641 1.1894e+03     1.0686      0.346      0.502    16.1688 0.0000e+00
      0.360      0.027     9.4441     95.813     34.779  28.562573     0.3503      7.197   316.0825 6.8836e+02     1.0862      0.353      0.511    16.1397 0.0000e+00
      0.366      0.028     9.4437     95.758     34.759  28.528883     0.3376      7.198   316.2625 6.3801e+02     1.0850      0.359      0.521    16.1103 0.0000e+00
      0.373      0.029     9.4433     95.694     34.749  28.500641     0.3246      7.199   316.4920 6.4244e+02     1.0845      0.366      0.531    16.0904 0.0000e+00
      0.381      0.029     9.4445     95.618     34.754  28.475083     0.3207      7.197   316.7070 5.9432e+02     1.1110      0.373      0.541    16.0850 0.0000e+00
      0.389      0.029     9.4466     95.544     34.793  28.473836     0.3285      7.195   316.9695 8.3777e+02     1.1306      0.382      0.554    16.0615 0.0000e+00
      0.397      0.029     9.4476     95.499     34.831  28.485519     0.3360      7.193   317.2568 1.0635e+03     1.1695      0.390      0.565    16.0335 0.0000e+00
      0.404      0.030     9.4496     95.496     34.845  28.489316     0.3374      7.191   317.4270 8.0026e+02     1.2455      0.397      0.575    16.0130 0.0000e+00
      0.411      0.031     9.4547     95.533     34.888  28.519734     0.3362      7.188   317.4785 5.5593e+02     1.2866      0.402      0.584    15.9661 0.0000e+00
      0.418      0.032     9.4623     95.607     34.909  28.535792     0.3396      7.185   317.4490 5.1826e+02     1.2999      0.409      0.594    15.9045 0.0000e+00
      0.427      0.033     9.4719     95.714     34.853  28.492958     0.3424      7.184   317.4146 5.3032e+02     1.2530      0.419      0.607    15.8808 0.0000e+00
      0.437      0.035     9.4818     95.814     34.796  28.446346     0.3333      7.184   317.4070 6.0441e+02     1.1467      0.429      0.622    15.8785 0.0000e+00
      0.446      0.038     9.4866     95.836     34.770  28.416720     0.3301      7.183   317.4439 6.2357e+02     1.0827      0.437      0.634    15.8663 0.0000e+00
      0.454      0.043     9.4842     95.755     34.760  28.388753     0.3414      7.181   317.6875 6.2027e+02     1.0901      0.445      0.645    15.8648 0.0000e+00
      0.464      0.048     9.4767     95.600     34.760  28.362177     0.3589      7.181   317.9440 5.7057e+02     1.1139      0.454      0.658    15.8747 0.0000e+00
      0.477      0.051     9.4650     95.397     34.780  28.349354     0.3768      7.180   318.0499 4.7705e+02     1.1267      0.467      0.676    15.8773 0.0000e+00
      0.493      0.051     9.4499     95.174     34.824  28.360672     0.3832      7.178   318.1072 4.8076e+02     1.1528      0.482      0.699    15.8660 0.0000e+00
      0.510      0.050     9.4362     95.001     34.852  28.371999     0.3902      7.176   318.2072 5.5709e+02     1.1550      0.501      0.725    15.8357 0.0000e+00
      0.526      0.047     9.4300     94.926     34.842  28.359289     0.3874      7.175   318.5696 6.1821e+02     1.1229      0.519      0.752    15.7942 0.0000e+00
      0.536      0.043     9.4334     94.947     34.816  28.333993     0.3588      7.174   318.9614 6.1296e+02     1.1003      0.526      0.764    15.7507 0.0000e+00
      0.541      0.039     9.4444     95.048     34.804  28.320148     0.3373      7.171   319.0736 6.1666e+02     1.0948      0.530      0.768    15.7073 0.0000e+00
      0.548      0.035     9.4544     95.133     34.809  28.318880     0.3302      7.170   319.1512 6.0451e+02     1.0874      0.537      0.779    15.6960 0.0000e+00
      0.558      0.032     9.4606     95.172     34.819  28.318662     0.3472      7.171   319.2975 5.3400e+02     1.1324      0.547      0.793    15.6954 0.0000e+00
      0.568      0.031     9.4659     95.204     34.827  28.317497     0.3860      7.172   319.3798 5.0540e+02     1.2731      0.558      0.809    15.6841 0.0000e+00
      0.577      0.030     9.4690     95.219     34.818  28.304787     0.4041      7.173   319.3723 4.4568e+02     1.3547      0.567      0.823    15.6831 0.0000e+00
      0.583      0.029     9.4696     95.214     34.807  28.291982     0.4006      7.175   319.1204 3.8108e+02     1.3247      0.573      0.831    15.6756 0.0000e+00
      0.589      0.026     9.4678     95.184     34.809  28.289673     0.3997      7.176   318.7432 3.5748e+02     1.3067      0.578      0.838    15.6609 0.0000e+00
      0.596      0.024     9.4656     95.150     34.798  28.276860     0.4119      7.179   318.6841 3.5370e+02     1.3204      0.584      0.847    15.6500 0.0000e+00
      0.602      0.022     9.4683     95.168     34.785  28.264056     0.4186      7.182   318.9213 3.7195e+02     1.3074      0.591      0.857    15.6422 0.0000e+00
      0.607      0.022     9.4773     95.244     34.789  28.261860     0.4080      7.184   319.1166 3.5756e+02     1.2723      0.596      0.865    15.6392 0.0000e+00
      0.612      0.022     9.4879     95.330     34.784  28.250305     0.4027      7.185   319.0665 3.4759e+02     1.2628      0.599      0.870    15.6326 0.0000e+00
      0.618      0.022     9.4962     95.391     34.795  28.251337     0.4187      7.186   319.0032 3.5491e+02     1.2220      0.605      0.877    15.6252 0.0000e+00
      0.624      0.022     9.5021     95.431     34.831  28.274324     0.4450      7.187   318.9537 3.7456e+02     1.1152      0.612      0.887    15.6238 0.0000e+00
      0.630      0.022     9.5088     95.486     34.836  28.274229     0.4540      7.187   318.7263 3.9569e+02     1.0396      0.618      0.896    15.6171 0.0000e+00
      0.636      0.022     9.5147     95.541     34.808  28.250193     0.4549      7.187   318.6623 4.0969e+02     1.0405      0.624      0.905    15.6046 0.0000e+00
      0.641      0.021     9.5116     95.506     34.795  28.237701     0.4652      7.187   318.7833 4.1626e+02     1.0642      0.629      0.912    15.5938 0.0000e+00
      0.646      0.020     9.4979     95.364     34.812  28.250193     0.4682      7.187   318.8122 4.0047e+02     1.0821      0.634      0.919    15.5826 0.0000e+00
      0.651      0.020     9.4861     95.246     34.841  28.274219     0.4632      7.187   318.7540 3.9149e+02     1.0737      0.637      0.925    15.5762 0.0000e+00
      0.656      0.021     9.4836     95.224     34.840  28.274199     0.4595      7.187   318.8536 3.8864e+02     1.0549      0.643      0.933    15.5774 0.0000e+00
      0.660      0.022     9.4821     95.205     34.811  28.249953     0.4596      7.187   319.1556 4.2883e+02     1.1295      0.647      0.939    15.5748 0.0000e+00
      0.665      0.025     9.4781     95.150     34.799  28.235068     0.4647      7.187   319.3079 5.8645e+02     1.2431      0.651      0.944    15.5708 0.0000e+00
      0.671      0.029     9.4755     95.097     34.793  28.221215     0.4665      7.189   319.2329 6.8765e+02     1.2691      0.659      0.954    15.5720 0.0000e+00
      0.679      0.032     9.4788     95.099     34.792  28.209442     0.4635      7.192   319.1945 6.8593e+02     1.2606      0.666      0.966    15.5749 0.0000e+00
      0.689      0.035     9.4906     95.190     34.816  28.219718     0.4653      7.192   319.3597 7.0634e+02     1.2919      0.675      0.980    15.5740 0.0000e+00
      0.699      0.039     9.5010     95.271     34.824  28.218450     0.4694      7.192   319.4247 6.3226e+02     1.3122      0.686      0.995    15.5680 0.0000e+00
      0.709      0.042     9.4985     95.224     34.804  28.194090     0.4671      7.193   319.1200 5.3207e+02     1.2931      0.696      1.010    15.5527 0.0000e+00
      0.719      0.046     9.4885     95.101     34.795  28.179184     0.4644      7.193   318.9449 4.9654e+02     1.2737      0.704      1.021    15.5344 0.0000e+00
      0.731      0.048     9.4786     94.976     34.789  28.165212     0.4648      7.193   319.0281 5.0633e+02     1.2613      0.716      1.038    15.5236 0.0000e+00
      0.745      0.049     9.4703     94.865     34.784  28.152138     0.4636      7.193   319.0934 5.3622e+02     1.2652      0.729      1.059    15.5114 0.0000e+00
      0.760      0.049     9.4639     94.775     34.790  28.148102     0.4674      7.193   319.1327 5.2874e+02     1.2904      0.744      1.080    15.5005 0.0000e+00
      0.774      0.047     9.4594     94.711     34.759  28.116405     0.4742      7.193   318.9868 4.8141e+02     1.3228      0.761      1.103    15.4904 0.0000e+00
      0.786      0.044     9.4589     94.696     34.726  28.086377     0.4725      7.192   318.8783 4.5162e+02     1.3515      0.772      1.119    15.4769 0.0000e+00
      0.796      0.040     9.4629     94.729     34.749  28.102541     0.4651      7.191   318.8527 4.9068e+02     1.3618      0.781      1.133    15.4636 0.0000e+00
      0.805      0.035     9.4709     94.800     34.776  28.121340     0.4586      7.190   318.6781 5.3325e+02     1.3557      0.790      1.145    15.4490 0.0000e+00
      0.813      0.031     9.4819     94.894     34.785  28.123161     0.4576      7.190   318.5731 5.1374e+02     1.3392      0.798      1.156    15.4396 0.0000e+00
      0.821      0.028     9.4949     95.003     34.795  28.124552     0.4617      7.190   318.6165 4.7731e+02     1.2846      0.805      1.167    15.4363 0.0000e+00
      0.828      0.025     9.5074     95.111     34.820  28.138149     0.4622      7.190   318.6865 4.8080e+02     1.2450      0.812      1.177    15.4331 0.0000e+00
      0.833      0.023     9.5164     95.203     34.847  28.160558     0.4544      7.190   318.9893 4.7580e+02     1.2865      0.817      1.185    15.4290 0.0000e+00
      0.838      0.021     9.5215     95.274     34.815  28.141493     0.4508      7.191   319.4378 5.1976e+02     1.3299      0.822      1.192    15.4225 0.0000e+00
      0.843      0.020     9.5236     95.307     34.756  28.098145     0.4552      7.193   319.6356 7.4550e+02     1.3117      0.827      1.199    15.4103 0.0000e+00
      0.847      0.020     9.5249     95.297     34.744  28.080941     0.4527      7.193   319.4873 8.6769e+02     1.2802      0.830      1.204    15.3978 0.0000e+00
      0.852      0.020     9.5231     95.236     34.737  28.060477     0.4486      7.193   319.0224 6.4688e+02     1.2843      0.835      1.211    15.3977 0.0000e+00
      0.858      0.021     9.5158     95.128     34.728  28.041202     0.4605      7.193   318.7465 5.0699e+02     1.3001      0.842      1.221    15.4132 0.0000e+00
      0.864      0.023     9.5080     95.022     34.736  28.038367     0.4770      7.194   318.9904 5.1908e+02     1.2889      0.847      1.229    15.4262 0.0000e+00
      0.869      0.025     9.5046     94.959     34.733  28.026187     0.4913      7.194   319.2181 4.6098e+02     1.2394      0.851      1.235    15.4118 0.0000e+00
      0.875      0.025     9.5046     94.945     34.733  28.020924     0.5143      7.194   319.0909 4.3454e+02     1.1598      0.857      1.243    15.3820 0.0000e+00
      0.882      0.025     9.5044     94.945     34.754  28.038232     0.5349      7.195   318.9141 4.5175e+02     1.1198      0.865      1.255    15.3682 0.0000e+00
      0.890      0.025     9.5032     94.929     34.764  28.044950     0.5478      7.195   318.8874 4.4649e+02     1.1223      0.874      1.267    15.3568 0.0000e+00
      0.896      0.025     9.5033     94.909     34.765  28.038653     0.5407      7.194   318.8542 4.4984e+02     1.0978      0.880      1.276    15.3366 0.0000e+00
      0.901      0.025     9.5055     94.900     34.762  28.025585     0.5132      7.194   318.8570 5.1521e+02     1.1291      0.883      1.280    15.3308 0.0000e+00
      0.907      0.024     9.5090     94.915     34.755  28.013935     0.4913      7.194   319.0071 5.6815e+02     1.2265      0.889      1.289    15.3361 0.0000e+00
      0.915      0.024     9.5121     94.949     34.767  28.024790     0.4783      7.194   319.0347 5.2566e+02     1.2684      0.897      1.301    15.3370 0.0000e+00
      0.922      0.025     9.5138     94.987     34.765  28.029826     0.4755      7.195   318.8467 4.3310e+02     1.2686      0.904      1.311    15.3244 0.0000e+00
      0.927      0.027     9.5165     95.031     34.735  28.011344     0.5044      7.195   318.9711 3.9399e+02     1.2595      0.909      1.319    15.3045 0.0000e+00
      0.932      0.032     9.5225     95.086     34.713  27.991820     0.5603      7.193   319.8509 4.0735e+02     1.2807      0.914      1.326    15.2937 0.0000e+00
      0.938      0.037     9.5309     95.148     34.712  27.984265     0.5998      7.189   320.4489 4.1028e+02     1.3113      0.920      1.334    15.2956 0.0000e+00
      0.947      0.042     9.5381     95.197     34.721  27.983481     0.6049      7.185   320.0067 4.6796e+02     1.2942      0.927      1.344    15.3103 0.0000e+00
      0.961      0.045     9.5437     95.235     34.727  27.982337     0.5945      7.182   319.5811 5.0205e+02     1.2867      0.941      1.364    15.3227 0.0000e+00
      0.979      0.046     9.5478     95.258     34.720  27.970422     0.5935      7.180   319.6910 4.3675e+02     1.2828      0.962      1.396    15.3185 0.0000e+00
      0.993      0.045     9.5495     95.262     34.721  27.966413     0.6022      7.180   319.9589 4.0025e+02     1.2774      0.977      1.417    15.3042 0.0000e+00
      1.003      0.041     9.5482     95.238     34.764  27.997358     0.6077      7.180   320.2391 4.0307e+02     1.3120      0.984      1.426    15.2930 0.0000e+00
      1.012      0.036     9.5422     95.167     34.805  28.027072     0.6151      7.181   320.4124 4.0492e+02     1.3359      0.992      1.440    15.2855 0.0000e+00
      1.019      0.032     9.5349     95.082     34.787  28.008179     0.6360      7.183   320.3329 3.5655e+02     1.3223      0.999      1.450    15.2757 0.0000e+00
      1.025      0.029     9.5294     95.007     34.735  27.959422     0.6577      7.185   320.1384 2.8954e+02     1.3302      1.005      1.458    15.2686 0.0000e+00
      1.033      0.028     9.5237     94.922     34.730  27.945536     0.6578      7.186   320.1259 2.5592e+02     1.3094      1.013      1.469    15.2646 0.0000e+00
      1.040      0.026     9.5152     94.812     34.767  27.967279     0.6372      7.187   320.1812 2.5902e+02     1.1938      1.020      1.480    15.2592 0.0000e+00
      1.047      0.025     9.5042     94.687     34.775  27.968301     0.6107      7.187   320.2054 2.7827e+02     1.0920      1.027      1.490    15.2540 0.0000e+00
      1.054      0.023     9.4949     94.587     34.765  27.957889     0.5943      7.187   320.3324 2.5340e+02     1.0857      1.034      1.499    15.2448 0.0000e+00
      1.059      0.021     9.4905     94.542     34.779  27.968393     0.5952      7.187   320.2537 2.3433e+02     1.1168      1.038      1.506    15.2285 0.0000e+00
      1.063      0.019     9.4894     94.530     34.780  27.968300     0.6032      7.188   320.1997 2.3953e+02     1.1325      1.043      1.512    15.2140 0.0000e+00
      1.068      0.019     9.4880     94.511     34.767  27.956755     0.5985      7.188   320.4543 2.5623e+02     1.1837      1.047      1.519    15.2082 0.0000e+00
      1.072      0.019     9.4855     94.479     34.769  27.955809     0.5933      7.189   320.6645 2.8140e+02     1.2781      1.050      1.525    15.2059 0.0000e+00
      1.077      0.019     9.4831     94.457     34.769  27.956859     0.6046      7.190   320.7620 2.7781e+02     1.3280      1.056      1.532    15.2047 0.0000e+00
      1.081      0.020     9.4827     94.467     34.779  27.969445     0.6165      7.191   320.8599 2.6212e+02     1.3300      1.060      1.538    15.2052 0.0000e+00
      1.086      0.021     9.4846     94.503     34.786  27.980999     0.6262      7.191   320.9016 2.5888e+02     1.3017      1.065      1.545    15.2026 0.0000e+00
      1.092      0.022     9.4870     94.538     34.767  27.969558     0.6401      7.191   320.7498 2.6380e+02     1.2599      1.070      1.553    15.1972 0.0000e+00
      1.098      0.022     9.4895     94.571     34.750  27.958117     0.6557      7.191   320.5736 2.6280e+02     1.2521      1.076      1.561    15.1970 0.0000e+00
      1.105      0.023     9.4913     94.599     34.760  27.969670     0.6680      7.192   320.5771 2.5509e+02     1.2693      1.084      1.571    15.2062 0.0000e+00
      1.111      0.023     9.4919     94.612     34.772  27.982255     0.6694      7.192   320.7064 2.5707e+02     1.2849      1.089      1.580    15.2170 0.0000e+00
      1.116      0.024     9.4921     94.610     34.775  27.983287     0.6634      7.191   320.7609 2.6722e+02     1.2882      1.093      1.587    15.2212 0.0000e+00
      1.121      0.025     9.4896     94.571     34.780  27.982142     0.6598      7.191   320.6336 2.7847e+02     1.2787      1.099      1.593    15.2232 0.0000e+00
      1.128      0.027     9.4831     94.488     34.771  27.968402     0.6621      7.190   320.3715 2.9919e+02     1.2917      1.106      1.603    15.2292 0.0000e+00
      1.135      0.029     9.4761     94.400     34.748  27.944148     0.6638      7.188   320.0874 3.0144e+02     1.3224      1.113      1.614    15.2349 0.0000e+00
      1.142      0.032     9.4732     94.356     34.753  27.942890     0.6619      7.184   320.1230 2.8674e+02     1.3147      1.120      1.624    15.2334 0.0000e+00
      1.151      0.035     9.4736     94.346     34.772  27.953176     0.6582      7.180   320.4580 2.8260e+02     1.2900      1.128      1.637    15.2233 0.0000e+00
      1.161      0.038     9.4750     94.342     34.765  27.941507     0.6555      7.178   320.6106 2.8268e+02     1.2982      1.138      1.652    15.2138 0.0000e+00
      1.169      0.041     9.4764     94.342     34.755  27.928799     0.6466      7.176   320.5906 2.8379e+02     1.3229      1.147      1.663    15.2059 0.0000e+00
      1.179      0.043     9.4797     94.369     34.755  27.926518     0.6252      7.175   320.6469 2.8126e+02     1.3439      1.156      1.675    15.1982 0.0000e+00
      1.193      0.044     9.4865     94.426     34.744  27.913924     0.6080      7.172   320.7752 2.7699e+02     1.3388      1.171      1.698    15.1936 0.0000e+00
      1.206      0.043     9.4931     94.476     34.738  27.903523     0.6043      7.171   320.8510 2.6384e+02     1.2914      1.183      1.716    15.1821 0.0000e+00
      1.218      0.042     9.4967     94.499     34.773  27.927757     0.5982      7.172   320.7900 2.5263e+02     1.2597      1.194      1.732    15.1735 0.0000e+00
      1.228      0.040     9.4972     94.499     34.806  27.952930     0.5894      7.172   320.8112 2.6908e+02     1.2611      1.206      1.748    15.1740 0.0000e+00
      1.237      0.037     9.4960     94.490     34.806  27.953875     0.5906      7.172   320.9354 2.9115e+02     1.2464      1.213      1.759    15.1690 0.0000e+00
      1.245      0.035     9.4950     94.487     34.785  27.939190     0.5937      7.172   320.8289 2.8672e+02     1.2342      1.220      1.771    15.1596 0.0000e+00
      1.253      0.033     9.4939     94.476     34.739  27.902369     0.5983      7.172   320.5562 2.7439e+02     1.2661      1.229      1.783    15.1520 0.0000e+00
      1.263      0.031     9.4923     94.449     34.728  27.889671     0.6013      7.173   320.3922 2.5986e+02     1.2969      1.238      1.796    15.1499 0.0000e+00
      1.272      0.030     9.4933     94.441     34.764  27.912656     0.5923      7.173   320.3083 2.4318e+02     1.3015      1.248      1.810    15.1522 0.0000e+00
      1.279      0.029     9.4962     94.454     34.788  27.926282     0.5825      7.173   320.1436 2.4330e+02     1.2910      1.255      1.820    15.1574 0.0000e+00
      1.285      0.028     9.4985     94.465     34.795  27.927407     0.5831      7.173   320.1213 2.5633e+02     1.2623      1.260      1.828    15.1590 0.0000e+00
      1.291      0.026     9.5021     94.488     34.799  27.926258     0.5901      7.173   320.4692 2.5998e+02     1.2592      1.266      1.837    15.1517 0.0000e+00
      1.298      0.026     9.5064     94.513     34.789  27.912396     0.5950      7.173   320.6509 2.5334e+02     1.2539      1.273      1.846    15.1412 0.0000e+00
      1.305      0.027     9.5097     94.517     34.769  27.886781     0.5963      7.173   320.5109 2.6541e+02     1.2279      1.280      1.857    15.1328 0.0000e+00
      1.312      0.028     9.5149     94.525     34.767  27.870533     0.5967      7.174   320.5827 2.7176e+02     1.2500      1.286      1.866    15.1282 0.0000e+00
      1.319      0.028     9.5217     94.538     34.757  27.842931     0.6002      7.175   320.6597 2.5390e+02     1.2773      1.293      1.875    15.1223 0.0000e+00
      1.327      0.028     9.5239     94.511     34.733  27.807019     0.6009      7.175   320.4957 2.4277e+02     1.2529      1.301      1.887    15.1149 0.0000e+00
      1.334      0.028     9.5222     94.460     34.760  27.817295     0.5874      7.176   320.4921 2.5470e+02     1.2297      1.309      1.898    15.1021 0.0000e+00
      1.341      0.027     9.5212     94.415     34.803  27.840165     0.5735      7.176   320.7013 2.7166e+02     1.2417      1.315      1.908    15.0804 0.0000e+00
      1.349      0.025     9.5213     94.379     34.806  27.829528     0.5801      7.176   320.8746 2.6939e+02     1.2759      1.323      1.919    15.0496 0.0000e+00
      1.356      0.023     9.5233     94.371     34.800  27.815665     0.5933      7.176   320.9532 2.6719e+02     1.3071      1.330      1.929    15.0218 0.0000e+00
      1.361      0.023     9.5271     94.394     34.786  27.799539     0.5965      7.177   320.9627 2.5973e+02     1.3131      1.336      1.937    15.0112 0.0000e+00
      1.365      0.024     9.5329     94.427     34.749  27.761547     0.5916      7.177   320.9897 2.4791e+02     1.3178      1.339      1.941    14.9949 0.0000e+00
      1.370      0.025     9.5413     94.459     34.741  27.737286     0.5885      7.177   321.1087 2.4196e+02     1.3335      1.342      1.947    14.9711 0.0000e+00
      1.376      0.026     9.5504     94.489     34.796  27.760177     0.5951      7.178   321.1967 2.4712e+02     1.3196      1.348      1.955    14.9583 0.0000e+00
      1.384      0.027     9.5544     94.491     34.842  27.784298     0.5983      7.178   321.1068 2.6123e+02     1.3029      1.357      1.968    14.9549 0.0000e+00
      1.393      0.027     9.5498     94.434     34.835  27.774918     0.5905      7.178   320.9682 2.5509e+02     1.3145      1.367      1.982    14.9492 0.0000e+00
      1.401      0.027     9.5405     94.337     34.835  27.773771     0.5837      7.178   320.9837 2.4992e+02     1.3079      1.375      1.994    14.9193 0.0000e+00
      1.407      0.028     9.5293     94.217     34.834  27.770421     0.5888      7.179   321.0356 2.6113e+02     1.3146      1.381      2.002    14.8806 0.0000e+00
      1.412      0.028     9.5162     94.070     34.797  27.734416     0.5978      7.179   320.9071 2.7347e+02     1.3346      1.384      2.007    14.8642 0.0000e+00
      1.417      0.029     9.5028     93.916     34.788  27.719419     0.5917      7.180   320.7216 2.7416e+02     1.3044      1.389      2.014    14.8625 0.0000e+00
      1.426      0.031     9.4925     93.793     34.793  27.716079     0.5797      7.180   320.7707 2.6668e+02     1.2853      1.399      2.028    14.8621 0.0000e+00
      1.435      0.034     9.4855     93.705     34.773  27.694020     0.5802      7.179   321.0703 2.5828e+02     1.3179      1.409      2.043    14.8586 0.0000e+00
      1.444      0.036     9.4790     93.623     34.797  27.706691     0.5894      7.179   321.2468 2.5543e+02     1.3329      1.416      2.053    14.8488 0.0000e+00
      1.453      0.037     9.4751     93.571     34.847  27.742280     0.5891      7.179   321.2700 2.6326e+02     1.3134      1.423      2.065    14.8364 0.0000e+00
      1.464      0.037     9.4768     93.579     34.853  27.743332     0.5860      7.179   321.3513 2.7063e+02     1.2957      1.436      2.082    14.8262 0.0000e+00
      1.474      0.036     9.4798     93.605     34.824  27.719400     0.6066      7.177   321.2828 2.7668e+02     1.3015      1.447      2.097    14.8169 0.0000e+00
      1.483      0.035     9.4811     93.620     34.807  27.706919     0.6364      7.176   321.3033 2.7217e+02     1.3234      1.454      2.108    14.8083 0.0000e+00
      1.491      0.034     9.4821     93.633     34.822  27.719420     0.6525      7.176   321.5120 2.7528e+02     1.3163      1.463      2.122    14.8016 0.0000e+00
      1.500      0.032     9.4829     93.642     34.852  27.743551     0.6543      7.176   321.5695 2.9411e+02     1.2763      1.471      2.133    14.7961 0.0000e+00
      1.508      0.030     9.4839     93.652     34.853  27.744686     0.6401      7.173   321.7400 2.9164e+02     1.2676      1.478      2.144    14.7939 0.0000e+00
      1.516      0.030     9.4874     93.686     34.838  27.733148     0.6183      7.171   321.9395 2.7961e+02     1.3022      1.487      2.157    14.7972 0.0000e+00
      1.523      0.029     9.4906     93.713     34.838  27.731048     0.6024      7.170   321.8303 2.8170e+02     1.2985      1.494      2.167    14.7991 0.0000e+00
      1.530      0.028     9.4893     93.695     34.825  27.719295     0.5940      7.169   321.7105 2.7363e+02     1.2527      1.500      2.175    14.7983 0.0000e+00
      1.537      0.027     9.4878     93.675     34.825  27.718036     0.5906      7.169   321.7810 2.6008e+02     1.2373      1.507      2.185    14.8005 0.0000e+00
      1.544      0.027     9.4883     93.675     34.825  27.715820     0.6068      7.169   321.9946 2.5674e+02     1.2647      1.514      2.196    14.8001 0.0000e+00
      1.550      0.027     9.4897     93.678     34.800  27.692495     0.6431      7.169   322.1431 2.4517e+02     1.3092      1.520      2.205    14.7958 0.0000e+00
      1.556      0.028     9.4917     93.683     34.804  27.690012     0.6626      7.170   322.1132 2.4631e+02     1.3170      1.526      2.213    14.7940 0.0000e+00
      1.563      0.030     9.4915     93.664     34.806  27.685784     0.6578      7.170   321.8910 2.6747e+02     1.2679      1.533      2.224    14.7925 0.0000e+00
      1.571      0.033     9.4869     93.600     34.758  27.641373     0.6583      7.169   321.6936 2.6780e+02     1.2341      1.541      2.235    14.7899 0.0000e+00
      1.579      0.038     9.4823     93.529     34.714  27.597531     0.6694      7.168   321.9632 2.6081e+02     1.2745      1.549      2.246    14.7853 0.0000e+00
      1.589      0.042     9.4790     93.466     34.731  27.600165     0.6720      7.166   322.3980 2.6927e+02     1.3292      1.557      2.259    14.7758 0.0000e+00
      1.600      0.044     9.4717     93.365     34.756  27.609707     0.6621      7.163   322.6488 2.7649e+02     1.3164      1.568      2.274    14.7676 0.0000e+00
      1.614      0.047     9.4611     93.222     34.742  27.585900     0.6611      7.162   322.6728 2.9588e+02     1.2722      1.583      2.296    14.7611 0.0000e+00
      1.628      0.050     9.4526     93.082     34.741  27.566302     0.6688      7.162   322.4298 3.1985e+02     1.2523      1.598      2.318    14.7481 0.0000e+00
      1.639      0.055     9.4488     92.982     34.765  27.563212     0.6634      7.162   322.2056 3.1907e+02     1.2590      1.608      2.332    14.7295 0.0000e+00
      1.650      0.058     9.4516     92.947     34.773  27.548512     0.6511      7.158   322.2847 2.8182e+02     1.2913      1.617      2.346    14.7181 0.0000e+00
      1.665      0.060     9.4586     92.952     34.759  27.515544     0.6479      7.153   322.4399 2.5162e+02     1.3073      1.632      2.367    14.7029 0.0000e+00
      1.684      0.060     9.4660     92.959     34.745  27.482054     0.6524      7.149   322.5337 2.5216e+02     1.2998      1.651      2.395    14.6709 0.0000e+00
      1.704      0.059     9.4773     93.004     34.748  27.461055     0.6511      7.149   322.6442 2.4517e+02     1.2926      1.672      2.426    14.6386 0.0000e+00
      1.721      0.056     9.4936     93.095     34.767  27.452118     0.6511      7.150   322.7434 2.3785e+02     1.2511      1.690      2.450    14.6093 0.0000e+00
      1.733      0.051     9.5109     93.195     34.778  27.437470     0.6603      7.152   322.9590 2.4936e+02     1.2243      1.700      2.465    14.5766 0.0000e+00
      1.744      0.046     9.5249     93.266     34.773  27.410919     0.6608      7.153   323.0143 2.6753e+02     1.2740      1.709      2.479    14.5437 0.0000e+00
      1.754      0.042     9.5329     93.287     34.765  27.385049     0.6580      7.154   322.7235 2.5578e+02     1.3029      1.720      2.497    14.5115 0.0000e+00
      1.763      0.039     9.5319     93.232     34.777  27.378647     0.6632      7.156   322.5401 2.3333e+02     1.2984      1.730      2.509    14.4780 0.0000e+00
      1.772      0.037     9.5223     93.106     34.814  27.396987     0.6591      7.158   322.6032 2.3363e+02     1.3117      1.738      2.520    14.4427 0.0000e+00
      1.782      0.035     9.5092     92.960     34.846  27.416300     0.6369      7.160   322.7129 2.4141e+02     1.3116      1.747      2.534    14.4091 0.0000e+00
      1.791      0.034     9.4950     92.815     34.856  27.421657     0.6151      7.162   322.7479 2.5178e+02     1.3271      1.757      2.549    14.3808 0.0000e+00
      1.800      0.033     9.4827     92.693     34.827  27.398255     0.6067      7.163   322.8542 2.5228e+02     1.3156      1.765      2.561    14.3579 0.0000e+00
      1.808      0.032     9.4742     92.611     34.812  27.387344     0.5992      7.164   323.0521 2.3825e+02     1.2650      1.773      2.572    14.3413 0.0000e+00
      1.815      0.031     9.4695     92.571     34.847  27.416729     0.5984      7.165   323.1612 2.3050e+02     1.2643      1.780      2.582    14.3337 0.0000e+00
      1.823      0.031     9.4685     92.574     34.866  27.436050     0.6239      7.165   323.3997 2.3815e+02     1.3079      1.787      2.593    14.3318 0.0000e+00
      1.831      0.031     9.4695     92.598     34.852  27.430467     0.6509      7.166   323.6977 2.4784e+02     1.3341      1.796      2.604    14.3318 0.0000e+00
      1.839      0.032     9.4696     92.613     34.824  27.412726     0.6584      7.166   323.6680 2.4486e+02     1.3060      1.803      2.614    14.3317 0.0000e+00
      1.847      0.032     9.4674     92.599     34.820  27.412053     0.6584      7.166   323.5561 2.3584e+02     1.2731      1.811      2.626    14.3318 0.0000e+00
      1.856      0.032     9.4663     92.582     34.835  27.422329     0.6517      7.166   323.8077 2.2622e+02     1.2716      1.820      2.639    14.3424 0.0000e+00
      1.864      0.032     9.4676     92.586     34.824  27.409978     0.6507      7.166   324.2146 2.2090e+02     1.2883      1.828      2.653    14.3495 0.0000e+00
      1.872      0.033     9.4701     92.594     34.805  27.389704     0.6652      7.165   324.4318 2.3136e+02     1.2923      1.837      2.664    14.3546 0.0000e+00
      1.879      0.034     9.4711     92.581     34.787  27.367683     0.6703      7.164   324.4551 2.4271e+02     1.2592      1.842      2.672    14.3648 0.0000e+00
      1.886      0.036     9.4701     92.556     34.751  27.334203     0.6578      7.164   324.4962 2.5070e+02     1.2235      1.849      2.681    14.3551 0.0000e+00
      1.896      0.039     9.4693     92.528     34.719  27.302383     0.6514      7.163   324.4133 2.6265e+02     1.2274      1.859      2.696    14.3520 0.0000e+00
      1.907      0.042     9.4678     92.466     34.738  27.300443     0.6579      7.161   324.2264 2.5512e+02     1.2756      1.870      2.714    14.3479 0.0000e+00
      1.918      0.043     9.4629     92.356     34.779  27.310720     0.6625      7.159   324.3017 2.3291e+02     1.3174      1.880      2.727    14.3279 0.0000e+00
      1.931      0.043     9.4528     92.202     34.789  27.299629     0.6701      7.158   324.2051 2.2359e+02     1.3062      1.893      2.746    14.3255 0.0000e+00
      1.944      0.042     9.4364     92.002     34.799  27.293312     0.6769      7.157   323.8331 2.2169e+02     1.2622      1.908      2.768    14.3223 0.0000e+00
      1.954      0.040     9.4204     91.812     34.820  27.297827     0.6703      7.157   323.6760 2.2581e+02     1.2435      1.917      2.780    14.2947 0.0000e+00
      1.964      0.038     9.4117     91.692     34.826  27.290692     0.6635      7.156   323.9404 2.3714e+02     1.2634      1.926      2.792    14.2577 0.0000e+00
      1.973      0.035     9.4063     91.612     34.812  27.270532     0.6590      7.156   324.2765 2.3417e+02     1.2881      1.935      2.806    14.2307 0.0000e+00
      1.981      0.033     9.4023     91.555     34.786  27.244555     0.6539      7.157   324.2125 2.2443e+02     1.2978      1.942      2.817    14.2128 0.0000e+00
      1.989      0.031     9.4023     91.538     34.776  27.230597     0.6567      7.158   324.0262 2.1820e+02     1.2897      1.951      2.829    14.1962 0.0000e+00
      1.996      0.029     9.4041     91.535     34.783  27.228760     0.6642      7.158   323.9175 2.0975e+02     1.2808      1.958      2.839    14.1773 0.0000e+00
      2.004      0.027     9.4040     91.515     34.783  27.222339     0.6629      7.158   323.8437 2.0793e+02     1.2825      1.965      2.849    14.1625 0.0000e+00
      2.011      0.026     9.3985     91.445     34.783  27.216443     0.6496      7.159   323.8217 2.1633e+02     1.2799      1.972      2.860    14.1571 0.0000e+00
      2.017      0.025     9.3873     91.321     34.795  27.220956     0.6501      7.159   323.7380 2.1713e+02     1.2789      1.979      2.870    14.1497 0.0000e+00
      2.022      0.025     9.3733     91.176     34.790  27.213404     0.6700      7.160   323.6927 2.0976e+02     1.3014      1.983      2.876    14.1367 0.0000e+00
      2.028      0.026     9.3597     91.038     34.760  27.188628     0.6785      7.161   323.7894 2.0878e+02     1.3086      1.988      2.883    14.1278 0.0000e+00
      2.034      0.027     9.3500     90.933     34.748  27.175384     0.6697      7.161   323.8752 2.1107e+02     1.2743      1.995      2.893    14.1203 0.0000e+00
      2.041      0.028     9.3410     90.829     34.762  27.180255     0.6561      7.161   323.8699 2.0819e+02     1.2528      2.002      2.903    14.1104 0.0000e+00
      2.049      0.030     9.3330     90.731     34.775  27.184016     0.6516      7.161   323.8115 2.0161e+02     1.2624      2.010      2.915    14.1070 0.0000e+00
      2.058      0.033     9.3322     90.706     34.750  27.157348     0.6614      7.161   323.6855 1.9554e+02     1.2684      2.019      2.928    14.1069 0.0000e+00
      2.065      0.038     9.3325     90.681     34.704  27.111808     0.6743      7.162   323.6368 1.9147e+02     1.2637      2.026      2.938    14.1009 0.0000e+00
      2.074      0.044     9.3354     90.656     34.684  27.077867     0.6869      7.162   323.7393 1.9511e+02     1.2669      2.033      2.948    14.0917 0.0000e+00
      2.084      0.050     9.3478     90.701     34.700  27.064425     0.7034      7.160   323.8923 1.9567e+02     1.2770      2.043      2.963    14.0813 0.0000e+00
      2.098      0.055     9.3538     90.691     34.746  27.076255     0.7081      7.156   324.1097 1.9052e+02     1.2940      2.057      2.983    14.0734 0.0000e+00
      2.115      0.059     9.3485     90.602     34.785  27.093873     0.6982      7.152   324.3029 1.8352e+02     1.2895      2.073      3.006    14.0641 0.0000e+00
      2.134      0.060     9.3418     90.525     34.781  27.086935     0.6944      7.149   324.4214 1.7796e+02     1.2526      2.092      3.035    14.0366 0.0000e+00
      2.151      0.060     9.3324     90.416     34.750  27.055868     0.6979      7.144   324.5100 1.7764e+02     1.2442      2.111      3.061    13.9932 0.0000e+00
      2.165      0.059     9.3154     90.216     34.740  27.035719     0.7045      7.140   324.6004 1.7480e+02     1.2497      2.124      3.080    13.9525 0.0000e+00
      2.178      0.056     9.2905     89.946     34.751  27.033789     0.7195      7.137   324.7392 1.7465e+02     1.2279      2.135      3.097    13.9347 0.0000e+00
      2.192      0.053     9.2601     89.636     34.757  27.032521     0.7406      7.135   324.8981 1.7979e+02     1.2249      2.150      3.118    13.9382 0.0000e+00
      2.206      0.051     9.2257     89.288     34.747  27.020379     0.7579      7.133   324.9724 1.8194e+02     1.2743      2.163      3.137    13.9311 0.0000e+00
      2.218      0.050     9.1895     88.923     34.746  27.013966     0.7724      7.132   324.9498 1.7708e+02     1.3366      2.176      3.156    13.9054 0.0000e+00
      2.230      0.048     9.1557     88.588     34.756  27.018480     0.7779      7.132   324.9686 1.6991e+02     1.3362      2.188      3.174    13.8900 0.0000e+00
      2.243      0.046     9.1295     88.330     34.748  27.011457     0.7699      7.131   324.9424 1.6499e+02     1.2705      2.199      3.189    13.8860 0.0000e+00
      2.255      0.044     9.1108     88.140     34.728  26.992537     0.7666      7.130   324.8046 1.6034e+02     1.2437      2.211      3.208    13.8784 0.0000e+00
      2.266      0.042     9.0984     88.005     34.720  26.980216     0.7751      7.131   324.7655 1.5957e+02     1.2872      2.222      3.223    13.8691 0.0000e+00
      2.276      0.041     9.0917     87.920     34.740  26.989462     0.7713      7.131   324.8992 1.6314e+02     1.3081      2.232      3.237    13.8644 0.0000e+00
      2.286      0.041     9.0866     87.848     34.735  26.977330     0.7488      7.129   325.0444 1.6475e+02     1.2828      2.243      3.253    13.8660 0.0000e+00
      2.295      0.041     9.0836     87.787     34.729  26.960519     0.7418      7.126   325.0589 1.6043e+02     1.2555      2.251      3.265    13.8605 0.0000e+00
      2.305      0.040     9.0849     87.757     34.769  26.976673     0.7513      7.124   325.0744 1.5666e+02     1.2525      2.259      3.276    13.8524 0.0000e+00
      2.316      0.040     9.0881     87.754     34.792  26.982142     0.7713      7.123   325.1461 1.5629e+02     1.2779      2.270      3.292    13.8413 0.0000e+00
      2.329      0.040     9.0930     87.776     34.779  26.963133     0.8095      7.122   325.1510 1.5219e+02     1.2874      2.284      3.312    13.8310 0.0000e+00
      2.339      0.041     9.1040     87.842     34.764  26.937308     0.8365      7.121   325.1330 1.4567e+02     1.2761      2.296      3.330    13.8167 0.0000e+00
      2.346      0.041     9.1199     87.936     34.774  26.923872     0.8401      7.121   325.1867 1.4337e+02     1.2641      2.301      3.337    13.7881 0.0000e+00
      2.354      0.041     9.1370     88.044     34.805  26.927649     0.8336      7.120   325.2845 1.4423e+02     1.2643      2.307      3.346    13.7705 0.0000e+00
      2.367      0.042     9.1556     88.182     34.814  26.919453     0.8324      7.119   325.3688 1.4373e+02     1.2785      2.321      3.367    13.7641 0.0000e+00
      2.380      0.043     9.1744     88.317     34.794  26.888255     0.8434      7.119   325.4318 1.4189e+02     1.2823      2.335      3.387    13.7446 0.0000e+00
      2.391      0.044     9.1946     88.394     34.822  26.867900     0.8482      7.118   325.5299 1.4163e+02     1.2799      2.343      3.400    13.7077 0.0000e+00
      2.402      0.044     9.2122     88.397     34.894  26.863780     0.8353      7.115   325.6945 1.4059e+02     1.2796      2.355      3.415    13.6766 0.0000e+00
      2.413      0.043     9.2176     88.357     34.903  26.838366     0.8250      7.112   325.8735 1.3679e+02     1.2788      2.367      3.433    13.6542 0.0000e+00
      2.425      0.041     9.2171     88.336     34.880  26.814575     0.8246      7.109   326.0592 1.3338e+02     1.2697      2.378      3.449    13.6518 0.0000e+00
      2.435      0.040     9.2199     88.332     34.915  26.830107     0.8210      7.107   326.1334 1.3403e+02     1.2614      2.388      3.464    13.5957 0.0000e+00
      2.444      0.039     9.2258     88.337     34.946  26.835671     0.8182      7.105   326.1683 1.3627e+02     1.2699      2.397      3.476    13.4638 0.0000e+00
      2.453      0.039     9.2348     88.369     34.948  26.818327     0.8192      7.104   326.3953 1.3367e+02     1.2815      2.405      3.488    13.4245 0.0000e+00
      2.463      0.040     9.2479     88.420     34.973  26.810866     0.8232      7.103   326.6403 1.2957e+02     1.2792      2.415      3.503    13.4472 0.0000e+00
      2.473      0.041     9.2650     88.478     35.020  26.808928     0.8302      7.104   326.7214 1.2841e+02     1.2725      2.425      3.518    13.4217 0.0000e+00
      2.484      0.042     9.2825     88.514     35.062  26.794852     0.8304      7.104   326.6885 1.2818e+02     1.2622      2.436      3.533    13.3916 0.0000e+00
      2.495      0.044     9.2950     88.479     35.097  26.767608     0.8342      7.104   326.6729 1.2768e+02     1.2766      2.446      3.548    13.3697 0.0000e+00
      2.506      0.046     9.2991     88.331     35.141  26.733454     0.8485      7.103   326.7902 1.2583e+02     1.3249      2.457      3.564    13.3344 0.0000e+00
      2.518      0.049     9.2970     88.100     35.196  26.699302     0.8474      7.101   326.9029 1.2105e+02     1.3264      2.469      3.582    13.2775 0.0000e+00
      2.530      0.054     9.2895     87.832     35.253  26.672067     0.8304      7.098   326.9169 1.1806e+02     1.2949      2.481      3.599    13.2103 0.0000e+00
      2.543      0.058     9.2739     87.538     35.304  26.658067     0.8164      7.096   326.8735 1.1891e+02     1.3107      2.494      3.617    13.1374 0.0000e+00
      2.558      0.061     9.2549     87.248     35.355  26.656958     0.8170      7.093   326.7223 1.1951e+02     1.3342      2.507      3.636    13.0410 0.0000e+00
      2.577      0.062     9.2405     87.013     35.405  26.658616     0.8283      7.090   326.7227 1.1847e+02     1.3039      2.526      3.664    12.9239 0.0000e+00
      2.597      0.061     9.2315     86.836     35.475  26.678075     0.8342      7.089   326.7923 1.1950e+02     1.2803      2.548      3.696    12.8150 0.0000e+00
      2.613      0.060     9.2263     86.710     35.543  26.701706     0.8419      7.087   326.6175 1.2115e+02     1.2928      2.563      3.718    12.7455 0.0000e+00
      2.626      0.058     9.2243     86.631     35.557  26.690321     0.8472      7.083   326.7606 1.1850e+02     1.3034      2.575      3.735    12.6973 0.0000e+00
      2.638      0.054     9.2198     86.547     35.547  26.667390     0.8342      7.081   327.3184 1.1551e+02     1.3167      2.588      3.754    12.6443 0.0000e+00
      2.651      0.050     9.2111     86.434     35.577  26.678411     0.8225      7.081   327.6826 1.1537e+02     1.3007      2.599      3.770    12.5953 0.0000e+00
      2.665      0.047     9.1998     86.304     35.613  26.696572     0.8258      7.081   327.8086 1.1569e+02     1.2632      2.613      3.790    12.5560 0.0000e+00
      2.679      0.044     9.1846     86.144     35.621  26.696477     0.8650      7.080   327.9807 1.1402e+02     1.2590      2.630      3.813    12.5255 0.0000e+00
      2.690      0.042     9.1675     85.973     35.601  26.677253     0.9380      7.079   328.2154 1.1188e+02     1.2813      2.639      3.827    12.5054 0.0000e+00
      2.697      0.040     9.1517     85.817     35.575  26.654626     0.9734      7.077   328.2372 1.1037e+02     1.2881      2.645      3.836    12.4901 0.0000e+00
      2.706      0.037     9.1382     85.684     35.607  26.676879     0.9615      7.075   328.1586 1.0914e+02     1.2805      2.653      3.847    12.4763 0.0000e+00
      2.716      0.034     9.1262     85.568     35.630  26.692323     0.9682      7.074   328.2976 1.0936e+02     1.2820      2.663      3.862    12.4685 0.0000e+00
      2.726      0.033     9.1145     85.453     35.577  26.650862     1.0091      7.074   328.4542 1.0976e+02     1.2746      2.674      3.879    12.4637 0.0000e+00
      2.735      0.033     9.1037     85.346     35.539  26.620054     1.0330      7.073   328.3317 1.1052e+02     1.2827      2.682      3.889    12.4590 0.0000e+00
      2.742      0.033     9.0945     85.249     35.567  26.637294     1.0283      7.071   328.1066 1.1224e+02     1.2890      2.689      3.900    12.4564 0.0000e+00
      2.747      0.033     9.0853     85.153     35.614  26.668825     1.0069      7.068   328.0551 1.1265e+02     1.3194      2.694      3.907    12.4545 0.0000e+00
      2.755      0.033     9.0775     85.077     35.635  26.683808     0.9759      7.066   328.0532 1.1276e+02     1.4364      2.700      3.916    12.4525 0.0000e+00
      2.766      0.034     9.0718     85.032     35.641  26.691453     0.9669      7.065   328.1700 1.1419e+02     1.5139      2.712      3.934    12.4497 0.0000e+00
      2.776      0.037     9.0668     84.994     35.645  26.697775     0.9713      7.065   328.5213 1.1274e+02     1.4925      2.723      3.949    12.4437 0.0000e+00
      2.784      0.041     9.0627     84.959     35.642  26.696754     0.9743      7.064   328.7731 1.0891e+02     1.4522      2.730      3.959    12.4370 0.0000e+00
      2.793      0.043     9.0573     84.904     35.621  26.679113     0.9746      7.062   328.8059 1.0913e+02     1.4537      2.738      3.971    12.4351 0.0000e+00
      2.805      0.043     9.0514     84.845     35.617  26.674953     0.9658      7.060   328.7459 1.0977e+02     1.4810      2.750      3.986    12.4412 0.0000e+00
      2.819      0.044     9.0470     84.813     35.659  26.709956     0.9606      7.058   328.7350 1.0882e+02     1.4768      2.765      4.009    12.4483 0.0000e+00
      2.832      0.044     9.0403     84.773     35.663  26.721355     0.9671      7.057   328.7607 1.0922e+02     1.4348      2.779      4.031    12.4493 0.0000e+00
      2.842      0.043     9.0324     84.720     35.605  26.685800     0.9705      7.055   328.7117 1.0770e+02     1.3698      2.787      4.042    12.4456 0.0000e+00
      2.851      0.041     9.0275     84.678     35.570  26.661041     0.9640      7.054   328.7462 1.0502e+02     1.3321      2.795      4.054    12.4411 0.0000e+00
      2.861      0.038     9.0259     84.653     35.595  26.675983     0.9630      7.053   328.9195 1.0425e+02     1.3138      2.807      4.072    12.4442 0.0000e+00
      2.871      0.036     9.0260     84.643     35.601  26.675975     0.9660      7.052   328.9999 1.0508e+02     1.2699      2.817      4.084    12.4610 0.0000e+00
      2.880      0.036     9.0277     84.646     35.587  26.660944     1.0012      7.051   328.9434 1.0662e+02     1.3209      2.825      4.097    12.4753 0.0000e+00
      2.889      0.036     9.0310     84.654     35.630  26.684724     1.0675      7.050   328.8388 1.0711e+02     1.4728      2.833      4.109    12.4756 0.0000e+00
      2.898      0.036     9.0333     84.642     35.680  26.709508     1.0960      7.049   328.8534 1.0570e+02     1.5500      2.842      4.121    12.4684 0.0000e+00
      2.907      0.036     9.0350     84.625     35.693  26.706602     1.0885      7.047   329.1199 1.0540e+02     1.5528      2.852      4.136    12.4619 0.0000e+00
      2.916      0.036     9.0347     84.600     35.713  26.713066     1.0691      7.045   329.3086 1.0486e+02     1.5371      2.860      4.148    12.4589 0.0000e+00
      2.925      0.036     9.0309     84.554     35.732  26.724152     1.0453      7.044   329.4146 1.0223e+02     1.5121      2.868      4.159    12.4459 0.0000e+00
      2.935      0.036     9.0270     84.514     35.720  26.713648     1.0309      7.043   329.6269 1.0170e+02     1.4951      2.878      4.174    12.4257 0.0000e+00
      2.944      0.036     9.0240     84.480     35.722  26.713054     1.0235      7.041   329.7239 1.0126e+02     1.4838      2.888      4.188    12.4068 0.0000e+00
      2.953      0.036     9.0203     84.432     35.734  26.716976     1.0201      7.038   329.7264 1.0018e+02     1.4972      2.896      4.200    12.3939 0.0000e+00
      2.962      0.036     9.0159     84.368     35.720  26.697562     1.0174      7.034   329.7440 9.9576e+01     1.5356      2.906      4.214    12.3910 0.0000e+00
      2.971      0.037     9.0102     84.287     35.695  26.668797     1.0190      7.032   329.7646 9.7882e+01     1.5510      2.914      4.226    12.3898 0.0000e+00
      2.980      0.040     9.0032     84.191     35.649  26.623153     1.0215      7.029   329.8039 9.8635e+01     1.5302      2.922      4.238    12.3884 0.0000e+00
      2.990      0.044     8.9977     84.105     35.622  26.590153     1.0189      7.027   329.9604 1.0012e+02     1.4988      2.932      4.253    12.3824 0.0000e+00
      3.000      0.049     8.9914     84.003     35.641  26.587248     1.0153      7.025   330.1940 9.9157e+01     1.5075      2.941      4.266    12.3684 0.0000e+00
      3.013      0.054     8.9827     83.863     35.671  26.588018     1.0141      7.022   330.3056 9.7622e+01     1.5433      2.954      4.284    12.3530 0.0000e+00
      3.029      0.058     8.9764     83.719     35.730  26.599436     1.0227      7.018   330.3633 9.6944e+01     1.5348      2.970      4.307    12.3386 0.0000e+00
      3.046      0.059     8.9698     83.544     35.785  26.598274     1.0282      7.015   330.3757 9.8206e+01     1.4963      2.986      4.331    12.3205 0.0000e+00
      3.064      0.059     8.9579     83.313     35.814  26.573922     1.0167      7.013   330.3691 9.7759e+01     1.4738      3.005      4.359    12.2981 0.0000e+00
      3.079      0.057     8.9476     83.101     35.853  26.558927     1.0117      7.012   330.4557 9.5165e+01     1.4773      3.020      4.381    12.2708 0.0000e+00
      3.093      0.054     8.9399     82.936     35.880  26.543923     1.0224      7.009   330.5628 9.2720e+01     1.4770      3.033      4.399    12.2267 0.0000e+00
      3.107      0.050     8.9250     82.725     35.884  26.519454     1.0265      7.007   330.6319 9.0315e+01     1.4702      3.047      4.419    12.1609 0.0000e+00
      3.119      0.047     8.9050     82.442     35.932  26.517034     1.0256      7.006   330.6025 8.9508e+01     1.4870      3.058      4.436    12.0967 0.0000e+00
      3.129      0.045     8.8849     82.109     36.006  26.514616     1.0293      7.006   330.5514 8.8089e+01     1.4970      3.068      4.451    12.0328 0.0000e+00
      3.139      0.043     8.8615     81.734     36.056  26.490161     1.0347      7.005   330.5301 8.5978e+01     1.4990      3.078      4.464    11.9780 0.0000e+00
      3.150      0.042     8.8342     81.342     36.109  26.475265     1.0447      7.003   330.5174 8.5208e+01     1.5119      3.088      4.479    11.9550 0.0000e+00
      3.161      0.041     8.8037     80.937     36.156  26.461435     1.0585      7.001   330.7415 8.6259e+01     1.5001      3.101      4.497    11.9093 0.0000e+00
      3.172      0.040     8.7730     80.535     36.205  26.449887     1.0732      7.000   331.0030 8.8122e+01     1.5091      3.112      4.512    11.8170 0.0000e+00
      3.182      0.038     8.7429     80.140     36.287  26.462581     1.0844      6.998   330.9251 8.7272e+01     1.5291      3.120      4.526    11.7264 0.0000e+00
      3.191      0.035     8.7079     79.724     36.373  26.487877     1.0921      6.996   330.8329 8.4823e+01     1.4978      3.129      4.538    11.6544 0.0000e+00
      3.200      0.033     8.6682     79.300     36.425  26.501714     1.0931      6.994   330.9203 8.3318e+01     1.4661      3.139      4.552    11.5898 0.0000e+00
      3.208      0.031     8.6299     78.894     36.458  26.502871     1.0875      6.993   331.0360 8.2657e+01     1.4507      3.147      4.564    11.5276 0.0000e+00
      3.215      0.030     8.5953     78.506     36.496  26.501844     1.0888      6.993   331.1126 8.2578e+01     1.4647      3.153      4.573    11.4571 0.0000e+00
      3.221      0.029     8.5633     78.142     36.518  26.489264     1.0898      6.993   331.0719 8.2267e+01     1.5129      3.159      4.582    11.3974 0.0000e+00
      3.229      0.027     8.5303     77.793     36.529  26.477723     1.0727      6.992   331.0606 8.1730e+01     1.5450      3.166      4.593    11.3763 0.0000e+00
      3.237      0.027     8.4960     77.461     36.556  26.489268     1.0470      6.991   331.1479 8.1550e+01     1.5484      3.175      4.605    11.3513 0.0000e+00
      3.244      0.028     8.4670     77.187     36.580  26.501863     1.0278      6.990   331.1816 8.0741e+01     1.5537      3.181      4.615    11.3035 0.0000e+00
      3.249      0.030     8.4485     76.992     36.597  26.503010     1.0143      6.989   331.2094 8.0146e+01     1.5782      3.186      4.622    11.2615 0.0000e+00
      3.256      0.033     8.4373     76.843     36.623  26.503115     1.0130      6.988   331.3115 8.0053e+01     1.5706      3.192      4.630    11.2316 0.0000e+00
      3.264      0.037     8.4258     76.685     36.653  26.503117     1.0206      6.987   331.4701 7.8920e+01     1.5231      3.200      4.642    11.2249 0.0000e+00
      3.274      0.040     8.4108     76.495     36.683  26.503017     1.0242      6.984   331.6645 7.7404e+01     1.4911      3.210      4.656    11.2281 0.0000e+00
      3.286      0.042     8.3944     76.296     36.710  26.501873     1.0285      6.980   331.7698 7.6172e+01     1.4895      3.222      4.673    11.2120 0.0000e+00
      3.300      0.042     8.3788     76.119     36.714  26.489272     1.0361      6.978   331.7959 7.5642e+01     1.5031      3.237      4.695    11.1823 0.0000e+00
      3.312      0.041     8.3635     75.960     36.709  26.477623     1.0336      6.977   331.8940 7.5472e+01     1.5031      3.250      4.713    11.1505 0.0000e+00
      3.321      0.040     8.3523     75.829     36.741  26.488014     1.0258      6.975   332.0098 7.4464e+01     1.4905      3.257      4.723    11.1232 0.0000e+00
      3.329      0.037     8.3431     75.700     36.767  26.487901     1.0247      6.973   332.0782 7.3669e+01     1.5030      3.264      4.735    11.0893 0.0000e+00
      3.338      0.034     8.3309     75.535     36.782  26.476245     1.0290      6.971   332.1179 7.3155e+01     1.5317      3.274      4.748    11.0660 0.0000e+00
      3.347      0.031     8.3225     75.410     36.808  26.474042     1.0315      6.969   332.1464 7.2088e+01     1.5324      3.283      4.761    11.0662 0.0000e+00
      3.356      0.029     8.3198     75.349     36.811  26.461250     1.0278      6.966   332.1641 7.0779e+01     1.5120      3.291      4.774    11.0482 0.0000e+00
      3.363      0.026     8.3168     75.297     36.808  26.448553     1.0305      6.964   332.1601 6.9745e+01     1.4988      3.298      4.783    11.0198 0.0000e+00
      3.369      0.024     8.3138     75.253     36.817  26.447502     1.0368      6.963   332.1832 6.9300e+01     1.4947      3.305      4.793    10.9882 0.0000e+00
      3.374      0.022     8.3122     75.234     36.821  26.448542     1.0296      6.962   332.2722 6.9410e+01     1.4922      3.309      4.800    10.9552 0.0000e+00
      3.379      0.020     8.3123     75.232     36.840  26.461118     1.0264      6.961   332.2892 6.9701e+01     1.4987      3.313      4.804    10.9379 0.0000e+00
      3.384      0.019     8.3143     75.232     36.866  26.472559     1.0350      6.959   332.2176 6.9188e+01     1.5135      3.318      4.813    10.9236 0.0000e+00
      3.389      0.019     8.3140     75.209     36.861  26.459879     1.0334      6.958   332.2665 6.8328e+01     1.5179      3.324      4.821    10.9114 0.0000e+00
      3.394      0.020     8.3086     75.148     36.834  26.434786     1.0244      6.957   332.4499 6.7826e+01     1.5212      3.328      4.827    10.9103 0.0000e+00
      3.399      0.021     8.3023     75.077     36.825  26.423137     1.0185      6.956   332.5419 6.7665e+01     1.5234      3.333      4.834    10.9179 0.0000e+00
      3.404      0.022     8.2978     75.013     36.871  26.446019     1.0169      6.955   332.4327 6.7660e+01     1.5131      3.337      4.841    10.9010 0.0000e+00
      3.409      0.025     8.2953     74.943     36.915  26.457452     1.0141      6.953   332.3344 6.7499e+01     1.5187      3.343      4.848    10.8841 0.0000e+00
      3.415      0.028     8.2950     74.876     36.921  26.434364     1.0128      6.951   332.3854 6.7184e+01     1.5304      3.349      4.857    10.8840 0.0000e+00
      3.422      0.030     8.2970     74.835     36.937  26.420817     1.0194      6.951   332.5336 6.6749e+01     1.5019      3.355      4.866    10.8731 0.0000e+00
      3.431      0.032     8.2986     74.807     36.962  26.420618     1.0200      6.949   332.6643 6.6237e+01     1.4797      3.364      4.879    10.8678 0.0000e+00
      3.441      0.033     8.2962     74.770     36.987  26.431946     1.0207      6.946   332.6753 6.6242e+01     1.5064      3.375      4.894    10.8384 0.0000e+00
      3.450      0.034     8.2929     74.735     36.988  26.430782     1.0275      6.945   332.6655 6.6303e+01     1.5198      3.384      4.908    10.7920 0.0000e+00
      3.458      0.036     8.2900     74.668     36.979  26.406538     1.0280      6.945   332.7175 6.5669e+01     1.4890      3.391      4.918    10.7631 0.0000e+00
      3.466      0.037     8.2826     74.528     37.003  26.392783     1.0275      6.943   332.7882 6.5098e+01     1.4695      3.398      4.929    10.7293 0.0000e+00
      3.475      0.038     8.2687     74.339     37.039  26.391433     1.0300      6.940   332.9182 6.4648e+01     1.4976      3.407      4.942    10.7242 0.0000e+00
      3.486      0.039     8.2500     74.130     37.062  26.390176     1.0320      6.937   333.0857 6.4305e+01     1.5235      3.419      4.957    10.7394 0.0000e+00
      3.497      0.041     8.2300     73.922     37.062  26.377573     1.0329      6.935   333.1779 6.4113e+01     1.5090      3.430      4.975    10.7099 0.0000e+00
      3.507      0.042     8.2142     73.751     37.062  26.366018     1.0315      6.935   333.1719 6.3845e+01     1.4742      3.440      4.989    10.6572 0.0000e+00
      3.517      0.044     8.2021     73.621     37.092  26.377449     1.0248      6.933   333.1863 6.3693e+01     1.4380      3.448      5.002    10.6177 0.0000e+00
      3.528      0.044     8.1945     73.538     37.117  26.388783     1.0157      6.931   333.3516 6.3505e+01     1.4376      3.459      5.017    10.5974 0.0000e+00
      3.540      0.045     8.2022     73.566     37.124  26.376068     1.0309      6.929   333.5361 6.3020e+01     1.4390      3.471      5.035    10.5851 0.0000e+00
      3.552      0.045     8.2257     73.685     37.144  26.350675     1.0714      6.928   333.6095 6.2657e+01     1.3632      3.484      5.053    10.5657 0.0000e+00
      3.565      0.044     8.2484     73.774     37.192  26.335695     1.0921      6.926   333.6360 6.2862e+01     1.2841      3.496      5.071    10.5498 0.0000e+00
      3.576      0.042     8.2659     73.818     37.242  26.321888     1.0884      6.923   333.6851 6.2975e+01     1.2761      3.507      5.087    10.5503 0.0000e+00
      3.586      0.039     8.2857     73.868     37.303  26.310681     1.0914      6.921   333.7736 6.2328e+01     1.2665      3.518      5.102    10.5368 0.0000e+00
      3.595      0.037     8.3055     73.906     37.411  26.327130     1.1003      6.919   333.8447 6.1552e+01     1.2595      3.526      5.114    10.4722 0.0000e+00
      3.603      0.035     8.3193     73.897     37.496  26.330218     1.0951      6.918   333.9422 6.1041e+01     1.2826      3.533      5.124    10.3978 0.0000e+00
      3.612      0.033     8.3266     73.833     37.510  26.284456     1.0836      6.917   334.1783 6.0916e+01     1.2721      3.542      5.138    10.3424 0.0000e+00
      3.621      0.032     8.3286     73.698     37.509  26.218239     1.0806      6.915   334.3772 6.0857e+01     1.2537      3.551      5.151    10.2680 0.0000e+00
      3.629      0.031     8.3259     73.482     37.552  26.164474     1.0761      6.914   334.3689 6.0148e+01     1.2739      3.559      5.162    10.1802 0.0000e+00
      3.637      0.030     8.3197     73.210     37.656  26.142259     1.0756      6.913   334.3364 5.9324e+01     1.3030      3.566      5.172    10.1064 0.0000e+00
      3.645      0.028     8.3048     72.871     37.783  26.140033     1.0833      6.913   334.4132 5.8531e+01     1.3307      3.576      5.186    10.0391 0.0000e+00
      3.652      0.027     8.2715     72.410     37.886  26.137463     1.0870      6.912   334.5235 5.7964e+01     1.3348      3.582      5.195     9.9571 0.0000e+00
      3.657      0.027     8.2220     71.857     37.925  26.111108     1.1024      6.910   334.6374 5.7545e+01     1.3218      3.586      5.201     9.8420 0.0000e+00
      3.663      0.028     8.1634     71.262     37.927  26.075312     1.1313      6.908   334.7582 5.7122e+01     1.3262      3.592      5.210     9.7080 0.0000e+00
      3.669      0.029     8.0959     70.613     37.981  26.085592     1.1425      6.906   334.7795 5.7283e+01     1.2968      3.597      5.217     9.5818 0.0000e+00
      3.676      0.029     8.0249     69.962     38.035  26.108379     1.1463      6.904   334.7225 5.7290e+01     1.2711      3.604      5.227     9.4812 0.0000e+00
      3.686      0.030     7.9564     69.381     38.007  26.096833     1.1591      6.902   334.7566 5.7089e+01     1.2898      3.616      5.243     9.4156 0.0000e+00
      3.696      0.030     7.8920     68.858     37.946  26.072985     1.1680      6.901   334.8486 5.7006e+01     1.2789      3.627      5.260     9.3695 0.0000e+00
      3.703      0.031     7.8341     68.358     37.945  26.074043     1.1711      6.899   334.8880 5.6849e+01     1.2613      3.632      5.268     9.3347 0.0000e+00
      3.708      0.033     7.7813     67.873     38.013  26.109625     1.1696      6.895   334.9753 5.6812e+01     1.2601      3.635      5.272     9.3069 0.0000e+00
      3.715      0.035     7.7310     67.431     38.034  26.122220     1.1678      6.892   335.2158 5.6318e+01     1.2651      3.642      5.281     9.3190 0.0000e+00
      3.724      0.038     7.6829     67.048     37.975  26.099328     1.1673      6.889   335.4720 5.5428e+01     1.2901      3.651      5.295     9.3673 0.0000e+00
      3.736      0.040     7.6379     66.719     37.912  26.086844     1.1639      6.886   335.5784 5.4781e+01     1.2886      3.663      5.313     9.3644 0.0000e+00
      3.750      0.041     7.5997     66.445     37.887  26.098300     1.1634      6.882   335.6419 5.4118e+01     1.2767      3.678      5.335     9.3328 0.0000e+00
      3.761      0.040     7.5693     66.221     37.877  26.110884     1.1786      6.878   335.8097 5.3381e+01     1.2997      3.690      5.351     9.3295 0.0000e+00
      3.771      0.039     7.5477     66.056     37.861  26.112027     1.2021      6.874   336.0585 5.2995e+01     1.3216      3.698      5.364     9.3522 0.0000e+00
      3.779      0.036     7.5382     65.972     37.862  26.112122     1.2083      6.870   336.3274 5.2670e+01     1.2981      3.707      5.376     9.4051 0.0000e+00
      3.786      0.032     7.5414     65.981     37.876  26.112027     1.2070      6.865   336.4798 5.2459e+01     1.2593      3.714      5.386     9.4454 0.0000e+00
      3.794      0.030     7.5506     66.044     37.886  26.110875     1.2416      6.861   336.6103 5.2348e+01     1.2798      3.721      5.397     9.4663 0.0000e+00
      3.803      0.028     7.5617     66.129     37.876  26.098186     1.3051      6.857   336.7870 5.1786e+01     1.3327      3.731      5.411     9.4900 0.0000e+00
      3.811      0.027     7.5758     66.248     37.861  26.085592     1.3402      6.855   336.7225 5.1397e+01     1.3496      3.738      5.422     9.4851 0.0000e+00
      3.817      0.026     7.5923     66.392     37.861  26.085583     1.3450      6.853   336.6046 5.1284e+01     1.3313      3.744      5.430     9.4669 0.0000e+00
      3.822      0.025     7.6097     66.544     37.879  26.098082     1.3451      6.850   336.7387 5.0873e+01     1.2946      3.748      5.436     9.4561 0.0000e+00
      3.828      0.024     7.6251     66.673     37.900  26.109722     1.3321      6.845   336.9672 5.0335e+01     1.2722      3.753      5.443     9.4476 0.0000e+00
      3.834      0.024     7.6367     66.758     37.896  26.099332     1.3078      6.841   337.1302 4.9851e+01     1.2741      3.760      5.453     9.4464 0.0000e+00
      3.841      0.024     7.6450     66.812     37.909  26.099438     1.2896      6.839   337.1612 4.9331e+01     1.2556      3.767      5.463     9.4465 0.0000e+00
      3.847      0.024     7.6497     66.847     37.931  26.110992     1.2961      6.838   337.0832 4.8826e+01     1.2328      3.773      5.472     9.4470 0.0000e+00
      3.853      0.024     7.6502     66.850     37.933  26.112040     1.4326      6.835   337.0474 4.8549e+01     1.2422      3.778      5.480     9.4481 0.0000e+00
      3.858      0.025     7.6469     66.817     37.936  26.112116     1.6718      6.833   337.1585 4.8568e+01     1.2772      3.784      5.488     9.4339 0.0000e+00
      3.863      0.028     7.6420     66.763     37.943  26.111906     1.7986      6.831   337.3088 4.8571e+01     1.3210      3.789      5.495     9.4168 0.0000e+00
      3.870      0.030     7.6367     66.700     37.952  26.109494     1.8261      6.829   337.4023 4.8339e+01     1.3436      3.794      5.503     9.4155 0.0000e+00
      3.879      0.033     7.6284     66.607     37.927  26.082943     1.9386      6.826   337.4278 4.8141e+01     1.3372      3.803      5.516     9.4178 0.0000e+00
      3.890      0.036     7.6170     66.490     37.883  26.044848     2.1389      6.825   337.4459 4.7906e+01     1.3359      3.814      5.533     9.4151 0.0000e+00
      3.900      0.041     7.6065     66.380     37.873  26.029851     2.2540      6.823   337.5353 4.7451e+01     1.3278      3.824      5.547     9.4086 0.0000e+00
      3.910      0.045     7.5968     66.267     37.893  26.028592     2.2744      6.820   337.6479 4.6929e+01     1.2993      3.834      5.560     9.3975 0.0000e+00
      3.920      0.047     7.5876     66.153     37.918  26.029615     2.4497      6.817   337.6891 4.6462e+01     1.2970      3.843      5.574     9.3820 0.0000e+00
      3.933      0.048     7.5805     66.068     37.952  26.042198     2.7834      6.815   337.6889 4.5957e+01     1.2998      3.855      5.592     9.3729 0.0000e+00
      3.948      0.048     7.5700     65.968     37.974  26.053742     2.9645      6.813   337.7321 4.5223e+01     1.2720      3.872      5.616     9.3655 0.0000e+00
      3.961      0.047     7.5555     65.842     37.957  26.042198     2.9758      6.813   337.7811 4.4890e+01     1.2662      3.886      5.637     9.3442 0.0000e+00
      3.972      0.045     7.5469     65.764     37.942  26.029604     2.9746      6.812   337.7646 4.5057e+01     1.3517      3.895      5.651     9.3173 0.0000e+00
      3.982      0.042     7.5443     65.729     37.949  26.028459     2.9784      6.811   337.7049 4.4968e+01     1.4812      3.905      5.665     9.3030 0.0000e+00
      3.992      0.039     7.5429     65.701     37.959  26.028346     2.9747      6.811   337.6614 4.4704e+01     1.5199      3.915      5.678     9.3006 0.0000e+00
      4.001      0.037     7.5396     65.659     37.968  26.028232     2.9672      6.811   337.6689 4.4342e+01     1.5150      3.923      5.691     9.3034 0.0000e+00
      4.011      0.037     7.5341     65.599     37.976  26.027077     2.9698      6.810   337.7947 4.3906e+01     1.5436      3.933      5.704     9.3017 0.0000e+00
      4.020      0.036     7.5270     65.520     37.970  26.014368     3.0060      6.808   337.8922 4.3576e+01     1.5609      3.943      5.718     9.2924 0.0000e+00
      4.030      0.034     7.5215     65.445     37.970  26.001556     3.0646      6.807   337.8157 4.3221e+01     1.5718      3.952      5.732     9.2822 0.0000e+00
      4.039      0.031     7.5175     65.385     37.984  25.999145     3.0916      6.807   337.7292 4.2802e+01     1.5529      3.962      5.746     9.2731 0.0000e+00
      4.047      0.028     7.5105     65.307     37.977  25.985197     3.0933      6.806   337.7078 4.2415e+01     1.5161      3.969      5.757     9.2673 0.0000e+00
      4.054      0.026     7.5047     65.245     37.947  25.959895     3.1118      6.805   337.7286 4.2225e+01     1.5240      3.975      5.765     9.2569 0.0000e+00
      4.059      0.024     7.5016     65.213     37.932  25.947196     3.1512      6.804   337.7229 4.2202e+01     1.5566      3.982      5.775     9.2364 0.0000e+00
      4.064      0.022     7.4981     65.178     37.952  25.958636     3.1742      6.804   337.6382 4.2079e+01     1.5739      3.985      5.779     9.2193 0.0000e+00
      4.069      0.022     7.4943     65.127     37.984  25.971221     3.1697      6.803   337.5648 4.1943e+01     1.5509      3.990      5.787     9.2088 0.0000e+00
      4.075      0.023     7.4890     65.047     38.010  25.972358     3.1600      6.801   337.5253 4.1803e+01     1.5220      3.997      5.797     9.2019 0.0000e+00
      4.081      0.024     7.4799     64.933     38.035  25.972369     3.1575      6.801   337.5902 4.1572e+01     1.5303      4.002      5.803     9.1985 0.0000e+00
      4.087      0.026     7.4689     64.798     38.061  25.971339     3.1678      6.801   337.8326 4.1350e+01     1.5290      4.008      5.812     9.2002 0.0000e+00
      4.094      0.026     7.4590     64.662     38.081  25.959883     3.1746      6.800   338.1327 4.1050e+01     1.5060      4.015      5.822     9.1919 0.0000e+00
      4.101      0.026     7.4484     64.535     38.107  25.960821     3.1842      6.797   338.3800 4.0765e+01     1.4960      4.021      5.832     9.1601 0.0000e+00
      4.109      0.027     7.4371     64.437     38.140  25.982661     3.2105      6.794   338.6715 4.0679e+01     1.4993      4.029      5.845     9.1408 0.0000e+00
      4.116      0.030     7.4291     64.383     38.110  25.969970     3.2267      6.789   338.9050 4.0639e+01     1.5158      4.037      5.856     9.1227 0.0000e+00
      4.122      0.032     7.4261     64.361     38.055  25.934373     3.2331      6.785   338.8790 4.0505e+01     1.5432      4.042      5.862     9.0779 0.0000e+00
      4.129      0.033     7.4236     64.330     38.060  25.933228     3.2316      6.781   338.8742 4.0217e+01     1.5562      4.046      5.868     9.0505 0.0000e+00
      4.139      0.032     7.4172     64.264     38.101  25.956126     3.2086      6.778   339.1046 3.9757e+01     1.5508      4.057      5.885     9.0568 0.0000e+00
      4.152      0.032     7.4087     64.187     38.105  25.957253     3.1848      6.776   339.3421 3.9413e+01     1.5391      4.075      5.909     9.0741 0.0000e+00
      4.161      0.032     7.4001     64.121     38.084  25.946853     3.1742      6.775   339.4220 3.9205e+01     1.5365      4.083      5.922     9.0777 0.0000e+00
      4.164      0.033     7.3944     64.084     38.090  25.957364     3.1721      6.772   339.3830 3.8904e+01     1.5499      4.083      5.922     9.0663 0.0000e+00
      4.168      0.033     7.3935     64.079     38.089  25.957364     3.2145      6.769   339.3870 3.8570e+01     1.5479      4.086      5.926     9.0579 0.0000e+00
      4.177      0.034     7.3932     64.068     38.079  25.946853     3.3007      6.767   339.4703 3.8176e+01     1.5425      4.094      5.938     9.0544 0.0000e+00
      4.189      0.035     7.3940     64.067     38.099  25.957252     3.3500      6.767   339.4433 3.7807e+01     1.5465      4.108      5.959     9.0617 0.0000e+00
      4.202      0.035     7.3983     64.096     38.103  25.956105     3.3519      6.767   339.3186 3.7654e+01     1.5346      4.122      5.979     9.0757 0.0000e+00
      4.212      0.034     7.4046     64.140     38.077  25.932989     3.3509      6.767   339.2538 3.7597e+01     1.5512      4.131      5.992     9.0751 0.0000e+00
      4.219      0.032     7.4088     64.162     38.086  25.931730     3.3566      6.767   339.3477 3.7443e+01     1.6260      4.137      5.999     9.0664 0.0000e+00
      4.225      0.028     7.4083     64.138     38.114  25.940871     3.3566      6.767   339.4212 3.7244e+01     1.6756      4.143      6.008     9.0636 0.0000e+00
      4.231      0.025     7.4044     64.080     38.097  25.916516     3.3505      6.768   339.3684 3.7149e+01     1.6932      4.149      6.018     9.0583 0.0000e+00
      4.238      0.023     7.3989     64.005     38.079  25.891224     3.3196      6.768   339.3113 3.6917e+01     1.7172      4.156      6.027     9.0516 0.0000e+00
      4.243      0.022     7.3940     63.938     38.094  25.889030     3.2589      6.767   339.2463 3.6476e+01     1.7208      4.161      6.035     9.0434 0.0000e+00
      4.249      0.022     7.3905     63.881     38.114  25.889977     3.2320      6.767   339.3580 3.6133e+01     1.7369      4.167      6.043     9.0292 0.0000e+00
      4.254      0.022     7.3867     63.815     38.157  25.902658     3.2435      6.766   339.6298 3.5866e+01     1.7593      4.172      6.051     9.0130 0.0000e+00
      4.259      0.021     7.3794     63.733     38.190  25.915345     3.2594      6.763   339.8647 3.5529e+01     1.7478      4.175      6.057     8.9935 0.0000e+00
      4.264      0.021     7.3694     63.658     38.184  25.916385     3.2771      6.759   340.1333 3.5116e+01     1.7194      4.181      6.064     8.9778 0.0000e+00
      4.270      0.020     7.3593     63.600     38.161  25.915230     3.2826      6.755   340.4687 3.4677e+01     1.6912      4.188      6.074     8.9652 0.0000e+00
      4.276      0.019     7.3508     63.545     38.126  25.901395     3.2798      6.752   340.7364 3.4299e+01     1.7121      4.194      6.083     8.9369 0.0000e+00
      4.280      0.018     7.3463     63.503     38.091  25.876111     3.2799      6.749   340.8739 3.4038e+01     1.7585      4.198      6.089     8.9172 0.0000e+00
      4.284      0.017     7.3411     63.445     38.082  25.863498     3.2842      6.746   341.0124 3.3771e+01     1.7335      4.201      6.093     8.9297 0.0000e+00
      4.288      0.015     7.3317     63.355     38.107  25.875864     3.2862      6.743   341.1216 3.3449e+01     1.6845      4.205      6.099     8.9557 0.0000e+00
      4.292      0.015     7.3262     63.300     38.146  25.898638     3.2853      6.740   341.1624 3.3185e+01     1.6842      4.210      6.107     8.9736 0.0000e+00
      4.296      0.015     7.3267     63.281     38.143  25.884880     3.3004      6.737   341.1610 3.2979e+01     1.7301      4.213      6.110     8.9666 0.0000e+00
      4.299      0.015     7.3254     63.228     38.103  25.836500     3.3958      6.735   341.1040 3.2788e+01     1.8124      4.216      6.115     8.9523 0.0000e+00
      4.303      0.016     7.3212     63.143     38.117  25.821610     3.5657      6.733   341.1614 3.2622e+01     1.8857      4.220      6.121     8.9491 0.0000e+00
      4.307      0.018     7.3165     63.061     38.163  25.831802     3.6635      6.731   341.3398 3.2479e+01     1.9142      4.223      6.124     8.9489 0.0000e+00
      4.311      0.020     7.3139     63.006     38.188  25.832731     3.6686      6.729   341.4537 3.2302e+01     1.9132      4.227      6.130     8.9349 0.0000e+00
      4.317      0.021     7.3154     62.993     38.208  25.832816     3.6733      6.727   341.5066 3.2101e+01     1.8735      4.233      6.139     8.9028 0.0000e+00
      4.323      0.023     7.3204     63.016     38.223  25.832824     3.6834      6.727   341.5496 3.1974e+01     1.7700      4.240      6.149     8.8666 0.0000e+00
      4.330      0.023     7.3269     63.052     38.237  25.832816     3.6716      6.727   341.5434 3.1890e+01     1.6998      4.246      6.159     8.8399 0.0000e+00
      4.335      0.024     7.3345     63.100     38.251  25.832712     3.6691      6.727   341.5170 3.1729e+01     1.7264      4.251      6.166     8.8204 0.0000e+00
      4.341      0.024     7.3438     63.166     38.259  25.831550     3.7911      6.727   341.4881 3.1516e+01     1.8469      4.257      6.174     8.8028 0.0000e+00
      4.348      0.024     7.3519     63.236     38.240  25.818755     4.0066      6.727   341.3661 3.1282e+01     1.9971      4.262      6.184     8.7897 0.0000e+00
      4.353      0.025     7.3578     63.294     38.214  25.805006     4.1155      6.728   341.2468 3.1046e+01     2.0466      4.268      6.191     8.7784 0.0000e+00
      4.359      0.028     7.3621     63.328     38.197  25.792298     4.1331      6.729   341.2504 3.0877e+01     2.0805      4.275      6.200     8.7647 0.0000e+00
      4.366      0.032     7.3651     63.330     38.214  25.792088     4.2557      6.731   341.2370 3.0698e+01     2.1016      4.281      6.210     8.7529 0.0000e+00
      4.374      0.035     7.3677     63.315     38.258  25.802462     4.4678      6.731   341.0847 3.0398e+01     2.0271      4.288      6.219     8.7551 0.0000e+00
      4.384      0.037     7.3708     63.304     38.268  25.790718     4.5747      6.732   340.9573 3.0073e+01     1.9723      4.298      6.234     8.7642 0.0000e+00
      4.396      0.038     7.3721     63.284     38.270  25.777067     4.5739      6.732   340.9882 2.9835e+01     1.9583      4.311      6.252     8.7660 0.0000e+00
      4.408      0.037     7.3703     63.248     38.267  25.764378     4.5502      6.731   341.1141 2.9641e+01     1.9490      4.322      6.269     8.7481 0.0000e+00
      4.418      0.035     7.3663     63.204     38.275  25.764274     4.3346      6.729   341.4467 2.9479e+01     1.8910      4.332      6.283     8.7185 0.0000e+00
      4.427      0.032     7.3605     63.156     38.291  25.775800     3.9337      6.724   341.8261 2.9412e+01     1.7765      4.341      6.296     8.6941 0.0000e+00
      4.434      0.029     7.3576     63.138     38.287  25.776753     3.7094      6.718   342.0021 2.9433e+01     1.7235      4.348      6.306     8.6733 0.0000e+00
      4.439      0.027     7.3600     63.168     38.279  25.775807     3.6991      6.712   342.1978 2.9428e+01     1.7382      4.354      6.313     8.6586 0.0000e+00
      4.444      0.026     7.3633     63.201     38.258  25.764367     3.7998      6.706   342.4713 2.9289e+01     1.8326      4.357      6.320     8.6526 0.0000e+00
      4.449      0.025     7.3655     63.222     38.258  25.765417     3.9803      6.701   342.5555 2.9054e+01     1.9481      4.362      6.327     8.6538 0.0000e+00
      4.457      0.025     7.3676     63.240     38.292  25.788505     4.0715      6.699   342.4417 2.8834e+01     1.9448      4.371      6.339     8.6610 0.0000e+00
      4.466      0.024     7.3686     63.246     38.295  25.789545     4.0658      6.698   342.2997 2.8622e+01     1.9143      4.381      6.354     8.6676 0.0000e+00
      4.472      0.024     7.3678     63.237     38.280  25.777991     4.0317      6.699   342.1298 2.8400e+01     1.9465      4.385      6.361     8.6702 0.0000e+00
      4.476      0.023     7.3664     63.224     38.277  25.775796     3.9803      6.701   342.0217 2.8197e+01     1.9677      4.389      6.366     8.6718 0.0000e+00
      4.481      0.021     7.3647     63.206     38.260  25.763004     3.9597      6.702   342.0248 2.7956e+01     1.9571      4.394      6.373     8.6713 0.0000e+00
      4.487      0.020     7.3612     63.173     38.244  25.750306     3.9665      6.704   342.0814 2.7746e+01     1.9402      4.399      6.381     8.6689 0.0000e+00
      4.493      0.020     7.3578     63.141     38.246  25.749255     4.0708      6.707   342.1042 2.7596e+01     1.9465      4.406      6.390     8.6683 0.0000e+00
      4.498      0.020     7.3578     63.137     38.250  25.750295     4.2749      6.709   342.0423 2.7438e+01     1.9730      4.411      6.397     8.6679 0.0000e+00
      4.502      0.020     7.3599     63.152     38.271  25.762878     4.3844      6.711   341.9361 2.7356e+01     1.9550      4.415      6.404     8.6660 0.0000e+00
      4.506      0.021     7.3599     63.147     38.291  25.774406     4.3931      6.712   341.7666 2.7299e+01     1.9130      4.419      6.409     8.6631 0.0000e+00
      4.511      0.022     7.3580     63.126     38.277  25.762692     4.4807      6.714   341.7128 2.7161e+01     1.8920      4.424      6.415     8.6606 0.0000e+00
      4.517      0.023     7.3575     63.116     38.260  25.748225     4.6627      6.714   341.8878 2.6976e+01     1.9137      4.430      6.424     8.6584 0.0000e+00
      4.524      0.024     7.3581     63.115     38.233  25.726472     4.7746      6.714   341.9899 2.6789e+01     1.9624      4.437      6.435     8.6567 0.0000e+00
      4.531      0.025     7.3596     63.122     38.183  25.690161     4.7859      6.715   341.9140 2.6669e+01     1.9618      4.444      6.445     8.6544 0.0000e+00
      4.537      0.026     7.3598     63.120     38.186  25.690151     4.7810      6.716   341.8313 2.6563e+01     1.9066      4.449      6.453     8.6510 0.0000e+00
      4.543      0.026     7.3573     63.092     38.244  25.726343     4.8623      6.717   341.7644 2.6370e+01     1.8751      4.454      6.460     8.6474 0.0000e+00
      4.550      0.026     7.3557     63.070     38.281  25.746794     5.0343      6.717   341.7073 2.6176e+01     1.9171      4.462      6.471     8.6420 0.0000e+00
      4.557      0.027     7.3559     63.062     38.288  25.746935     5.1319      6.717   341.5718 2.6047e+01     1.9557      4.469      6.482     8.6377 0.0000e+00
      4.564      0.030     7.3574     63.064     38.268  25.728043     5.1330      6.717   341.4165 2.5907e+01     1.9451      4.476      6.491     8.6370 0.0000e+00
      4.571      0.033     7.3599     63.071     38.250  25.708853     5.0935      6.717   341.4637 2.5735e+01     1.9420      4.482      6.501     8.6334 0.0000e+00
      4.578      0.036     7.3621     63.070     38.260  25.705382     5.0402      6.717   341.7122 2.5550e+01     1.9488      4.490      6.512     8.6266 0.0000e+00
      4.587      0.038     7.3656     63.077     38.248  25.686069     5.0217      6.717   342.0131 2.5296e+01     1.9358      4.498      6.524     8.6211 0.0000e+00
      4.599      0.038     7.3696     63.094     38.230  25.665801     5.0171      6.715   342.1754 2.5013e+01     1.9066      4.510      6.542     8.6130 0.0000e+00
      4.613      0.038     7.3715     63.103     38.214  25.650800     5.0114      6.712   342.2124 2.4779e+01     1.9010      4.525      6.563     8.6059 0.0000e+00
      4.623      0.037     7.3752     63.134     38.186  25.631670     5.0170      6.710   342.2884 2.4613e+01     1.9288      4.536      6.578     8.5921 0.0000e+00
      4.631      0.034     7.3835     63.203     38.177  25.624990     5.0212      6.708   342.4054 2.4482e+01     1.9375      4.541      6.587     8.5731 0.0000e+00
      4.637      0.031     7.3934     63.280     38.196  25.633528     5.0159      6.707   342.5950 2.4336e+01     1.9150      4.547      6.594     8.5630 0.0000e+00
      4.644      0.028     7.4030     63.351     38.261  25.671406     4.9616      6.704   342.8601 2.4194e+01     1.9010      4.555      6.606     8.5583 0.0000e+00
      4.653      0.026     7.4111     63.412     38.313  25.701998     4.8716      6.702   343.0294 2.4065e+01     1.9205      4.563      6.617     8.5601 0.0000e+00
      4.660      0.025     7.4175     63.462     38.293  25.685940     4.8280      6.700   343.0928 2.3953e+01     1.9368      4.570      6.628     8.5605 0.0000e+00
      4.665      0.024     7.4233     63.508     38.268  25.667732     4.8210      6.698   343.1108 2.3862e+01     1.9148      4.576      6.637     8.5532 0.0000e+00
      4.670      0.023     7.4282     63.547     38.276  25.672322     4.8405      6.698   343.0750 2.3784e+01     1.8995      4.580      6.643     8.5451 0.0000e+00
      4.676      0.022     7.4328     63.587     38.285  25.677939     4.8899      6.698   343.0042 2.3718e+01     1.9039      4.585      6.650     8.5398 0.0000e+00
      4.681      0.020     7.4377     63.627     38.278  25.672152     4.9218      6.700   342.9427 2.3626e+01     1.9065      4.591      6.658     8.5370 0.0000e+00
      4.687      0.019     7.4432     63.668     38.273  25.665844     4.9413      6.700   342.9339 2.3538e+01     1.9315      4.597      6.667     8.5342 0.0000e+00
      4.692      0.019     7.4517     63.733     38.278  25.665163     4.9599      6.701   342.9836 2.3505e+01     1.9617      4.602      6.675     8.5323 0.0000e+00
      4.697      0.019     7.4626     63.812     38.286  25.663913     4.9999      6.702   343.0276 2.3509e+01     1.9669      4.607      6.681     8.5335 0.0000e+00
      4.701      0.019     7.4707     63.865     38.279  25.650733     5.0768      6.702   343.0353 2.3519e+01     1.9638      4.610      6.686     8.5326 0.0000e+00
      4.705      0.019     7.4767     63.895     38.268  25.632778     5.1263      6.702   343.0763 2.3470e+01     1.9849      4.613      6.691     8.5290 0.0000e+00
      4.711      0.019     7.4832     63.932     38.288  25.637293     5.1382      6.702   343.1796 2.3352e+01     2.0092      4.619      6.700     8.5238 0.0000e+00
      4.716      0.019     7.4920     63.995     38.303  25.641816     5.1844      6.703   343.3377 2.3273e+01     1.9828      4.626      6.710     8.5148 0.0000e+00
      4.721      0.019     7.5043     64.092     38.282  25.623965     5.2627      6.704   343.4399 2.3221e+01     1.9397      4.630      6.715     8.5033 0.0000e+00
      4.725      0.018     7.5220     64.236     38.270  25.611937     5.3029      6.703   343.4689 2.3106e+01     1.9156      4.634      6.721     8.4895 0.0000e+00
      4.730      0.016     7.5470     64.442     38.293  25.623376     5.3129      6.702   343.5164 2.2960e+01     1.9057      4.639      6.728     8.4769 0.0000e+00
      4.734      0.016     7.5773     64.692     38.318  25.635281     5.3374      6.701   343.5829 2.2788e+01     1.9115      4.643      6.734     8.4689 0.0000e+00
      4.738      0.016     7.6102     64.963     38.315  25.628878     5.3686      6.701   343.5849 2.2603e+01     1.9240      4.648      6.741     8.4650 0.0000e+00
      4.742      0.017     7.6427     65.231     38.293  25.609453     5.3867      6.701   343.5406 2.2468e+01     1.9353      4.650      6.744     8.4606 0.0000e+00
      4.745      0.017     7.6713     65.461     38.275  25.590887     5.3999      6.700   343.6499 2.2349e+01     1.9554      4.653      6.748     8.4545 0.0000e+00
      4.750      0.018     7.6943     65.636     38.296  25.594877     5.5010      6.699   343.8742 2.2211e+01     1.9852      4.658      6.756     8.4496 0.0000e+00
      4.756      0.019     7.7133     65.777     38.310  25.594191     5.6904      6.697   344.0155 2.2085e+01     1.9901      4.664      6.764     8.4423 0.0000e+00
      4.761      0.022     7.7308     65.913     38.303  25.582585     5.8062      6.697   343.9817 2.1958e+01     1.9836      4.669      6.772     8.4379 0.0000e+00
      4.766      0.024     7.7470     66.039     38.309  25.581521     5.8351      6.697   343.8102 2.1810e+01     1.9984      4.674      6.777     8.4316 0.0000e+00
      4.772      0.027     7.7647     66.180     38.317  25.581331     5.9203      6.697   343.6617 2.1674e+01     1.9863      4.679      6.786     8.4140 0.0000e+00
      4.779      0.031     7.7892     66.375     38.325  25.580274     6.0643      6.696   343.6487 2.1536e+01     1.9288      4.686      6.797     8.3992 0.0000e+00
      4.787      0.035     7.8214     66.627     38.323  25.568730     6.1336      6.696   343.7394 2.1309e+01     1.8830      4.695      6.809     8.3930 0.0000e+00
      4.796      0.038     7.8559     66.897     38.340  25.568730     6.1421      6.696   343.8120 2.1059e+01     1.8903      4.703      6.822     8.3865 0.0000e+00
      4.807      0.040     7.8901     67.178     38.364  25.580265     6.1488      6.696   343.8385 2.0884e+01     1.9254      4.714      6.837     8.3788 0.0000e+00
      4.819      0.040     7.9286     67.509     38.364  25.581208     6.0671      6.697   343.8880 2.0687e+01     1.9406      4.726      6.855     8.3735 0.0000e+00
      4.830      0.040     7.9716     67.879     38.359  25.580139     5.9077      6.698   343.9797 2.0464e+01     1.9218      4.737      6.872     8.3590 0.0000e+00
      4.839      0.039     8.0186     68.277     38.342  25.567335     5.8211      6.698   344.0014 2.0296e+01     1.8816      4.746      6.884     8.3376 0.0000e+00
      4.848      0.038     8.0745     68.732     38.335  25.553390     5.8015      6.699   343.9774 2.0151e+01     1.8811      4.754      6.895     8.3329 0.0000e+00
      4.857      0.036     8.1347     69.206     38.339  25.538509     5.6703      6.700   344.0335 2.0018e+01     1.9166      4.763      6.909     8.3389 0.0000e+00
      4.867      0.034     8.1915     69.651     38.328  25.514373     5.4196      6.700   344.0780 1.9884e+01     1.9142      4.773      6.923     8.3418 0.0000e+00
      4.876      0.032     8.2422     70.065     38.342  25.515518     5.2703      6.701   343.9998 1.9712e+01     1.9126      4.782      6.936     8.3428 0.0000e+00
      4.885      0.030     8.2808     70.401     38.392  25.552353     5.2709      6.701   343.8619 1.9534e+01     1.9584      4.792      6.950     8.3330 0.0000e+00
      4.892      0.027     8.3095     70.683     38.406  25.578769     5.4279      6.701   343.9590 1.9369e+01     1.9804      4.798      6.960     8.3037 0.0000e+00
      4.897      0.025     8.3425     71.012     38.378  25.580961     5.7064      6.701   344.2285 1.9222e+01     1.9645      4.803      6.966     8.2760 0.0000e+00
      4.903      0.024     8.3830     71.379     38.360  25.578878     5.8635      6.701   344.3665 1.9117e+01     1.9494      4.809      6.974     8.2678 0.0000e+00
      4.909      0.023     8.4227     71.712     38.325  25.553596     5.8760      6.700   344.5090 1.8996e+01     1.9498      4.813      6.982     8.2678 0.0000e+00
      4.915      0.023     8.4590     72.001     38.302  25.529242     5.8745      6.697   344.6601 1.8839e+01     2.0003      4.819      6.990     8.2951 0.0000e+00
      4.921      0.022     8.4881     72.227     38.330  25.538382     5.8832      6.695   344.7315 1.8708e+01     2.0716      4.826      6.999     8.3347 0.0000e+00
      4.928      0.021     8.5040     72.350     38.336  25.537122     5.8801      6.692   344.8561 1.8610e+01     2.1098      4.833      7.010     8.3441 0.0000e+00
      4.934      0.020     8.5084     72.383     38.304  25.513994     5.8643      6.689   344.9620 1.8543e+01     2.1259      4.839      7.018     8.3385 0.0000e+00
      4.938      0.019     8.5055     72.345     38.310  25.512724     5.8207      6.687   345.0655 1.8500e+01     2.1454      4.843      7.024     8.3253 0.0000e+00
      4.942      0.018     8.4968     72.249     38.339  25.521762     5.7483      6.685   345.2475 1.8445e+01     2.1623      4.846      7.028     8.3090 0.0000e+00
      4.945      0.018     8.4868     72.135     38.320  25.496262     5.7063      6.684   345.4414 1.8376e+01     2.1466      4.849      7.034     8.3025 0.0000e+00
      4.950      0.019     8.4833     72.062     38.290  25.458368     5.6981      6.684   345.6026 1.8289e+01     2.1090      4.854      7.041     8.3062 0.0000e+00
      4.955      0.020     8.4889     72.064     38.300  25.444536     5.6956      6.683   345.6485 1.8173e+01     2.1043      4.859      7.048     8.2984 0.0000e+00
      4.960      0.021     8.5019     72.144     38.338  25.455986     5.7399      6.681   345.6527 1.8072e+01     2.1197      4.864      7.055     8.2816 0.0000e+00
      4.966      0.023     8.5239     72.320     38.365  25.469811     5.8293      6.680   345.6531 1.7997e+01     2.1125      4.870      7.064     8.2707 0.0000e+00
      4.972      0.023     8.5530     72.572     38.384  25.484701     5.8759      6.681   345.6531 1.7908e+01     2.1088      4.876      7.072     8.2436 0.0000e+00
      4.978      0.024     8.5801     72.813     38.413  25.509038     5.8804      6.682   345.7382 1.7811e+01     2.1056      4.881      7.080     8.2108 0.0000e+00
      4.985      0.027     8.6086     73.066     38.408  25.510097     5.9397      6.682   345.8227 1.7728e+01     2.0433      4.888      7.090     8.1938 0.0000e+00
      4.991      0.031     8.6428     73.363     38.384  25.497503     6.0595      6.682   345.8142 1.7631e+01     1.9656      4.895      7.099     8.1890 0.0000e+00
      4.997      0.037     8.6691     73.586     38.364  25.483765     6.1338      6.681   345.8064 1.7478e+01     1.9294      4.900      7.106     8.1933 0.0000e+00
      5.006      0.044     8.6871     73.730     38.350  25.470971     6.1481      6.679   345.9009 1.7273e+01     1.9094      4.908      7.119     8.2021 0.0000e+00
      5.018      0.053     8.7035     73.853     38.359  25.469800     6.2055      6.677   346.0101 1.7044e+01     1.9075      4.921      7.137     8.2085 0.0000e+00
      5.033      0.060     8.7148     73.931     38.370  25.469590     6.3233      6.675   346.0951 1.6740e+01     1.9064      4.935      7.157     8.2125 0.0000e+00
      5.051      0.066     8.7194     73.953     38.380  25.468428     6.3956      6.673   346.2396 1.6345e+01     1.8967      4.952      7.183     8.2138 0.0000e+00
      5.072      0.070     8.7202     73.947     38.368  25.455738     6.3989      6.671   346.3814 1.6002e+01     1.9115      4.975      7.215     8.2079 0.0000e+00
      5.092      0.071     8.7207     73.944     38.354  25.443145     6.4091      6.670   346.4326 1.5733e+01     1.9942      4.994      7.242     8.1978 0.0000e+00
      5.110      0.071     8.7227     73.955     38.358  25.443145     6.4452      6.668   346.5140 1.5464e+01     2.1035      5.010      7.268     8.1867 0.0000e+00
      5.127      0.070     8.7267     73.984     38.380  25.455738     6.4592      6.665   346.6773 1.5216e+01     2.1345      5.029      7.294     8.1762 0.0000e+00
      5.143      0.069     8.7300     74.009     38.401  25.468418     6.4498      6.663   346.7723 1.4991e+01     2.1243      5.044      7.315     8.1702 0.0000e+00
      5.160      0.069     8.7315     74.015     38.406  25.469467     6.4603      6.662   346.8024 1.4751e+01     2.1324      5.059      7.338     8.1671 0.0000e+00
      5.178      0.069     8.7320     74.015     38.408  25.468418     6.5580      6.661   346.8691 1.4498e+01     2.0803      5.078      7.366     8.1631 0.0000e+00
      5.197      0.071     8.7313     74.005     38.391  25.455728     6.7307      6.661   346.8910 1.4260e+01     1.9819      5.097      7.393     8.1602 0.0000e+00
      5.214      0.074     8.7291     73.982     38.375  25.443021     6.8294      6.661   346.8089 1.4024e+01     1.9502      5.113      7.417     8.1594 0.0000e+00
      5.231      0.077     8.7264     73.954     38.377  25.441763     6.8415      6.661   346.7365 1.3741e+01     1.9421      5.128      7.437     8.1563 0.0000e+00
      5.251      0.079     8.7243     73.933     38.377  25.440513     6.9604      6.662   346.7045 1.3435e+01     1.9144      5.148      7.466     8.1525 0.0000e+00
      5.274      0.080     8.7233     73.921     38.360  25.427910     7.2010      6.663   346.6794 1.3145e+01     1.8904      5.173      7.502     8.1512 0.0000e+00
      5.296      0.080     8.7233     73.919     38.343  25.416366     7.3330      6.663   346.6915 1.2864e+01     1.8949      5.194      7.533     8.1485 0.0000e+00
      5.317      0.081     8.7232     73.916     38.362  25.427920     7.3437      6.663   346.6788 1.2607e+01     1.9383      5.216      7.565     8.1452 0.0000e+00
      5.337      0.082     8.7208     73.895     38.382  25.440618     7.4047      6.663   346.6976 1.2370e+01     1.9576      5.235      7.592     8.1437 0.0000e+00
      5.355      0.085     8.7172     73.865     38.386  25.442910     7.5272      6.662   347.0051 1.2125e+01     1.9445      5.250      7.615     8.1420 0.0000e+00
      5.374      0.091     8.7140     73.840     38.404  25.455627     7.5849      6.659   347.3854 1.1858e+01     1.9333      5.269      7.642     8.1412 0.0000e+00
      5.397      0.099     8.7110     73.815     38.421  25.467399     7.5514      6.654   347.5094 1.1553e+01     1.9136      5.292      7.675     8.1403 0.0000e+00
      5.423      0.105     8.7079     73.789     38.407  25.458249     7.3694      6.651   347.4720 1.1219e+01     1.8586      5.318      7.712     8.1387 0.0000e+00
      5.453      0.107     8.7049     73.764     38.427  25.471988     7.0663      6.650   347.3645 1.0856e+01     1.7874      5.346      7.753     8.1390 0.0000e+00
      5.487      0.106     8.7020     73.738     38.479  25.506525     6.9102      6.650   347.2415 1.0499e+01     1.7551      5.382      7.806     8.1404 0.0000e+00
      5.518      0.101     8.6996     73.718     38.462  25.494876     6.8980      6.651   347.1045 1.0231e+01     1.7430      5.416      7.854     8.1404 0.0000e+00
      5.543      0.092     8.6951     73.684     38.404  25.458136     6.8358      6.652   346.9973 1.0040e+01     1.7315      5.437      7.885     8.1406 0.0000e+00
      5.563      0.082     8.6838     73.597     38.376  25.443261     6.7178      6.652   346.9783 9.8735e+00     1.7390      5.456      7.912     8.1418 0.0000e+00
      5.581      0.074     8.6671     73.463     38.369  25.442013     6.6486      6.652   346.9611 9.7335e+00     1.7418      5.473      7.938     8.1410 0.0000e+00
      5.597      0.071     8.6489     73.313     38.368  25.443044     6.6418      6.653   346.9613 9.6086e+00     1.7346      5.489      7.961     8.1392 0.0000e+00
      5.612      0.073     8.6289     73.143     38.388  25.455730     6.6453      6.653   347.0667 9.4774e+00     1.7121      5.504      7.983     8.1418 0.0000e+00
      5.627      0.078     8.6073     72.957     38.408  25.468418     6.6904      6.651   347.2031 9.3347e+00     1.6836      5.518      8.002     8.1479 0.0000e+00
      5.645      0.085     8.5874     72.787     38.411  25.469468     6.7830      6.651   347.3197 9.1659e+00     1.6959      5.534      8.028     8.1530 0.0000e+00
      5.669      0.091     8.5685     72.623     38.411  25.468420     6.8367      6.649   347.3577 8.9466e+00     1.7379      5.557      8.060     8.1556 0.0000e+00
      5.698      0.095     8.5500     72.461     38.396  25.455741     6.8430      6.648   347.2320 8.6816e+00     1.7647      5.587      8.104     8.1546 0.0000e+00
      5.728      0.096     8.5375     72.352     38.379  25.443148     6.9418      6.649   347.1772 8.4309e+00     1.7461      5.618      8.150     8.1528 0.0000e+00
      5.754      0.094     8.5292     72.281     38.380  25.443148     7.1399      6.650   347.2967 8.2272e+00     1.7264      5.644      8.186     8.1526 0.0000e+00
      5.775      0.090     8.5182     72.185     38.400  25.455741     7.2534      6.650   347.3867 8.0537e+00     1.7409      5.665      8.216     8.1504 0.0000e+00
      5.795      0.088     8.5052     72.073     38.421  25.468421     7.2578      6.650   347.4909 7.9060e+00     1.7376      5.683      8.242     8.1465 0.0000e+00
      5.815      0.088     8.4941     71.975     38.425  25.469470     7.0735      6.648   347.6094 7.7648e+00     1.7779      5.703      8.270     8.1447 0.0000e+00
      5.836      0.091     8.4837     71.885     38.425  25.468421     6.7162      6.645   347.6149 7.6004e+00     1.8921      5.722      8.300     8.1449 0.0000e+00
      5.859      0.097     8.4727     71.790     38.407  25.455733     6.5216      6.641   347.6436 7.4146e+00     1.9586      5.744      8.332     8.1439 0.0000e+00
      5.885      0.102     8.4619     71.699     38.387  25.443044     6.5121      6.638   347.6990 7.2271e+00     1.9715      5.770      8.368     8.1413 0.0000e+00
      5.914      0.104     8.4498     71.598     38.385  25.441994     6.4819      6.637   347.6820 7.0416e+00     1.9260      5.799      8.411     8.1397 0.0000e+00
      5.944      0.103     8.4367     71.488     38.386  25.443035     6.4146      6.635   347.6962 6.8561e+00     1.8060      5.829      8.456     8.1388 0.0000e+00
      5.973      0.099     8.4260     71.396     38.406  25.455628     6.3877      6.634   347.7850 6.6866e+00     1.7101      5.859      8.496     8.1379 0.0000e+00
      5.999      0.094     8.4183     71.328     38.425  25.467276     6.3949      6.634   347.8092 6.5482e+00     1.6817      5.885      8.534     8.1380 0.0000e+00
      6.019      0.089     8.4146     71.295     38.411  25.456877     6.4192      6.634   347.8171 6.4278e+00     1.7065      5.904      8.563     8.1394 0.0000e+00
      6.038      0.085     8.4109     71.263     38.411  25.456887     6.4701      6.634   347.9662 6.3019e+00     1.7360      5.920      8.586     8.1395 0.0000e+00
      6.057      0.083     8.4050     71.213     38.427  25.467390     6.5047      6.632   348.1496 6.1569e+00     1.7326      5.940      8.615     8.1380 0.0000e+00
      6.079      0.084     8.3995     71.165     38.412  25.456888     6.5158      6.630   348.3144 6.0070e+00     1.7266      5.962      8.647     8.1367 0.0000e+00
      6.101      0.089     8.3923     71.102     38.413  25.456878     6.5228      6.628   348.4952 5.8767e+00     1.7254      5.983      8.679     8.1361 0.0000e+00
      6.122      0.094     8.3869     71.055     38.429  25.467278     6.5973      6.627   348.5291 5.7477e+00     1.7178      6.002      8.706     8.1359 0.0000e+00
      6.145      0.098     8.3841     71.030     38.413  25.455640     6.7464      6.627   348.3799 5.5996e+00     1.7268      6.024      8.737     8.1357 0.0000e+00
      6.173      0.101     8.3795     70.990     38.395  25.443151     6.8269      6.627   348.3263 5.4491e+00     1.7419      6.054      8.780     8.1350 0.0000e+00
      6.203      0.102     8.3758     70.957     38.396  25.443265     6.8359      6.627   348.3969 5.3112e+00     1.7477      6.085      8.824     8.1342 0.0000e+00
      6.231      0.103     8.3751     70.951     38.417  25.457013     6.9284      6.626   348.4589 5.1880e+00     1.7365      6.112      8.864     8.1333 0.0000e+00
      6.256      0.104     8.3749     70.949     38.455  25.482390     7.1004      6.626   348.5601 5.0783e+00     1.7276      6.136      8.898     8.1322 0.0000e+00
      6.278      0.107     8.3760     70.956     38.477  25.496129     7.1962      6.624   348.6743 4.9603e+00     1.7319      6.155      8.927     8.1313 0.0000e+00
      6.303      0.112     8.3797     70.981     38.481  25.496130     7.2232      6.621   348.6343 4.8241e+00     1.6971      6.180      8.963     8.1306 0.0000e+00
      6.332      0.117     8.3836     71.007     38.466  25.482402     7.4264      6.620   348.4213 4.6920e+00     1.6732      6.209      9.006     8.1307 0.0000e+00
      6.364      0.119     8.3888     71.042     38.434  25.457130     7.7970      6.622   348.3354 4.5565e+00     1.6870      6.239      9.049     8.1314 0.0000e+00
      6.399      0.116     8.3948     71.086     38.420  25.444537     8.0004      6.624   348.3708 4.4058e+00     1.6814      6.274      9.099     8.1302 0.0000e+00
      6.435      0.109     8.3964     71.096     38.440  25.457132     8.0292      6.625   348.2469 4.2843e+00     1.6966      6.315      9.158     8.1258 0.0000e+00
      6.465      0.100     8.3937     71.073     38.478  25.482425     8.0347      6.626   348.1275 4.2081e+00     1.7485      6.345      9.201     8.1212 0.0000e+00
      6.484      0.089     8.3904     71.045     38.500  25.496382     8.0307      6.628   348.1316 4.1319e+00     1.7595      6.361      9.224     8.1155 0.0000e+00
      6.500      0.079     8.3873     71.018     38.505  25.498890     8.0270      6.629   348.1246 4.0553e+00     1.7385      6.374      9.244     8.1108 0.0000e+00
      6.517      0.074     8.3827     70.976     38.527  25.512743     8.0175      6.630   348.3006 3.9861e+00     1.7389      6.390      9.269     8.1102 0.0000e+00
      6.535      0.077     8.3761     70.916     38.566  25.536891     7.9435      6.629   348.6253 3.9073e+00     1.7644      6.409      9.296     8.1106 0.0000e+00
      6.553      0.086     8.3672     70.834     38.570  25.536892     7.8020      6.625   348.7819 3.8363e+00     1.7715      6.426      9.320     8.1105 0.0000e+00
      6.572      0.096     8.3548     70.720     38.540  25.512755     7.7137      6.621   348.9032 3.7577e+00     1.7338      6.442      9.343     8.1100 0.0000e+00
      6.597      0.103     8.3402     70.590     38.524  25.499017     7.6935      6.619   349.0589 3.6411e+00     1.7050      6.466      9.377     8.1083 0.0000e+00
      6.631      0.108     8.3236     70.446     38.525  25.497768     7.6959      6.619   349.1163 3.5158e+00     1.6980      6.502      9.430     8.1060 0.0000e+00
      6.666      0.110     8.3055     70.291     38.525  25.497646     7.6966      6.620   349.0810 3.4126e+00     1.7101      6.540      9.485     8.1028 0.0000e+00
      6.695      0.108     8.2887     70.150     38.524  25.497540     7.6748      6.620   348.9762 3.3321e+00     1.7294      6.568      9.526     8.0963 0.0000e+00
      6.720      0.101     8.2728     70.018     38.521  25.496490     7.6528      6.621   348.8815 3.2699e+00     1.7175      6.591      9.559     8.0913 0.0000e+00
      6.744      0.094     8.2593     69.906     38.503  25.484946     7.6412      6.622   348.9676 3.2049e+00     1.7188      6.613      9.592     8.0900 0.0000e+00
      6.766      0.089     8.2493     69.820     38.504  25.484955     7.5808      6.622   349.0721 3.1350e+00     1.7457      6.636      9.625     8.0896 0.0000e+00
      6.786      0.086     8.2403     69.740     38.524  25.496594     7.4653      6.622   349.0256 3.0820e+00     1.7373      6.656      9.654     8.0902 0.0000e+00
      6.806      0.085     8.2316     69.662     38.530  25.498693     7.4024      6.622   349.0079 3.0284e+00     1.7087      6.672      9.678     8.0918 0.0000e+00
      6.828      0.084     8.2275     69.626     38.549  25.510333     7.3987      6.622   348.9439 2.9761e+00     1.7051      6.695      9.710     8.0936 0.0000e+00
      6.852      0.084     8.2285     69.633     38.550  25.510342     7.4580      6.622   348.8541 2.9302e+00     1.7245      6.721      9.748     8.0930 0.0000e+00
      6.874      0.084     8.2304     69.648     38.532  25.498799     7.5772      6.622   348.9548 2.8617e+00     1.7289      6.743      9.779     8.0892 0.0000e+00
      6.894      0.083     8.2328     69.668     38.531  25.497750     7.6456      6.623   349.0430 2.7872e+00     1.6972      6.761      9.806     8.0866 0.0000e+00
      6.914      0.082     8.2350     69.686     38.532  25.497656     7.6597      6.624   348.9736 2.7353e+00     1.6774      6.780      9.834     8.0863 0.0000e+00
      6.935      0.083     8.2350     69.686     38.532  25.497657     7.6919      6.623   349.1489 2.7001e+00     1.7034      6.801      9.863     8.0856 0.0000e+00
      6.955      0.088     8.2309     69.652     38.532  25.497770     7.7507      6.619   349.6138 2.6637e+00     1.7364      6.822      9.894     8.0850 0.0000e+00
      6.975      0.096     8.2249     69.602     38.533  25.499019     7.7825      6.615   349.8613 2.6136e+00     1.7409      6.840      9.921     8.0847 0.0000e+00
      6.998      0.103     8.2204     69.565     38.553  25.512757     7.7630      6.611   349.8188 2.5382e+00     1.7278      6.860      9.950     8.0845 0.0000e+00
      7.027      0.108     8.2173     69.537     38.590  25.536895     7.5427      6.609   349.7886 2.4527e+00     1.7605      6.889      9.991     8.0845 0.0000e+00
      7.060      0.110     8.2143     69.511     38.591  25.536895     7.1415      6.608   349.6683 2.3866e+00     1.8623      6.924     10.042     8.0849 0.0000e+00
      7.094      0.110     8.2112     69.482     38.556  25.512758     6.9188      6.609   349.4825 2.3228e+00     1.9199      6.959     10.093     8.0857 0.0000e+00
      7.123      0.108     8.2108     69.478     38.536  25.499019     6.8902      6.610   349.5211 2.2606e+00     1.9075      6.988     10.136     8.0863 0.0000e+00
      7.147      0.103     8.2159     69.520     38.534  25.497770     6.8867      6.610   349.5325 2.2208e+00     1.8964      7.010     10.167     8.0858 0.0000e+00
      7.169      0.099     8.2247     69.594     38.534  25.497657     6.8314      6.610   349.4488 2.1817e+00     1.9069      7.029     10.195     8.0846 0.0000e+00
      7.192      0.096     8.2309     69.648     38.534  25.497647     6.7173      6.611   349.3688 2.1273e+00     1.9433      7.051     10.227     8.0835 0.0000e+00
      7.217      0.093     8.2315     69.653     38.534  25.497647     6.6562      6.612   349.2535 2.0762e+00     1.9701      7.076     10.263     8.0828 0.0000e+00
      7.244      0.089     8.2296     69.639     38.533  25.497656     6.6537      6.614   349.3455 2.0227e+00     1.9571      7.103     10.302     8.0824 0.0000e+00
      7.270      0.083     8.2285     69.629     38.533  25.497761     6.7785      6.615   349.9649 1.9612e+00     1.9377      7.131     10.343     8.0823 0.0000e+00
      7.292      0.073     8.2278     69.622     38.535  25.498916     7.0253      6.616   350.8062 1.9221e+00     1.9495      7.153     10.375     8.0826 0.0000e+00
      7.308      0.062     8.2265     69.610     38.554  25.511613     7.1559      6.617   351.0855 1.9053e+00     1.9780      7.168     10.396     8.0830 0.0000e+00
      7.320      0.050     8.2235     69.585     38.574  25.524302     7.1362      6.619   350.9328 1.8906e+00     1.9769      7.179     10.412     8.0832 0.0000e+00
      7.330      0.039     8.2199     69.556     38.576  25.525352     6.9156      6.621   350.8527 1.8715e+00     1.9366      7.189     10.427     8.0832 0.0000e+00
      7.338      0.031     8.2174     69.535     38.574  25.524303     6.5377      6.622   350.8053 1.8492e+00     1.9180      7.197     10.438     8.0833 0.0000e+00
      7.345      0.026     8.2153     69.517     38.554  25.511615     6.3443      6.623   350.6178 1.8337e+00     1.9360      7.203     10.446     8.0833 0.0000e+00
      7.350      0.021     8.2135     69.501     38.535  25.498927     6.3334      6.624   350.3923 1.8208e+00     1.9397      7.208     10.455     8.0829 0.0000e+00
      7.354      0.019     8.2127     69.494     38.533  25.497877     6.3325      6.624   350.3167 1.7964e+00     1.9324      7.213     10.461     8.0831 0.0000e+00
      7.358 -9.990e-29 -9.990e-29 -9.990e-29 -9.990e-29 -9.990e-29 -9.990e-29 -9.990e-29 -9.990e-29 1.7675e+00 -9.990e-29      7.216     10.467     8.0836 0.0000e+00
      7.361 -9.990e-29 -9.990e-29 -9.990e-29 -9.990e-29 -9.990e-29 -9.990e-29 -9.990e-29 -9.990e-29 1.7513e+00 -9.990e-29      7.219     10.470     8.0836 0.0000e+00
      7.363 -9.990e-29 -9.990e-29 -9.990e-29 -9.990e-29 -9.990e-29 -9.990e-29 -9.990e-29 -9.990e-29 1.7465e+00 -9.990e-29      7.221     10.473     8.0834 0.0000e+00
      7.364 -9.990e-29 -9.990e-29 -9.990e-29 -9.990e-29 -9.990e-29 -9.990e-29 -9.990e-29 -9.990e-29 1.7455e+00 -9.990e-29      7.222     10.475     8.0832 0.0000e+00
