* Sea-Bird SBE19plus  Data File:
* FileName = C:\DATA\043018_fcr_0007.hex
* Software version 2.6.3.104 SB_Terminal.dll
* Temperature SN = 7809
* Conductivity SN = 7809
* System UpLoad Time = May 01 2018 11:59:12
* <ApplicationData>
* <Seaterm232>
* <SoftwareVersion>2.6.3.104</SoftwareVersion>
* <BuildDate>30-Jun-2017</BuildDate>
* </Seaterm232>
* </ApplicationData>
* cast   7 30 Apr 2018 14:39:40 samples 7207 to 8289, avg = 1, stop = mag switch
# nquan = 15
# nvalues = 971                         
# units = specified
# name 0 = depFM: Depth [fresh water, m]
# name 1 = dz/dtM: Descent Rate [m/s]
# name 2 = sbeox0Mg/L: Oxygen, SBE 43 [mg/l]
# name 3 = sbeox0PS: Oxygen, SBE 43 [% saturation]
# name 4 = specc: Specific Conductance [uS/cm]
# name 5 = c0uS/cm: Conductivity [uS/cm]
# name 6 = flECO-AFL: Fluorescence, WET Labs ECO-AFL/FL [mg/m^3]
# name 7 = ph: pH
# name 8 = orp: Oxidation Reduction Potential [mV]
# name 9 = par/sat/log: PAR/Logarithmic, Satlantic
# name 10 = turbWETntu0: Turbidity, WET Labs ECO [NTU]
# name 11 = prdM: Pressure, Strain Gauge [db]
# name 12 = prdE: Pressure, Strain Gauge [psi]
# name 13 = tv290C: Temperature [ITS-90, deg C]
# name 14 = flag:  0.000e+00
# span 0 =     -0.505,      9.786       
# span 1 =     -0.118,      4.628       
# span 2 =     6.3448,    10.3520       
# span 3 =     61.762,    100.786       
# span 4 =      0.373,     38.569       
# span 5 =   0.288892,  27.836904       
# span 6 =    -0.6159,     7.4588       
# span 7 =     -2.419,     10.852       
# span 8 =  -819.3642,  1240.2295       
# span 9 = 3.0785e-01, 2.8919e+03       
# span 10 =    -0.5702,   113.1106      
# span 11 =     -0.496,      9.597      
# span 12 =     -0.719,     13.919      
# span 13 =     8.1341,    14.2246      
# span 14 = 0.0000e+00, 0.0000e+00      
# interval = seconds: 0.25
# start_time = Apr 30 2018 14:39:40 [Instrument's time stamp, header]
# bad_flag = -9.990e-29
# <Sensors count="9" >
#   <sensor Channel="1" >
#     <!-- Count, Temperature -->
#     <TemperatureSensor SensorID="58" >
#       <SerialNumber>7809</SerialNumber>
#       <CalibrationDate>09-Mar-18</CalibrationDate>
#       <A0>1.21093245e-003</A0>
#       <A1>2.84356597e-004</A1>
#       <A2>-1.94507398e-006</A2>
#       <A3>2.12806664e-007</A3>
#       <Slope>1.00000000</Slope>
#       <Offset>0.0000</Offset>
#     </TemperatureSensor>
#   </sensor>
#   <sensor Channel="2" >
#     <!-- Frequency 0, Conductivity -->
#     <ConductivitySensor SensorID="3" >
#       <SerialNumber>7809</SerialNumber>
#       <CalibrationDate>09-Mar-18</CalibrationDate>
#       <UseG_J>1</UseG_J>
#       <!-- Cell const and series R are applicable only for wide range sensors. -->
#       <SeriesR>0.0000</SeriesR>
#       <CellConst>2000.0000</CellConst>
#       <ConductivityType>0</ConductivityType>
#       <Coefficients equation="0" >
#         <A>0.00000000e+000</A>
#         <B>0.00000000e+000</B>
#         <C>0.00000000e+000</C>
#         <D>0.00000000e+000</D>
#         <M>0.0</M>
#         <CPcor>-9.57000000e-008</CPcor>
#       </Coefficients>
#       <Coefficients equation="1" >
#         <G>-1.00672082e+000</G>
#         <H>1.26906489e-001</H>
#         <I>-1.40584351e-004</I>
#         <J>2.47837121e-005</J>
#         <CPcor>-9.57000000e-008</CPcor>
#         <CTcor>3.2500e-006</CTcor>
#         <!-- WBOTC not applicable unless ConductivityType = 1. -->
#         <WBOTC>0.00000000e+000</WBOTC>
#       </Coefficients>
#       <Slope>1.00000000</Slope>
#       <Offset>0.00000</Offset>
#     </ConductivitySensor>
#   </sensor>
#   <sensor Channel="3" >
#     <!-- Count, Pressure, Strain Gauge -->
#     <PressureSensor SensorID="46" >
#       <SerialNumber>7809</SerialNumber>
#       <CalibrationDate>07-Mar-18</CalibrationDate>
#       <PA0>-4.08176359e-002</PA0>
#       <PA1>4.85188419e-004</PA1>
#       <PA2>-3.51168169e-012</PA2>
#       <PTEMPA0>-5.37806900e+001</PTEMPA0>
#       <PTEMPA1>5.36620721e+001</PTEMPA1>
#       <PTEMPA2>4.87214332e-002</PTEMPA2>
#       <PTCA0>5.25213435e+005</PTCA0>
#       <PTCA1>1.79532409e+000</PTCA1>
#       <PTCA2>-2.84353509e-001</PTCA2>
#       <PTCB0>2.51668750e+001</PTCB0>
#       <PTCB1>3.75000000e-004</PTCB1>
#       <PTCB2>0.00000000e+000</PTCB2>
#       <Offset>0.000000</Offset>
#     </PressureSensor>
#   </sensor>
#   <sensor Channel="4" >
#     <!-- A/D voltage 0, pH -->
#     <pH_Sensor SensorID="43" >
#       <SerialNumber>0363</SerialNumber>
#       <CalibrationDate>16-Mar-18</CalibrationDate>
#       <Slope>4.6194</Slope>
#       <Offset>2.5947</Offset>
#     </pH_Sensor>
#   </sensor>
#   <sensor Channel="5" >
#     <!-- A/D voltage 1, Oxidation Reduction Potential -->
#     <OxidationReductionPotentialSensor SensorID="41" >
#       <SerialNumber>0363</SerialNumber>
#       <CalibrationDate>16-Mar-18</CalibrationDate>
#       <B>2.499480</B>
#       <M>-0.496195</M>
#       <Offset>0.0</Offset>
#     </OxidationReductionPotentialSensor>
#   </sensor>
#   <sensor Channel="6" >
#     <!-- A/D voltage 2, Oxygen, SBE 43 -->
#     <OxygenSensor SensorID="38" >
#       <SerialNumber>0434</SerialNumber>
#       <CalibrationDate>13-Mar-18</CalibrationDate>
#       <Use2007Equation>1</Use2007Equation>
#       <CalibrationCoefficients equation="0" >
#         <!-- Coefficients for Owens-Millard equation. -->
#         <Boc>0.0000</Boc>
#         <Soc>0.0000e+000</Soc>
#         <offset>0.0000</offset>
#         <Pcor>0.00e+000</Pcor>
#         <Tcor>0.0000</Tcor>
#         <Tau>0.0</Tau>
#       </CalibrationCoefficients>
#       <CalibrationCoefficients equation="1" >
#         <!-- Coefficients for Sea-Bird equation - SBE calibration in 2007 and later. -->
#         <Soc>4.5718e-001</Soc>
#         <offset>-0.6113</offset>
#         <A>-4.0649e-003</A>
#         <B> 2.0945e-004</B>
#         <C>-3.3182e-006</C>
#         <D0> 2.5826e+000</D0>
#         <D1> 1.92634e-004</D1>
#         <D2>-4.64803e-002</D2>
#         <E> 3.6000e-002</E>
#         <Tau20> 1.2200</Tau20>
#         <H1>-3.3000e-002</H1>
#         <H2> 5.0000e+003</H2>
#         <H3> 1.4500e+003</H3>
#       </CalibrationCoefficients>
#     </OxygenSensor>
#   </sensor>
#   <sensor Channel="7" >
#     <!-- A/D voltage 3, PAR/Logarithmic, Satlantic -->
#     <PARLog_SatlanticSensor SensorID="76" >
#       <SerialNumber>1122</SerialNumber>
#       <CalibrationDate>22-Jun-2017</CalibrationDate>
#       <a0>9.6090e-001</a0>
#       <a1>8.0780e-001</a1>
#       <Im>1.3589e+000</Im>
#       <Multiplier>1.0000e+000</Multiplier>
#     </PARLog_SatlanticSensor>
#   </sensor>
#   <sensor Channel="8" >
#     <!-- A/D voltage 4, Fluorometer, WET Labs ECO-AFL/FL -->
#     <FluoroWetlabECO_AFL_FL_Sensor SensorID="20" >
#       <SerialNumber>FLNTURT-2496</SerialNumber>
#       <CalibrationDate>25-Jan-2017</CalibrationDate>
#       <ScaleFactor>5.30000000e+001</ScaleFactor>
#       <!-- Dark output -->
#       <Vblank>0.0560</Vblank>
#     </FluoroWetlabECO_AFL_FL_Sensor>
#   </sensor>
#   <sensor Channel="9" >
#     <!-- A/D voltage 5, Turbidity Meter, WET Labs, ECO-NTU -->
#     <TurbidityMeter SensorID="67" >
#       <SerialNumber>FLNTURT-2496</SerialNumber>
#       <CalibrationDate>25-Jan-2017</CalibrationDate>
#       <ScaleFactor>176.000000</ScaleFactor>
#       <!-- Dark output -->
#       <DarkVoltage>0.072000</DarkVoltage>
#     </TurbidityMeter>
#   </sensor>
# </Sensors>
# datcnv_date = May 08 2018 08:16:33, 7.26.7.114 [datcnv_vars = 14]
# datcnv_in = C:\DATA\043018_fcr50.hex C:\DATA\SBE19plusV2_7809.xmlcon
# datcnv_skipover = 0
# datcnv_ox_hysteresis_correction = yes
# datcnv_ox_tau_correction = yes
# filter_date = May 08 2018 08:16:56, 7.26.7.114
# filter_in = C:\DATA\043018_fcr50.cnv
# filter_low_pass_tc_A = 0.030
# filter_low_pass_tc_B = 0.150
# filter_low_pass_A_vars = prdM prdE tv290C
# filter_low_pass_B_vars = depFM dz/dtM sbeox0Mg/L sbeox0PS specc c0uS/cm flECO-AFL ph orp par/sat/log turbWETntu0
# alignctd_date = May 08 2018 08:17:15, 7.26.7.114
# alignctd_in = C:\DATA\043018_fcr50.cnv
# alignctd_adv = dz/dtM 1.000, sbeox0Mg/L 1.000, sbeox0PS 1.000, specc 1.000, c0uS/cm 1.000, flECO-AFL 1.000, ph 1.000, orp 1.000, turbWETntu0 1.000                                                                                 
# file_type = ascii
*END*
     -0.505 4.9502e-42    10.1734     98.108      0.487   0.376989    -0.1895     -0.570   903.7597 8.5411e+01    -0.2186     -0.495     -0.718    13.7191 0.0000e+00
     -0.505 5.4453e-41    10.1729     98.103      0.509   0.394125    -0.1973     -2.419   897.0877 8.9968e+01    -0.2324     -0.496     -0.719    13.7192 0.0000e+00
     -0.505 5.9898e-40    10.1701     98.076      0.487   0.376803    -0.1982     -2.120   936.2422 1.0231e+02    -0.1982     -0.495     -0.718    13.7191 0.0000e+00
     -0.505 6.5888e-39    10.1681     98.056      0.462   0.357792    -0.1994      0.310   586.6441 1.1314e+02    -0.2017     -0.495     -0.718    13.7191 0.0000e+00
     -0.505 7.2476e-38    10.1671     98.046      0.458   0.354504    -0.1940      4.240  -257.3254 1.2074e+02    -0.2442     -0.495     -0.718    13.7190 0.0000e+00
     -0.505 7.9724e-37    10.1667     98.041      0.436   0.337039    -0.1889      7.410  -737.9299 1.2967e+02    -0.2539     -0.495     -0.718    13.7190 0.0000e+00
     -0.505 8.7696e-36    10.1680     98.054      0.436   0.336874    -0.1923      9.116  -760.9315 1.4098e+02    -0.2280     -0.495     -0.718    13.7193 0.0000e+00
     -0.505 9.6466e-35    10.1682     98.057      0.456   0.352505    -0.1884     10.076  -785.1223 1.5405e+02    -0.2055     -0.496     -0.719    13.7190 0.0000e+00
     -0.505 1.0611e-33    10.1682     98.057      0.434   0.335795    -0.1795     10.601  -819.3642 2.0679e+02    -0.1951     -0.495     -0.718    13.7181 0.0000e+00
     -0.505 1.1672e-32    10.1707     98.081      0.420   0.325074    -0.1769     10.816  -799.6443 7.3449e+02    -0.1931     -0.495     -0.718    13.7179 0.0000e+00
     -0.505 1.2840e-31    10.1739     98.111      0.452   0.349705    -0.1838     10.852  -719.8015 1.6856e+03    -0.1818     -0.495     -0.717    13.7182 0.0000e+00
     -0.505 1.4124e-30    10.1761     98.127      0.491   0.379945    -0.1898     10.808  -566.3105 2.1691e+03    -0.1807     -0.495     -0.718    13.7184 0.0000e+00
     -0.505 1.5536e-29    10.1763     98.123      0.483   0.373642    -0.1854     10.719  -365.5962 2.0617e+03    -0.2104     -0.495     -0.718    13.7189 0.0000e+00
     -0.505 1.7090e-28    10.1757     98.109      0.435   0.336908    -0.1763     10.598  -246.0733 1.4746e+03    -0.2054     -0.496     -0.719    13.7191 0.0000e+00
     -0.505 1.8798e-27    10.1762     98.107      0.408   0.316273    -0.1711     10.467  -213.9539 6.0989e+02    -0.1815     -0.495     -0.718    13.7183 0.0000e+00
     -0.505 2.0678e-26    10.1770     98.108      0.406   0.314397    -0.1778     10.319  -204.3018 1.6329e+02    -0.1955     -0.494     -0.717    13.7165 0.0000e+00
     -0.505 2.2746e-25    10.1755     98.089      0.406   0.314227    -0.1843     10.135   123.2404 1.0468e+02    -0.1924     -0.495     -0.718    13.7133 0.0000e+00
     -0.505 2.5021e-24    10.1720     98.051      0.406   0.314211    -0.1751      9.904   809.7258 8.9175e+01    -0.1744     -0.495     -0.718    13.7090 0.0000e+00
     -0.505 2.7523e-23    10.1680     98.010      0.406   0.314209    -0.1674      9.727  1201.0928 8.2005e+01    -0.1912     -0.495     -0.718    13.7056 0.0000e+00
     -0.505 3.0275e-22    10.1669     97.998      0.406   0.314200    -0.1746      9.713  1236.6716 7.8177e+01    -0.2127     -0.495     -0.718    13.7032 0.0000e+00
     -0.505 3.3303e-21    10.1692     98.018      0.406   0.314096    -0.1800      9.778  1239.9061 7.7357e+01    -0.2206     -0.495     -0.718    13.7009 0.0000e+00
     -0.505 3.6633e-20    10.1717     98.043      0.404   0.312953    -0.1861      9.842  1240.2001 8.0042e+01    -0.2249     -0.495     -0.718    13.6988 0.0000e+00
     -0.505 4.0296e-19    10.1731     98.056      0.388   0.300379    -0.1937      9.902  1240.2268 1.0645e+02    -0.2351     -0.495     -0.718    13.6978 0.0000e+00
     -0.505 4.4326e-18    10.1734     98.056      0.373   0.288892    -0.1983      9.956  1240.2293 1.4445e+02    -0.2217     -0.495     -0.718    13.6973 0.0000e+00
     -0.504 4.8758e-17    10.1752     98.070      0.389   0.300889    -0.2047     10.011  1240.2295 1.4123e+02    -0.1850     -0.494     -0.717    13.6967 0.0000e+00
     -0.504 5.3634e-16    10.1783     98.097      0.412   0.318612    -0.1974     10.060  1240.2295 1.3515e+02    -0.1884     -0.495     -0.717    13.6963 0.0000e+00
     -0.504 5.8998e-15    10.1789     98.102      0.404   0.312943    -0.1835     10.085  1240.2295 4.0669e+02    -0.2011     -0.494     -0.717    13.6965 0.0000e+00
     -0.504 6.4897e-14    10.1768     98.082      0.382   0.295753    -0.1842     10.090  1240.2295 6.6877e+02    -0.1862     -0.495     -0.718    13.6959 0.0000e+00
     -0.504 7.1387e-13    10.1759     98.074      0.389   0.301003    -0.1871     10.086  1240.2295 4.1086e+02    -0.1605     -0.495     -0.717    13.6938 0.0000e+00
     -0.504 7.8526e-12    10.1769     98.083      0.405   0.313010    -0.1815     10.083  1240.2295 1.2782e+02    -0.1646     -0.495     -0.717    13.6922 0.0000e+00
     -0.504 8.6379e-11    10.1774     98.088      0.406   0.314101    -0.1810     10.072  1240.2294 1.0340e+02    -0.2058     -0.495     -0.717    13.6919 0.0000e+00
     -0.504 9.5016e-10    10.1768     98.082      0.406   0.314200    -0.1901     10.024  1240.2287 1.0277e+02    -0.2009     -0.494     -0.717    13.6920 0.0000e+00
     -0.504 1.0452e-08    10.1755     98.068      0.406   0.314209    -0.2727      9.928  1240.2211 1.0288e+02     0.0774     -0.495     -0.718    13.6921 0.0000e+00
     -0.504 1.1497e-07    10.1747     98.059      0.406   0.314214    -0.4269      9.806  1240.1374 1.0336e+02     0.5656     -0.495     -0.717    13.6923 0.0000e+00
     -0.504      0.000    10.1752     98.064      0.406   0.314254    -0.5011      9.655  1239.2165 1.0608e+02     0.8194     -0.495     -0.717    13.6922 0.0000e+00
     -0.504      0.000    10.1752     98.066      0.407   0.314691    -0.4905      9.400  1229.0868 1.1076e+02     0.8262     -0.495     -0.717    13.6916 0.0000e+00
     -0.504      0.000    10.1755     98.071      0.413   0.319500    -0.4181      8.827  1117.6596 1.1575e+02     0.4646     -0.494     -0.717    13.6908 0.0000e+00
     -0.504      0.002    10.1767     98.088      0.481   0.372401    -0.2786      7.547  1015.3748 1.1989e+02    -0.2264     -0.495     -0.717    13.6900 0.0000e+00
     -0.504      0.009    10.1732     98.086      0.985   0.764067    -0.1908      7.413  1115.7843 1.2405e+02    -0.5702     -0.495     -0.718    13.6902 0.0000e+00
     -0.504      0.024    10.1611     98.080      5.689   4.420968    -0.1652      8.938  1208.2875 1.2911e+02    -0.5191     -0.495     -0.717    13.6910 0.0000e+00
     -0.503      0.045    10.1428     98.086     17.684  13.758928    -0.0702      8.879  1010.4093 1.3726e+02     0.1479     -0.494     -0.717    13.6925 0.0000e+00
     -0.498      0.070    10.1243     98.089     29.774  23.191897     0.9310      7.787   598.3093 1.7354e+02     7.5252     -0.494     -0.716    13.6938 0.0000e+00
     -0.477      0.093    10.1094     98.079     34.653  27.024908     2.7684      7.587   321.9504 5.1114e+02    21.0823     -0.476     -0.691    13.6945 0.0000e+00
     -0.439      0.111    10.1001     98.080     35.195  27.476106     3.7558      7.634   260.4808 8.2092e+02    28.6567     -0.431     -0.626    13.7438 0.0000e+00
     -0.395      0.123    10.0952     98.098     35.204  27.504369     3.7433      7.608   252.1568 5.2242e+02    31.2644     -0.385     -0.558    13.8477 0.0000e+00
     -0.356      0.126    10.0908     98.104     35.169  27.493651     2.6362      7.551   250.5578 1.9368e+02    52.7033     -0.347     -0.503    13.9371 0.0000e+00
     -0.326      0.121    10.0866     98.107     35.125  27.473530     0.5800      7.465   250.0958 1.6621e+02    91.9167     -0.319     -0.463    13.9950 0.0000e+00
     -0.301      0.110    10.0826     98.107     35.081  27.451604    -0.5418      7.365   251.6475 1.7435e+02   113.1106     -0.296     -0.429    14.0345 0.0000e+00
     -0.276      0.100    10.0782     98.092     35.028  27.419050    -0.6159      7.284   254.5202 2.1578e+02   112.5426     -0.269     -0.390    14.0635 0.0000e+00
     -0.252      0.094    10.0760     98.088     34.993  27.397420    -0.3899      7.220   256.0926 3.0152e+02    84.3779     -0.246     -0.357    14.0848 0.0000e+00
     -0.230      0.092    10.0756     98.095     34.967  27.380582     0.0225      7.151   254.6555 3.2688e+02    32.3440     -0.226     -0.329    14.1049 0.0000e+00
     -0.208      0.093    10.0763     98.107     34.916  27.342463     0.2435      7.077   252.2018 2.4201e+02     3.9511     -0.203     -0.295    14.1244 0.0000e+00
     -0.184      0.093    10.0816     98.162     34.883  27.317516     0.2606      7.006   250.8604 1.8001e+02     1.3704     -0.181     -0.262    14.1370 0.0000e+00
     -0.160      0.092    10.0955     98.298     34.903  27.332942     0.2661      6.945   250.4819 1.7564e+02     1.2018     -0.159     -0.230    14.1454 0.0000e+00
     -0.135      0.089    10.1174     98.509     34.911  27.338486     0.2735      6.903   250.9812 1.7703e+02     1.3025     -0.134     -0.193    14.1498 0.0000e+00
     -0.109      0.084    10.1439     98.767     34.888  27.321045     0.2673      6.882   252.5082 1.7814e+02     1.3363     -0.105     -0.152    14.1520 0.0000e+00
     -0.087      0.078    10.1745     99.065     34.877  27.312551     0.2642      6.870   254.3188 1.7647e+02     1.3362     -0.082     -0.120    14.1530 0.0000e+00
     -0.071      0.072    10.2081     99.392     34.860  27.299293     0.2832      6.860   255.6655 1.7348e+02     1.3308     -0.071     -0.102    14.1526 0.0000e+00
     -0.055      0.064    10.2420     99.721     34.846  27.287730     0.3126      6.849   256.8313 1.7095e+02     1.3018     -0.056     -0.080    14.1517 0.0000e+00
     -0.039      0.057    10.2790    100.080     34.862  27.299737     0.3349      6.835   258.0897 1.7040e+02     1.3220     -0.038     -0.054    14.1520 0.0000e+00
     -0.024      0.051    10.3202    100.479     34.885  27.317473     0.3409      6.814   259.7820 1.7143e+02     1.3302     -0.024     -0.034    14.1525 0.0000e+00
     -0.012      0.045    10.3520    100.786     34.879  27.311682     0.3391      6.780   261.5467 1.7193e+02     1.2791     -0.010     -0.015    14.1524 0.0000e+00
     -0.002      0.037    10.3498    100.762     34.857  27.293219     0.3406      6.739   262.5637 1.7205e+02     1.2533     -0.001     -0.002    14.1521 0.0000e+00
      0.007      0.028    10.2849    100.127     34.847  27.284736     0.3411      6.700   263.2163 1.7290e+02     1.2626      0.007      0.010    14.1508 0.0000e+00
      0.014      0.020    10.1458     98.772     34.832  27.272616     0.3363      6.667   263.8448 1.7367e+02     1.2694      0.015      0.023    14.1500 0.0000e+00
      0.018      0.014     9.9464     96.834     34.832  27.273665     0.3368      6.645   264.0537 1.7356e+02     1.3050      0.018      0.027    14.1494 0.0000e+00
      0.018      0.011     9.7065     94.502     34.860  27.297416     0.3379      6.635   264.0212 1.7361e+02     1.3274      0.018      0.026    14.1474 0.0000e+00
      0.019      0.011     9.4390     91.900     34.870  27.305803     0.3317      6.631   264.9152 1.7408e+02     1.2952      0.018      0.027    14.1458 0.0000e+00
      0.019      0.013     9.1660     89.244     34.876  27.311576     0.3358      6.622   266.6029 1.7450e+02     1.2825      0.019      0.027    14.1457 0.0000e+00
      0.021      0.017     8.9235     86.883     34.866  27.303714     0.3501      6.597   267.4769 1.7483e+02     1.2963      0.018      0.026    14.1467 0.0000e+00
      0.027      0.017     8.7369     85.068     34.828  27.274249     0.3572      6.567   267.2224 1.7530e+02     1.3085      0.024      0.034    14.1487 0.0000e+00
      0.037      0.013     8.6128     83.863     34.824  27.272794     0.3486      6.560   266.4521 1.7583e+02     1.3080      0.037      0.053    14.1509 0.0000e+00
      0.046      0.004     8.5398     83.155     34.840  27.286127     0.3378      6.580   266.2501 1.7592e+02     1.2912      0.048      0.069    14.1517 0.0000e+00
      0.049     -0.005     8.4982     82.753     34.867  27.308471     0.3372      6.605   267.7055 1.7562e+02     1.2879      0.051      0.075    14.1514 0.0000e+00
      0.043     -0.012     8.4789     82.569     34.922  27.352456     0.3506      6.620   270.0248 1.7473e+02     1.2981      0.047      0.068    14.1522 0.0000e+00
      0.029     -0.017     8.4764     82.549     34.946  27.373465     0.3799      6.627   271.6649 1.7323e+02     1.2927      0.026      0.038    14.1541 0.0000e+00
      0.017     -0.019     8.4777     82.567     34.941  27.371997     0.3974      6.632   272.6512 1.7246e+02     1.2534      0.012      0.018    14.1562 0.0000e+00
      0.015     -0.016     8.4764     82.561     34.972  27.398203     0.3983      6.636   273.3459 1.7245e+02     1.2189      0.014      0.022    14.1573 0.0000e+00
      0.016     -0.010     8.4781     82.583     35.018  27.436332     0.3993      6.640   273.6119 1.7210e+02     1.1817      0.016      0.024    14.1584 0.0000e+00
      0.016     -0.004     8.4853     82.657     35.036  27.452024     0.4000      6.643   273.8023 1.7177e+02     1.1086      0.016      0.023    14.1617 0.0000e+00
      0.016      0.001     8.4960     82.764     35.046  27.460946     0.3972      6.642   274.1848 1.7194e+02     1.0669      0.016      0.023    14.1656 0.0000e+00
      0.016      0.002     8.5083     82.887     35.069  27.480706     0.4027      6.638   274.7084 1.7233e+02     1.0749      0.015      0.022    14.1691 0.0000e+00
      0.017      0.002     8.5201     83.006     35.092  27.500449     0.4114      6.634   275.2299 1.7300e+02     1.0829      0.016      0.024    14.1717 0.0000e+00
      0.018      0.003     8.5314     83.121     35.102  27.509161     0.4101      6.629   275.4135 1.7368e+02     1.1331      0.017      0.024    14.1738 0.0000e+00
      0.019      0.004     8.5439     83.246     35.117  27.522552     0.4051      6.623   275.2939 1.7406e+02     1.2248      0.019      0.028    14.1754 0.0000e+00
      0.020      0.005     8.5583     83.390     35.132  27.535366     0.3973      6.613   275.3314 1.7445e+02     1.2767      0.020      0.028    14.1770 0.0000e+00
      0.021      0.006     8.5707     83.512     35.133  27.537098     0.3984      6.598   275.6958 1.7456e+02     1.3022      0.020      0.029    14.1793 0.0000e+00
      0.022      0.007     8.5797     83.602     35.140  27.543491     0.4098      6.576   276.0001 1.7436e+02     1.2584      0.022      0.033    14.1818 0.0000e+00
      0.024      0.007     8.5889     83.692     35.147  27.549169     0.4152      6.552   275.9990 1.7461e+02     1.1435      0.023      0.033    14.1838 0.0000e+00
      0.027      0.006     8.5959     83.761     35.139  27.542253     0.4092      6.532   275.8555 1.7521e+02     1.0725      0.027      0.039    14.1855 0.0000e+00
      0.030      0.005     8.5958     83.761     35.114  27.523366     0.4007      6.524   275.6410 1.7556e+02     1.0718      0.030      0.043    14.1867 0.0000e+00
      0.031      0.003     8.5875     83.681     35.097  27.511301     0.4042      6.526   275.5568 1.7561e+02     1.1040      0.030      0.044    14.1871 0.0000e+00
      0.031      0.001     8.5740     83.551     35.112  27.523378     0.4146      6.536   275.8697 1.7544e+02     1.0960      0.031      0.044    14.1874 0.0000e+00
      0.030      0.000     8.5591     83.406     35.137  27.542386     0.4163      6.551   276.1542 1.7527e+02     1.0667      0.030      0.043    14.1880 0.0000e+00
      0.029      0.000     8.5406     83.226     35.147  27.550629     0.4066      6.566   276.0719 1.7513e+02     1.0854      0.028      0.041    14.1884 0.0000e+00
      0.029      0.000     8.5174     83.001     35.157  27.559548     0.3986      6.576   276.3371 1.7498e+02     1.1079      0.028      0.040    14.1890 0.0000e+00
      0.029      0.001     8.4995     82.827     35.192  27.586727     0.4025      6.582   277.1237 1.7487e+02     1.0947      0.028      0.040    14.1897 0.0000e+00
      0.030      0.002     8.4946     82.780     35.241  27.625253     0.4074      6.587   277.7532 1.7479e+02     1.0782      0.029      0.042    14.1902 0.0000e+00
      0.031      0.002     8.4967     82.800     35.265  27.644368     0.4025      6.591   278.1835 1.7459e+02     1.0617      0.031      0.044    14.1904 0.0000e+00
      0.032      0.002     8.5003     82.835     35.244  27.627355     0.3803      6.598   278.5410 1.7425e+02     1.0472      0.032      0.046    14.1908 0.0000e+00
      0.032      0.002     8.5028     82.858     35.222  27.610054     0.3501      6.608   278.2899 1.7391e+02     1.0869      0.031      0.045    14.1912 0.0000e+00
      0.032      0.001     8.5004     82.835     35.243  27.625669     0.3406      6.615   277.6433 1.7380e+02     1.1443      0.031      0.045    14.1915 0.0000e+00
      0.032      0.000     8.4909     82.740     35.243  27.625655     0.3394      6.618   277.4336 1.7385e+02     1.1307      0.032      0.046    14.1916 0.0000e+00
      0.032 2.0321e-08     8.4704     82.539     35.224  27.609882     0.3356      6.614   277.5610 1.7389e+02     1.0750      0.032      0.046    14.1913 0.0000e+00
      0.032 2.2353e-07     8.4382     82.223     35.245  27.625462     0.3401      6.606   277.9791 1.7404e+02     1.1120      0.032      0.046    14.1908 0.0000e+00
      0.032 2.2353e-07     8.3967     81.817     35.243  27.623525     0.3391      6.599   278.7036 1.7414e+02     1.2422      0.032      0.046    14.1902 0.0000e+00
      0.032 2.0321e-08     8.3497     81.357     35.196  27.586467     0.3319      6.595   279.1795 1.7437e+02     1.3064      0.032      0.046    14.1894 0.0000e+00
      0.032 1.8473e-09     8.3020     80.892     35.161  27.558390     0.3272      6.595   279.0869 1.7472e+02     1.2780      0.032      0.046    14.1883 0.0000e+00
      0.032 1.6794e-10     8.2528     80.411     35.136  27.538043     0.3371      6.599   278.7023 1.7452e+02     1.2655      0.032      0.046    14.1873 0.0000e+00
      0.032 1.5267e-11     8.1993     79.889     35.128  27.530946     0.3694      6.605   278.4871 1.7413e+02     1.3070      0.031      0.045    14.1866 0.0000e+00
      0.032 1.3879e-12     8.1438     79.347     35.135  27.536079     0.3963      6.614   278.6352 1.7419e+02     1.3225      0.031      0.045    14.1858 0.0000e+00
      0.033 1.2618e-13     8.0883     78.805     35.136  27.536607     0.4050      6.621   279.2027 1.7442e+02     1.2696      0.032      0.046    14.1852 0.0000e+00
      0.033 1.1471e-14     8.0330     78.265     35.137  27.537326     0.4010      6.625   279.9282 1.7447e+02     1.2481      0.032      0.046    14.1846 0.0000e+00
      0.032 1.0428e-15     7.9767     77.716     35.147  27.544771     0.3935      6.627   280.5246 1.7433e+02     1.3064      0.032      0.046    14.1839 0.0000e+00
      0.032 9.4800e-17     7.9182     77.145     35.171  27.563130     0.3973      6.629   280.9076 1.7432e+02     1.3636      0.032      0.046    14.1832 0.0000e+00
      0.032 8.6180e-18     7.8607     76.584     35.180  27.568797     0.4004      6.632   280.8594 1.7468e+02     1.3597      0.032      0.046    14.1826 0.0000e+00
      0.032 7.8345e-19     7.8072     76.061     35.156  27.549800     0.4131      6.635   280.6301 1.7502e+02     1.2592      0.032      0.046    14.1820 0.0000e+00
      0.032 7.1225e-20     7.7566     75.566     35.124  27.523938     0.4493      6.638   280.4576 1.7506e+02     1.1258      0.032      0.046    14.1813 0.0000e+00
      0.033 6.4750e-21     7.7116     75.126     35.106  27.510094     0.4709      6.640   280.3222 1.7541e+02     1.0893      0.032      0.046    14.1804 0.0000e+00
      0.033 5.8865e-22     7.6689     74.710     35.106  27.509402     0.4630      6.644   280.4561 1.7601e+02     1.0928      0.032      0.047    14.1796 0.0000e+00
      0.033 5.3508e-23     7.6194     74.226     35.114  27.515575     0.4370      6.650   281.3013 1.7613e+02     1.1073      0.032      0.047    14.1790 0.0000e+00
      0.032 4.8379e-24     7.5684     73.728     35.122  27.521234     0.4036      6.657   282.5400 1.7599e+02     1.2038      0.032      0.046    14.1782 0.0000e+00
      0.032 1.4785e-25     7.5215     73.269     35.114  27.514314     0.3908      6.665   282.8720 1.7598e+02     1.2828      0.032      0.046    14.1774 0.0000e+00
      0.032 -3.198e-24     7.4770     72.834     35.091  27.495413     0.4019      6.671   282.3897 1.7604e+02     1.2692      0.032      0.046    14.1767 0.0000e+00
      0.032 -3.562e-23     7.4352     72.426     35.076  27.483196     0.4086      6.674   282.0431 1.7608e+02     1.2527      0.031      0.045    14.1759 0.0000e+00
      0.033 -3.918e-22     7.3937     72.021     35.091  27.493597     0.4165      6.675   281.7787 1.7619e+02     1.2961      0.032      0.046    14.1751 0.0000e+00
      0.033 -4.310e-21     7.3521     71.615     35.092  27.494164     0.4429      6.675   281.6030 1.7613e+02     1.3366      0.032      0.046    14.1744 0.0000e+00
      0.033 -4.741e-20     7.3156     71.258     35.088  27.490051     0.4605      6.676   282.3270 1.7591e+02     1.3148      0.032      0.047    14.1735 0.0000e+00
      0.033 -5.215e-19     7.2851     70.959     35.111  27.507368     0.4645      6.678   283.7358 1.7597e+02     1.2769      0.032      0.047    14.1727 0.0000e+00
      0.033 -5.737e-18     7.2554     70.668     35.118  27.513055     0.4635      6.681   284.6978 1.7615e+02     1.2142      0.032      0.046    14.1719 0.0000e+00
      0.033 -6.311e-17     7.2241     70.363     35.096  27.495310     0.4579      6.685   285.1831 1.7622e+02     1.1060      0.032      0.046    14.1713 0.0000e+00
      0.033 -6.942e-16     7.1929     70.058     35.082  27.483301     0.4616      6.690   285.1296 1.7599e+02     1.0665      0.032      0.046    14.1704 0.0000e+00
      0.033 -7.636e-15     7.1636     69.770     35.097  27.494855     0.4708      6.693   284.5667 1.7566e+02     1.1032      0.032      0.047    14.1694 0.0000e+00
      0.033 -8.399e-14     7.1374     69.515     35.115  27.508018     0.4768      6.691   284.1414 1.7577e+02     1.1527      0.032      0.046    14.1686 0.0000e+00
      0.033 -9.239e-13     7.1114     69.260     35.125  27.515449     0.4708      6.683   284.3753 1.7632e+02     1.2383      0.033      0.047    14.1678 0.0000e+00
      0.033 -1.016e-11     7.0820     68.973     35.133  27.521213     0.4619      6.674   285.1575 1.7654e+02     1.3147      0.032      0.047    14.1671 0.0000e+00
      0.033 -1.118e-10     7.0535     68.694     35.125  27.514201     0.4608      6.668   285.7697 1.7619e+02     1.3442      0.032      0.046    14.1662 0.0000e+00
      0.033 -1.230e-09     7.0271     68.436     35.100  27.494168     0.4573      6.666   286.3569 1.7609e+02     1.3197      0.032      0.047    14.1656 0.0000e+00
      0.033 -1.353e-08     7.0013     68.184     35.069  27.469498     0.4564      6.668   286.8366 1.7613e+02     1.2629      0.032      0.046    14.1649 0.0000e+00
      0.033 -1.488e-07     6.9768     67.944     35.070  27.469904     0.4597      6.673   286.5801 1.7586e+02     1.2674      0.033      0.047    14.1639 0.0000e+00
      0.033 -2.728e-07     6.9512     67.694     35.108  27.499077     0.4602      6.679   286.1806 1.7561e+02     1.3133      0.032      0.047    14.1631 0.0000e+00
      0.033 -1.488e-07     6.9257     67.444     35.116  27.504736     0.4531      6.687   286.1370 1.7556e+02     1.2998      0.032      0.046    14.1623 0.0000e+00
      0.033 -1.352e-08     6.9011     67.203     35.079  27.474823     0.4476      6.695   286.1385 1.7557e+02     1.2559      0.032      0.047    14.1615 0.0000e+00
      0.033 -1.227e-09     6.8786     66.983     35.054  27.454889     0.4579      6.701   286.1984 1.7544e+02     1.2709      0.032      0.047    14.1607 0.0000e+00
      0.033 -8.357e-11     6.8593     66.794     35.054  27.454218     0.4672      6.706   286.3445 1.7521e+02     1.2976      0.032      0.046    14.1600 0.0000e+00
      0.033 3.0028e-10     6.8393     66.598     35.070  27.466700     0.4597      6.710   286.6155 1.7518e+02     1.2745      0.032      0.046    14.1592 0.0000e+00
      0.033 3.4139e-09     6.8190     66.399     35.086  27.478812     0.4500      6.715   287.0651 1.7532e+02     1.2049      0.032      0.047    14.1585 0.0000e+00
      0.033 3.7563e-08     6.7999     66.212     35.081  27.473677     0.4603      6.719   287.3064 1.7557e+02     1.0972      0.032      0.047    14.1578 0.0000e+00
      0.033 4.1319e-07     6.7813     66.029     35.074  27.468105     0.4728      6.721   287.2105 1.7567e+02     1.0402      0.033      0.047    14.1569 0.0000e+00
      0.033      0.000     6.7618     65.839     35.083  27.474936     0.4637      6.723   287.1109 1.7532e+02     1.0644      0.033      0.047    14.1562 0.0000e+00
      0.033      0.000     6.7399     65.625     35.107  27.492779     0.4418      6.724   287.1343 1.7501e+02     1.0852      0.032      0.046    14.1556 0.0000e+00
      0.033      0.001     6.7175     65.406     35.108  27.493347     0.4188      6.724   287.2351 1.7516e+02     1.0779      0.032      0.047    14.1548 0.0000e+00
      0.033      0.001     6.6978     65.213     35.094  27.481801     0.4072      6.724   287.3835 1.7533e+02     1.0674      0.032      0.046    14.1541 0.0000e+00
      0.033      0.002     6.6816     65.054     35.092  27.480174     0.4024      6.724   287.5516 1.7516e+02     1.0508      0.032      0.046    14.1534 0.0000e+00
      0.034      0.002     6.6639     64.880     35.085  27.473678     0.3976      6.725   287.4605 1.7498e+02     1.0907      0.034      0.049    14.1527 0.0000e+00
      0.035      0.002     6.6439     64.685     35.077  27.466753     0.3954      6.726   287.4864 1.7482e+02     1.2139      0.035      0.050    14.1521 0.0000e+00
      0.035      0.002     6.6272     64.522     35.068  27.459939     0.3943      6.730   288.2090 1.7475e+02     1.2887      0.035      0.050    14.1514 0.0000e+00
      0.035      0.001     6.6133     64.385     35.062  27.454790     0.3929      6.734   288.7123 1.7490e+02     1.2933      0.035      0.051    14.1508 0.0000e+00
      0.035      0.000     6.6002     64.256     35.080  27.468000     0.3888      6.738   288.7531 1.7499e+02     1.2389      0.035      0.050    14.1500 0.0000e+00
      0.035 2.0321e-08     6.5874     64.131     35.112  27.492660     0.3901      6.743   288.7886 1.7504e+02     1.1194      0.035      0.051    14.1493 0.0000e+00
      0.035 2.2353e-07     6.5724     63.985     35.121  27.498953     0.4001      6.747   288.2807 1.7495e+02     1.0687      0.035      0.050    14.1486 0.0000e+00
      0.036 2.2353e-07     6.5554     63.819     35.098  27.480585     0.4085      6.749   287.5172 1.7468e+02     1.1138      0.035      0.051    14.1480 0.0000e+00
      0.036 2.0321e-08     6.5396     63.663     35.074  27.461073     0.4262      6.751   287.4718 1.7449e+02     1.2080      0.035      0.051    14.1474 0.0000e+00
      0.036 1.8473e-09     6.5231     63.503     35.064  27.453527     0.4489      6.753   287.9043 1.7450e+02     1.2916      0.035      0.050    14.1467 0.0000e+00
      0.036 1.6794e-10     6.5066     63.340     35.064  27.452844     0.4530      6.754   288.1861 1.7458e+02     1.3011      0.035      0.051    14.1461 0.0000e+00
      0.036 1.5267e-11     6.4931     63.208     35.064  27.452824     0.4575      6.755   288.4706 1.7439e+02     1.2922      0.035      0.051    14.1455 0.0000e+00
      0.036 1.3879e-12     6.4792     63.072     35.065  27.453278     0.4765      6.758   288.7622 1.7414e+02     1.3055      0.035      0.051    14.1449 0.0000e+00
      0.036 1.2618e-13     6.4641     62.925     35.072  27.458336     0.4892      6.762   288.1842 1.7391e+02     1.2799      0.035      0.051    14.1444 0.0000e+00
      0.036 1.1471e-14     6.4520     62.806     35.062  27.450473     0.4818      6.764   287.0748 1.7396e+02     1.1649      0.035      0.051    14.1437 0.0000e+00
      0.036 1.0428e-15     6.4418     62.705     35.026  27.421705     0.4613      6.765   286.7914 1.7404e+02     1.0750      0.036      0.052    14.1431 0.0000e+00
      0.036 9.4800e-17     6.4297     62.587     35.035  27.428003     0.4532      6.767   287.2535 1.7344e+02     1.0776      0.035      0.051    14.1426 0.0000e+00
      0.036 8.6180e-18     6.4155     62.448     35.081  27.463120     0.4476      6.767   288.1010 1.7302e+02     1.0742      0.035      0.051    14.1420 0.0000e+00
      0.036 7.8345e-19     6.4020     62.316     35.084  27.465307     0.4214      6.767   289.0374 1.7322e+02     1.0349      0.035      0.051    14.1413 0.0000e+00
      0.036 7.1225e-20     6.3909     62.208     35.071  27.454448     0.4024      6.766   289.4556 1.7330e+02     1.0294      0.035      0.050    14.1406 0.0000e+00
      0.036 6.4750e-21     6.3812     62.113     35.077  27.458823     0.3928      6.763   289.0269 1.7311e+02     1.0688      0.035      0.051    14.1401 0.0000e+00
      0.035 5.8865e-22     6.3706     62.008     35.072  27.454713     0.3875      6.761   288.0703 1.7308e+02     1.1447      0.035      0.050    14.1396 0.0000e+00
      0.035 5.3510e-23     6.3576     61.882     35.089  27.468245     0.3944      6.760   287.5266 1.7318e+02     1.2449      0.035      0.050    14.1391 0.0000e+00
      0.036 4.8647e-24     6.3448     61.762     35.202  27.558935     0.3925      6.757   287.5292 1.7312e+02     1.2744      0.036      0.052    14.1386 0.0000e+00
      0.036 4.4224e-25     6.3469     61.798     35.323  27.662266     0.3935      6.756   287.8437 1.7303e+02     1.2560      0.035      0.051    14.1380 0.0000e+00
      0.036 4.0204e-26     6.4023     62.362     35.357  27.701647     0.4242      6.755   288.4035 1.7304e+02     1.2673      0.035      0.050    14.1374 0.0000e+00
      0.036 3.6549e-27     6.5733     64.052     35.362  27.717602     0.4606      6.755   288.8767 1.7289e+02     1.3188      0.035      0.051    14.1371 0.0000e+00
      0.036 3.3227e-28     6.9022     67.271     35.367  27.728203     0.4659      6.755   289.0910 1.7279e+02     1.3604      0.035      0.050    14.1368 0.0000e+00
      0.036 3.0206e-29     7.3658     71.797     35.330  27.702831     0.4601      6.756   289.0159 1.7301e+02     1.3122      0.035      0.051    14.1482 0.0000e+00
      0.035 2.7460e-30     7.9067     77.072     35.280  27.664826     0.4643      6.758   288.8296 1.7298e+02     1.2856      0.035      0.050    14.1727 0.0000e+00
      0.035 2.4963e-31     8.4697     82.561     35.260  27.649681     0.4622      6.761   288.6446 1.7278e+02     1.3134      0.035      0.050    14.1907 0.0000e+00
      0.035 2.2694e-32     8.9997     87.728     35.256  27.646714     0.4522      6.763   288.4139 1.7271e+02     1.2828      0.035      0.051    14.1987 0.0000e+00
      0.035 2.0631e-33     9.4447     92.065     35.234  27.628957     0.4545      6.765   288.2778 1.7266e+02     1.2512      0.035      0.050    14.2023 0.0000e+00
      0.035 1.8756e-34     9.7724     95.258     35.230  27.625472     0.4625      6.767   288.8049 1.7288e+02     1.2662      0.035      0.050    14.2040 0.0000e+00
      0.036 1.7051e-35     9.9697     97.181     35.284  27.668085     0.4653      6.767   289.7973 1.7308e+02     1.2812      0.035      0.051    14.2056 0.0000e+00
      0.036 1.5500e-36    10.0439     97.905     35.324  27.699686     0.4706      6.768   290.2102 1.7294e+02     1.3102      0.035      0.051    14.2055 0.0000e+00
      0.036 1.4091e-37    10.0329     97.799     35.311  27.690068     0.4711      6.768   290.0985 1.7283e+02     1.3423      0.035      0.051    14.2045 0.0000e+00
      0.035 1.2810e-38     9.9753     97.239     35.296  27.678792     0.4715      6.768   289.9094 1.7293e+02     1.3336      0.035      0.050    14.2038 0.0000e+00
      0.035 1.1646e-39     9.8920     96.429     35.311  27.690352     0.4755      6.768   289.5583 1.7313e+02     1.3267      0.035      0.050    14.2036 0.0000e+00
      0.035 1.0587e-40     9.7997     95.531     35.326  27.702833     0.4732      6.767   289.1221 1.7324e+02     1.3204      0.035      0.050    14.2040 0.0000e+00
      0.035 9.6245e-42     9.7122     94.678     35.325  27.702705     0.4716      6.767   289.3678 1.7307e+02     1.2882      0.035      0.051    14.2046 0.0000e+00
      0.035 8.7495e-43     9.6325     93.901     35.308  27.688810     0.4748      6.768   290.2054 1.7292e+02     1.2729      0.034      0.050    14.2052 0.0000e+00
      0.035 7.9540e-44     9.5608     93.201     35.274  27.661816     0.4748      6.768   290.6468 1.7305e+02     1.2879      0.035      0.050    14.2061 0.0000e+00
      0.036 7.2310e-45     9.4960     92.568     35.234  27.630320     0.4716      6.769   290.7472 1.7320e+02     1.2874      0.035      0.051    14.2069 0.0000e+00
      0.036 6.5735e-46     9.4344     91.966     35.229  27.625493     0.4644      6.770   290.7305 1.7320e+02     1.2658      0.035      0.051    14.2072 0.0000e+00
      0.035 5.9761e-47     9.3822     91.456     35.283  27.666950     0.4518      6.771   290.6166 1.7303e+02     1.2706      0.035      0.050    14.2072 0.0000e+00
      0.035 5.4373e-48     9.3454     91.096     35.308  27.687081     0.4471      6.771   291.0909 1.7301e+02     1.2849      0.035      0.050    14.2066 0.0000e+00
      0.036 5.4159e-49     9.3204     90.853     35.297  27.678397     0.4536      6.771   292.0774 1.7314e+02     1.2861      0.035      0.051    14.2058 0.0000e+00
      0.036 5.6962e-49     9.3044     90.697     35.311  27.688953     0.4581      6.773   292.4770 1.7294e+02     1.2851      0.035      0.051    14.2051 0.0000e+00
      0.035 5.7761e-48     9.2965     90.621     35.309  27.687718     0.4549      6.777   292.4805 1.7264e+02     1.2727      0.035      0.050    14.2045 0.0000e+00
      0.035 6.3492e-47     9.2917     90.573     35.278  27.663467     0.4518      6.781   292.5502 1.7275e+02     1.2583      0.035      0.050    14.2043 0.0000e+00
      0.035 6.9841e-46     9.2852     90.510     35.260  27.649727     0.4568      6.783   292.2013 1.7309e+02     1.2636      0.035      0.050    14.2044 0.0000e+00
      0.035 7.6825e-45     9.2787     90.447     35.259  27.648582     0.4597      6.785   291.4458 1.7379e+02     1.2762      0.035      0.051    14.2043 0.0000e+00
      0.035 8.4508e-44     9.2711     90.372     35.261  27.649622     0.4590      6.787   291.1589 1.7453e+02     1.2887      0.035      0.050    14.2044 0.0000e+00
      0.035 9.2958e-43     9.2614     90.276     35.277  27.662311     0.4585      6.787   291.4855 1.7444e+02     1.2921      0.034      0.050    14.2044 0.0000e+00
      0.035 1.0225e-41     9.2533     90.197     35.294  27.675002     0.4536      6.787   291.6954 1.7428e+02     1.2865      0.035      0.050    14.2042 0.0000e+00
      0.035 1.1248e-40     9.2485     90.152     35.294  27.676062     0.4545      6.788   291.7177 1.7454e+02     1.3127      0.035      0.050    14.2043 0.0000e+00
      0.035 1.2373e-39     9.2454     90.125     35.292  27.675136     0.4602      6.789   291.4971 1.7481e+02     1.3340      0.034      0.050    14.2042 0.0000e+00
      0.035 1.3610e-38     9.2427     90.102     35.276  27.663799     0.4586      6.790   291.1788 1.7501e+02     1.3002      0.035      0.050    14.2033 0.0000e+00
      0.036 1.4971e-37     9.2432     90.108     35.278  27.665985     0.4713      6.793   291.2254 1.7518e+02     1.3004      0.035      0.051    14.2030 0.0000e+00
      0.036 1.6468e-36     9.2474     90.149     35.324  27.701576     0.5129      6.796   291.5440 1.7537e+02     1.3369      0.035      0.051    14.2040 0.0000e+00
      0.036 1.8115e-35     9.2528     90.201     35.339  27.713132     0.5399      6.797   292.1913 1.7552e+02     1.3141      0.035      0.050    14.2057 0.0000e+00
      0.036 1.9926e-34     9.2565     90.236     35.295  27.678707     0.5309      6.797   292.9434 1.7558e+02     1.2695      0.035      0.051    14.2076 0.0000e+00
      0.036 2.1919e-33     9.2546     90.216     35.279  27.666338     0.5054      6.797   293.3244 1.7564e+02     1.2552      0.035      0.051    14.2082 0.0000e+00
      0.036 2.4111e-32     9.2474     90.146     35.311  27.690582     0.4792      6.798   293.4414 1.7585e+02     1.2935      0.035      0.051    14.2080 0.0000e+00
      0.035 2.6522e-31     9.2383     90.056     35.346  27.717846     0.4617      6.798   293.4123 1.7605e+02     1.3359      0.035      0.050    14.2076 0.0000e+00
      0.035 2.9174e-30     9.2296     89.973     35.376  27.741976     0.4498      6.799   292.9728 1.7593e+02     1.3102      0.034      0.050    14.2071 0.0000e+00
      0.036 3.2092e-29     9.2218     89.898     35.358  27.728348     0.4553      6.800   292.1710 1.7601e+02     1.2875      0.035      0.051    14.2071 0.0000e+00
      0.036 3.5301e-28     9.2148     89.831     35.296  27.680068     0.4731      6.800   291.8915 1.7648e+02     1.3060      0.035      0.051    14.2063 0.0000e+00
      0.036 3.8831e-27     9.2084     89.770     35.278  27.666215     0.4720      6.801   292.2612 1.7686e+02     1.3206      0.035      0.050    14.2061 0.0000e+00
      0.036 4.2714e-26     9.2032     89.719     35.306  27.687857     0.4608      6.803   292.5111 1.7696e+02     1.3114      0.035      0.050    14.2068 0.0000e+00
      0.036 4.6986e-25     9.2002     89.689     35.306  27.687744     0.4567      6.804   292.5892 1.7669e+02     1.3162      0.036      0.052    14.2076 0.0000e+00
      0.036 5.1684e-24     9.1988     89.674     35.277  27.664841     0.4591      6.804   292.6892 1.7651e+02     1.3479      0.035      0.051    14.2084 0.0000e+00
      0.036 5.6852e-23     9.1980     89.665     35.278  27.664944     0.4621      6.804   292.4301 1.7645e+02     1.3598      0.035      0.050    14.2087 0.0000e+00
      0.036 6.2538e-22     9.1958     89.642     35.309  27.688990     0.4664      6.804   291.8656 1.7630e+02     1.3376      0.035      0.051    14.2088 0.0000e+00
      0.036 6.8792e-21     9.1909     89.593     35.326  27.701576     0.4743      6.805   291.7150 1.7638e+02     1.2927      0.035      0.051    14.2081 0.0000e+00
      0.036 7.5671e-20     9.1828     89.514     35.311  27.690126     0.4828      6.806   291.8993 1.7634e+02     1.3062      0.035      0.051    14.2070 0.0000e+00
      0.036 8.3238e-19     9.1708     89.397     35.295  27.677549     0.4958      6.806   292.1152 1.7606e+02     1.3480      0.035      0.050    14.2061 0.0000e+00
      0.036 9.1562e-18     9.1561     89.253     35.294  27.676500     0.5032      6.806   292.5189 1.7612e+02     1.3099      0.035      0.051    14.2056 0.0000e+00
      0.036 1.0072e-16     9.1435     89.129     35.296  27.677446     0.5081      6.806   292.9947 1.7634e+02     1.2729      0.035      0.051    14.2054 0.0000e+00
      0.036 1.1079e-15     9.1357     89.053     35.311  27.688991     0.5184      6.806   292.7911 1.7631e+02     1.2971      0.035      0.051    14.2053 0.0000e+00
      0.036 1.2187e-14     9.1303     89.001     35.311  27.689096     0.5264      6.807   291.9500 1.7623e+02     1.3280      0.035      0.051    14.2051 0.0000e+00
      0.036 1.3406e-13     9.1292     88.990     35.297  27.678705     0.5312      6.810   291.6012 1.7634e+02     1.3406      0.035      0.051    14.2048 0.0000e+00
      0.036 1.4746e-12     9.1335     89.033     35.312  27.690355     0.5306      6.812   291.6711 1.7660e+02     1.3276      0.035      0.051    14.2045 0.0000e+00
      0.036 1.6221e-11     9.1400     89.097     35.328  27.702959     0.5189      6.815   291.9347 1.7644e+02     1.2624      0.035      0.051    14.2045 0.0000e+00
      0.036 1.7843e-10     9.1453     89.148     35.329  27.704094     0.5092      6.819   292.4657 1.7630e+02     1.1626      0.035      0.051    14.2047 0.0000e+00
      0.036 1.9627e-09     9.1447     89.142     35.329  27.704085     0.5151      6.824   292.3266 1.7670e+02     1.0981      0.035      0.051    14.2050 0.0000e+00
      0.036 2.1590e-08     9.1409     89.104     35.328  27.702845     0.5251      6.828   291.6295 1.7693e+02     1.0926      0.035      0.051    14.2053 0.0000e+00
      0.036 2.3749e-07     9.1379     89.074     35.311  27.689106     0.5296      6.831   291.3502 1.7688e+02     1.1572      0.035      0.051    14.2055 0.0000e+00
      0.036      0.000     9.1332     89.029     35.281  27.664967     0.5327      6.835   291.3589 1.7661e+02     1.2691      0.035      0.051    14.2054 0.0000e+00
      0.036      0.000     9.1277     88.974     35.281  27.664978     0.5446      6.837   291.5621 1.7621e+02     1.3161      0.035      0.051    14.2052 0.0000e+00
      0.036      0.000     9.1250     88.948     35.311  27.689233     0.5541      6.839   292.0006 1.7595e+02     1.2984      0.036      0.052    14.2049 0.0000e+00
      0.036      0.003     9.1260     88.959     35.330  27.704243     0.5452      6.840   292.2731 1.7593e+02     1.2987      0.035      0.051    14.2047 0.0000e+00
      0.036      0.038     9.1292     88.989     35.349  27.719460     0.5111      6.842   292.3607 1.7611e+02     1.3194      0.036      0.052    14.2046 0.0000e+00
      0.036      0.421     9.1311     89.009     35.383  27.746222     0.4731      6.844   292.4582 1.7618e+02     1.3350      0.035      0.051    14.2040 0.0000e+00
      0.036      4.628     9.1265     88.965     35.418  27.773826     0.4720      6.845   292.5058 1.7621e+02     1.3348      0.035      0.051    14.2041 0.0000e+00
      0.036      4.628     9.1122     88.828     35.449  27.799226     0.4883      6.847   292.5061 1.7637e+02     1.3172      0.036      0.052    14.2046 0.0000e+00
      0.036      0.421     9.0927     88.639     35.449  27.799340     0.4957      6.851   292.5475 1.7643e+02     1.2747      0.035      0.051    14.2045 0.0000e+00
      0.036      0.038     9.0745     88.463     35.418  27.775200     0.5067      6.853   292.5770 1.7627e+02     1.2486      0.036      0.052    14.2047 0.0000e+00
      0.036      0.003     9.0602     88.323     35.400  27.761346     0.5192      6.856   292.6901 1.7617e+02     1.2453      0.036      0.052    14.2054 0.0000e+00
      0.036      0.000     9.0506     88.231     35.396  27.758828     0.5272      6.860   293.1399 1.7636e+02     1.2353      0.036      0.051    14.2063 0.0000e+00
      0.036      0.000     9.0501     88.225     35.378  27.744755     0.5305      6.863   293.5418 1.7664e+02     1.2501      0.035      0.050    14.2071 0.0000e+00
      0.036      0.000     9.0591     88.314     35.344  27.718190     0.5307      6.867   293.5048 1.7659e+02     1.2718      0.035      0.051    14.2077 0.0000e+00
      0.036 2.3748e-07     9.0745     88.465     35.310  27.691626     0.5391      6.869   293.4676 1.7640e+02     1.2842      0.035      0.051    14.2079 0.0000e+00
      0.036 2.1590e-08     9.0937     88.653     35.291  27.677573     0.5493      6.871   293.4367 1.7632e+02     1.3078      0.035      0.051    14.2082 0.0000e+00
      0.036 1.9627e-09     9.1111     88.820     35.289  27.675274     0.5438      6.873   293.3027 1.7618e+02     1.2519      0.035      0.051    14.2084 0.0000e+00
      0.036 1.7843e-10     9.1243     88.947     35.276  27.663822     0.5288      6.874   293.7408 1.7603e+02     1.1270      0.036      0.052    14.2083 0.0000e+00
      0.036 1.6221e-11     9.1346     89.046     35.280  27.666111     0.5229      6.875   294.5174 1.7611e+02     1.0803      0.035      0.051    14.2093 0.0000e+00
      0.036 1.4746e-12     9.1423     89.119     35.328  27.702951     0.5275      6.875   294.6913 1.7625e+02     1.0828      0.035      0.051    14.2092 0.0000e+00
      0.036 1.3406e-13     9.1492     89.184     35.361  27.728246     0.5207      6.875   294.5530 1.7611e+02     1.1265      0.036      0.052    14.2083 0.0000e+00
      0.036 1.2187e-14     9.1571     89.258     35.349  27.717960     0.4957      6.876   294.5651 1.7609e+02     1.2429      0.035      0.051    14.2078 0.0000e+00
      0.036 1.1079e-15     9.1651     89.334     35.334  27.705583     0.4732      6.878   294.4072 1.7610e+02     1.3308      0.036      0.052    14.2063 0.0000e+00
      0.036 1.0072e-16     9.1675     89.357     35.335  27.705595     0.4607      6.879   294.1071 1.7619e+02     1.3345      0.036      0.052    14.2049 0.0000e+00
      0.036 9.1560e-18     9.1585     89.269     35.350  27.718107     0.4640      6.880   294.4644 1.7656e+02     1.2882      0.035      0.051    14.2038 0.0000e+00
      0.036 8.3240e-19     9.1406     89.095     35.365  27.729871     0.4770      6.883   295.3714 1.7670e+02     1.2594      0.036      0.052    14.2027 0.0000e+00
      0.036 7.5670e-20     9.1230     88.924     35.353  27.720833     0.4787      6.885   295.8671 1.7647e+02     1.2603      0.036      0.052    14.2017 0.0000e+00
      0.036 6.8790e-21     9.1085     88.784     35.372  27.735823     0.4753      6.887   295.9841 1.7616e+02     1.2680      0.036      0.052    14.2011 0.0000e+00
      0.036 6.2540e-22     9.0965     88.666     35.434  27.784113     0.4731      6.889   295.8406 1.7609e+02     1.2922      0.035      0.051    14.2011 0.0000e+00
      0.036 5.6850e-23     9.0881     88.585     35.449  27.796708     0.4793      6.894   295.5085 1.7614e+02     1.3393      0.035      0.051    14.2014 0.0000e+00
      0.036 5.1685e-24     9.0860     88.566     35.404  27.761109     0.4951      6.898   295.4093 1.7617e+02     1.4102      0.035      0.051    14.2019 0.0000e+00
      0.036 4.6986e-25     9.0937     88.642     35.370  27.734688     0.5087      6.900   295.6739 1.7609e+02     1.4775      0.035      0.051    14.2025 0.0000e+00
      0.036 4.2741e-26     9.1090     88.790     35.366  27.731254     0.5244      6.902   296.2130 1.7589e+02     1.5131      0.036      0.052    14.2026 0.0000e+00
      0.036 4.1801e-27     9.1252     88.947     35.351  27.719587     0.5186      6.903   296.5938 1.7624e+02     1.4741      0.036      0.052    14.2028 0.0000e+00
      0.036 3.6202e-27     9.1366     89.057     35.353  27.720617     0.4843      6.904   296.6646 1.7674e+02     1.3718      0.035      0.051    14.2033 0.0000e+00
      0.036 3.5971e-26     9.1406     89.095     35.383  27.743716     0.4685      6.904   296.6383 1.7639e+02     1.3143      0.035      0.051    14.2031 0.0000e+00
      0.036 3.9533e-25     9.1389     89.078     35.384  27.744870     0.4742      6.905   296.6198 1.7603e+02     1.3282      0.036      0.052    14.2030 0.0000e+00
      0.036 4.3486e-24     9.1352     89.041     35.372  27.734574     0.4801      6.907   296.5258 1.7621e+02     1.3265      0.036      0.052    14.2028 0.0000e+00
      0.036 4.7834e-23     9.1313     89.003     35.387  27.746223     0.4855      6.909   296.4490 1.7615e+02     1.2930      0.035      0.051    14.2020 0.0000e+00
      0.036 5.2618e-22     9.1279     88.970     35.402  27.758714     0.4840      6.911   296.6374 1.7589e+02     1.2900      0.036      0.052    14.2016 0.0000e+00
      0.036 5.7880e-21     9.1248     88.942     35.402  27.758601     0.4705      6.913   296.8253 1.7585e+02     1.3199      0.036      0.052    14.2012 0.0000e+00
      0.036 6.3667e-20     9.1211     88.908     35.384  27.744860     0.4607      6.915   297.0000 1.7601e+02     1.2885      0.036      0.052    14.2009 0.0000e+00
      0.036 7.0034e-19     9.1202     88.901     35.350  27.719574     0.4675      6.917   297.2875 1.7619e+02     1.1547      0.035      0.050    14.2008 0.0000e+00
      0.036 7.7038e-18     9.1251     88.950     35.333  27.706865     0.4696      6.920   297.4616 1.7595e+02     1.0754      0.036      0.051    14.2008 0.0000e+00
      0.036 8.4741e-17     9.1313     89.012     35.347  27.718200     0.4580      6.922   297.0397 1.7556e+02     1.0933      0.036      0.052    14.2013 0.0000e+00
      0.036 9.3216e-16     9.1366     89.065     35.361  27.729630     0.4559      6.925   296.4031 1.7544e+02     1.0964      0.036      0.052    14.2026 0.0000e+00
      0.036 1.0254e-14     9.1413     89.111     35.346  27.718065     0.4625      6.927   296.4755 1.7558e+02     1.0816      0.035      0.051    14.2038 0.0000e+00
      0.036 1.1279e-13     9.1448     89.146     35.329  27.705365     0.4648      6.928   296.7097 1.7601e+02     1.0672      0.035      0.050    14.2049 0.0000e+00
      0.036 1.2407e-12     9.1487     89.186     35.325  27.703074     0.4653      6.929   296.7406 1.7628e+02     1.0444      0.035      0.051    14.2058 0.0000e+00
      0.037 1.3648e-11     9.1526     89.223     35.310  27.690365     0.4681      6.930   297.0213 1.7633e+02     1.0498      0.036      0.052    14.2060 0.0000e+00
      0.037 1.5012e-10     9.1551     89.247     35.295  27.678695     0.4712      6.930   297.5216 1.7657e+02     1.1332      0.036      0.052    14.2066 0.0000e+00
      0.037 1.6514e-09     9.1583     89.278     35.308  27.688980     0.4743      6.929   297.2841 1.7670e+02     1.2590      0.036      0.052    14.2073 0.0000e+00
      0.037 1.8165e-08     9.1600     89.295     35.306  27.687719     0.4788      6.928   296.2140 1.7650e+02     1.3186      0.036      0.052    14.2074 0.0000e+00
      0.037 1.9982e-07     9.1586     89.281     35.276  27.663449     0.4710      6.928   295.6819 1.7629e+02     1.3046      0.035      0.051    14.2075 0.0000e+00
      0.037 3.3522e-07     9.1583     89.278     35.258  27.649532     0.4626      6.928   295.8404 1.7615e+02     1.3039      0.036      0.053    14.2073 0.0000e+00
      0.036 2.9001e-07     9.1579     89.274     35.254  27.646444     0.4686      6.928   296.3234 1.7602e+02     1.3102      0.036      0.052    14.2075 0.0000e+00
      0.036 1.5049e-07     9.1521     89.217     35.228  27.626112     0.4788      6.928   296.8764 1.7594e+02     1.2898      0.035      0.051    14.2075 0.0000e+00
      0.036 1.3681e-08     9.1417     89.115     35.188  27.594196     0.4849      6.927   296.7626 1.7608e+02     1.2703      0.036      0.052    14.2069 0.0000e+00
      0.036 1.2437e-09     9.1287     88.988     35.168  27.578040     0.4786      6.927   296.1511 1.7626e+02     1.1971      0.036      0.052    14.2072 0.0000e+00
      0.037 1.1309e-10     9.1142     88.845     35.143  27.557775     0.4674      6.926   295.7646 1.7628e+02     1.0750      0.036      0.052    14.2067 0.0000e+00
      0.037 1.0508e-11     9.1012     88.716     35.120  27.539658     0.4596      6.925   295.6167 1.7623e+02     1.0450      0.036      0.053    14.2066 0.0000e+00
      0.036 3.4580e-12     9.0915     88.620     35.134  27.549483     0.4574      6.925   295.7392 1.7616e+02     1.0790      0.036      0.052    14.2072 0.0000e+00
      0.036 2.7844e-11     9.0837     88.541     35.135  27.549574     0.4589      6.925   296.1269 1.7628e+02     1.1515      0.035      0.051    14.2059 0.0000e+00
      0.036 3.0536e-10     9.0745     88.449     35.125  27.540763     0.4594      6.926   296.4332 1.7643e+02     1.2799      0.036      0.052    14.2054 0.0000e+00
      0.036 3.3589e-09     9.0635     88.340     35.163  27.569941     0.4639      6.927   296.6894 1.7666e+02     1.3490      0.036      0.052    14.2044 0.0000e+00
      0.036 3.6947e-08     9.0540     88.246     35.183  27.584863     0.4664      6.928   296.9009 1.7661e+02     1.3469      0.035      0.051    14.2026 0.0000e+00
      0.036 4.0642e-07     9.0479     88.186     35.114  27.530697     0.4629      6.929   296.9264 1.7604e+02     1.3455      0.035      0.051    14.2017 0.0000e+00
      0.036      0.000     9.0440     88.147     35.058  27.486510     0.4677      6.929   296.8248 1.7574e+02     1.3636      0.035      0.051    14.2007 0.0000e+00
      0.036      0.000     9.0408     88.115     35.069  27.495093     0.4784      6.929   296.7050 1.7582e+02     1.3526      0.036      0.052    14.1995 0.0000e+00
      0.037      0.001     9.0398     88.106     35.084  27.507470     0.4729      6.930   296.5970 1.7592e+02     1.3030      0.036      0.052    14.1989 0.0000e+00
      0.037      0.001     9.0437     88.145     35.086  27.509163     0.4567      6.930   296.5511 1.7605e+02     1.3125      0.036      0.052    14.1988 0.0000e+00
      0.037      0.000     9.0522     88.229     35.094  27.515561     0.4379      6.928   297.0964 1.7597e+02     1.3458      0.036      0.053    14.1986 0.0000e+00
      0.037      0.000     9.0626     88.332     35.101  27.521333     0.4104      6.927   298.0279 1.7568e+02     1.3090      0.036      0.052    14.1985 0.0000e+00
      0.037      0.000     9.0714     88.418     35.093  27.515457     0.3912      6.927   298.3488 1.7563e+02     1.2642      0.036      0.053    14.1986 0.0000e+00
      0.037      0.000     9.0785     88.488     35.083  27.508008     0.3897      6.928   297.9650 1.7574e+02     1.2624      0.036      0.053    14.1989 0.0000e+00
      0.037      0.002     9.0851     88.553     35.066  27.494768     0.4105      6.941   296.8296 1.7564e+02     1.2871      0.036      0.052    14.1991 0.0000e+00
      0.037      0.007     9.0906     88.607     35.050  27.482371     0.4497      6.984   295.2032 1.7543e+02     1.3191      0.036      0.052    14.2000 0.0000e+00
      0.036      0.017     9.0946     88.644     35.054  27.485108     0.4685      7.040   294.8203 1.7522e+02     1.3437      0.036      0.052    14.2003 0.0000e+00
      0.036      0.028     9.0973     88.666     35.030  27.464358     0.4634      7.057   295.8997 1.7400e+02     1.3400      0.036      0.052    14.2008 0.0000e+00
      0.041      0.035     9.1021     88.705     34.980  27.421983     0.4610      7.040   296.5533 1.5703e+02     1.3045      0.037      0.053    14.2016 0.0000e+00
      0.058      0.034     9.1129     88.803     34.977  27.417244     0.4674      7.029   296.6134 1.3382e+02     1.3110      0.051      0.074    14.2013 0.0000e+00
      0.083      0.024     9.1289     88.957     35.046  27.470551     0.4764      7.043   296.7125 1.3529e+02     1.3280      0.085      0.123    14.2011 0.0000e+00
      0.100      0.005     9.1470     89.136     35.157  27.558524     0.4783      7.082   296.4617 1.4510e+02     1.2956      0.108      0.155    14.1982 0.0000e+00
      0.097     -0.016     9.1650     89.319     35.277  27.655447     0.4809      7.131   295.9893 1.4892e+02     1.2866      0.098      0.143    14.1934 0.0000e+00
      0.081     -0.034     9.1824     89.499     35.397  27.753462     0.4810      7.168   296.2494 1.4961e+02     1.3101      0.082      0.119    14.1897 0.0000e+00
      0.056     -0.044     9.1968     89.649     35.440  27.791129     0.4705      7.182   297.1979 1.4616e+02     1.3357      0.057      0.083    14.1884 0.0000e+00
      0.030     -0.044     9.2048     89.734     35.359  27.729884     0.4631      7.172   297.7349 1.4657e+02     1.3227      0.023      0.035    14.1896 0.0000e+00
      0.018     -0.039     9.2064     89.751     35.254  27.647950     0.4566      7.158   297.7511 1.4737e+02     1.2740      0.010      0.014    14.1935 0.0000e+00
      0.021     -0.035     9.2032     89.721     35.226  27.625961     0.4377      7.159   297.6524 1.4763e+02     1.2354      0.020      0.029    14.1998 0.0000e+00
      0.026     -0.039     9.1968     89.658     35.262  27.654512     0.4191      7.179   297.4877 1.4783e+02     1.1917      0.028      0.042    14.2059 0.0000e+00
      0.022     -0.054     9.1884     89.578     35.288  27.675675     0.4146      7.205   297.4802 1.4591e+02     1.1419      0.024      0.034    14.2094 0.0000e+00
      0.009     -0.078     9.1790     89.489     35.307  27.691339     0.4107      7.226   297.5629 1.4389e+02     1.0910      0.012      0.018    14.2098 0.0000e+00
     -0.016     -0.101     9.1698     89.399     35.340  27.716912     0.4182      7.240   297.5412 1.4176e+02     1.0652     -0.010     -0.014    14.2092 0.0000e+00
     -0.056     -0.115     9.1609     89.310     35.359  27.730876     0.4499      7.249   297.6480 1.4052e+02     1.0737     -0.051     -0.075    14.2094 0.0000e+00
     -0.101     -0.118     9.1543     89.243     35.362  27.733176     0.4724      7.254   297.8219 1.4017e+02     1.1026     -0.103     -0.149    14.2100 0.0000e+00
     -0.140     -0.110     9.1496     89.198     35.377  27.744729     0.4704      7.259   298.0089 1.4006e+02     1.1400     -0.142     -0.206    14.2116 0.0000e+00
     -0.165     -0.091     9.1430     89.138     35.374  27.743558     0.4530      7.261   298.3604 1.3966e+02     1.2511     -0.164     -0.237    14.2122 0.0000e+00
     -0.181     -0.066     9.1363     89.078     35.340  27.719027     0.4265      7.258   298.6294 1.3851e+02     1.4385     -0.178     -0.258    14.2103 0.0000e+00
     -0.193     -0.042     9.1338     89.057     35.317  27.702119     0.4075      7.252   298.1640 1.3786e+02     1.5438     -0.191     -0.277    14.2086 0.0000e+00
     -0.199     -0.022     9.1356     89.077     35.270  27.666128     0.3987      7.244   297.2071 1.3777e+02     1.5475     -0.198     -0.287    14.2090 0.0000e+00
     -0.199     -0.009     9.1397     89.120     35.186  27.601361     0.3927      7.238   296.9546 1.3714e+02     1.4835     -0.196     -0.284    14.2116 0.0000e+00
     -0.197      0.001     9.1463     89.187     35.124  27.554010     0.3908      7.236   297.4344 1.3632e+02     1.3811     -0.192     -0.279    14.2147 0.0000e+00
     -0.195      0.009     9.1536     89.259     35.104  27.538097     0.3938      7.236   297.9312 1.3591e+02     1.3160     -0.191     -0.277    14.2165 0.0000e+00
     -0.192      0.014     9.1575     89.299     35.100  27.535961     0.4017      7.236   298.0575 1.3560e+02     1.2763     -0.189     -0.274    14.2172 0.0000e+00
     -0.189      0.019     9.1610     89.336     35.089  27.528179     0.4034      7.237   297.3268 1.3527e+02     1.2669     -0.186     -0.269    14.2192 0.0000e+00
     -0.184      0.025     9.1635     89.361     35.062  27.507499     0.3962      7.240   295.9797 1.3527e+02     1.2939     -0.180     -0.261    14.2212 0.0000e+00
     -0.178      0.031     9.1645     89.370     35.023  27.476419     0.3976      7.240   295.1056 1.3566e+02     1.2981     -0.175     -0.253    14.2204 0.0000e+00
     -0.170      0.038     9.1656     89.379     35.015  27.469892     0.4107      7.238   294.9321 1.3620e+02     1.2872     -0.169     -0.244    14.2201 0.0000e+00
     -0.159      0.045     9.1640     89.364     35.043  27.492082     0.4167      7.237   295.0861 1.3665e+02     1.2845     -0.158     -0.228    14.2227 0.0000e+00
     -0.145      0.051     9.1620     89.344     35.042  27.490707     0.4054      7.236   295.2468 1.3745e+02     1.2955     -0.142     -0.206    14.2246 0.0000e+00
     -0.130      0.056     9.1614     89.336     34.995  27.453269     0.3934      7.231   295.1543 1.3843e+02     1.2984     -0.126     -0.183    14.2232 0.0000e+00
     -0.115      0.059     9.1636     89.356     34.954  27.420417     0.3919      7.224   294.9140 1.3912e+02     1.2890     -0.112     -0.164    14.2221 0.0000e+00
     -0.099      0.059     9.1672     89.392     34.941  27.410982     0.3969      7.217   294.5780 1.4003e+02     1.3044     -0.098     -0.143    14.2227 0.0000e+00
     -0.083      0.058     9.1667     89.388     34.931  27.402690     0.4172      7.212   294.2757 1.4112e+02     1.3007     -0.082     -0.118    14.2224 0.0000e+00
     -0.067      0.058     9.1622     89.343     34.906  27.383663     0.4441      7.206   294.1843 1.4205e+02     1.2749     -0.065     -0.094    14.2208 0.0000e+00
     -0.053      0.058     9.1565     89.286     34.891  27.371425     0.4559      7.198   294.1609 1.4292e+02     1.2988     -0.050     -0.073    14.2198 0.0000e+00
     -0.041      0.057     9.1505     89.226     34.905  27.381710     0.4584      7.191   294.2511 1.4360e+02     1.3443     -0.040     -0.058    14.2205 0.0000e+00
     -0.027      0.056     9.1453     89.174     34.905  27.381019     0.4648      7.186   294.4152 1.4445e+02     1.3370     -0.028     -0.040    14.2215 0.0000e+00
     -0.011      0.054     9.1429     89.149     34.883  27.363074     0.4687      7.186   294.5959 1.4537e+02     1.3018     -0.011     -0.016    14.2214 0.0000e+00
      0.004      0.054     9.1443     89.161     34.873  27.355226     0.4593      7.187   294.8012 1.4567e+02     1.3150      0.005      0.008    14.2197 0.0000e+00
      0.018      0.054     9.1483     89.200     34.866  27.349626     0.4528      7.187   294.7470 1.4597e+02     1.3445      0.018      0.027    14.2186 0.0000e+00
      0.031      0.053     9.1560     89.276     34.878  27.358863     0.4540      7.187   294.4570 1.4663e+02     1.3228      0.031      0.044    14.2184 0.0000e+00
      0.042      0.052     9.1669     89.382     34.935  27.403413     0.4555      7.189   293.9610 1.4733e+02     1.2967      0.041      0.059    14.2177 0.0000e+00
      0.055      0.052     9.1773     89.480     35.069  27.507287     0.4621      7.191   293.3102 1.4817e+02     1.3034      0.053      0.078    14.2171 0.0000e+00
      0.069      0.053     9.1879     89.577     35.269  27.662319     0.4597      7.192   293.1278 1.4552e+02     1.3129      0.069      0.100    14.2172 0.0000e+00
      0.082      0.056     9.2001     89.687     35.390  27.753923     0.4547      7.191   293.3901 1.4028e+02     1.3203      0.080      0.118    14.2172 0.0000e+00
      0.096      0.058     9.2120     89.796     35.439  27.789369     0.4656      7.191   293.2981 1.5713e+02     1.3312      0.093      0.135    14.2170 0.0000e+00
      0.111      0.060     9.2234     89.900     35.503  27.836904     0.4731      7.190   292.8757 2.7166e+02     1.3225      0.109      0.158    14.2167 0.0000e+00
      0.129      0.060     9.2327     89.985     35.484  27.820670     0.4618      7.190   292.2408 5.6124e+02     1.3066      0.126      0.183    14.2132 0.0000e+00
      0.146      0.060     9.2377     90.029     35.358  27.720075     0.4493      7.190   291.4724 8.5135e+02     1.2918      0.144      0.208    14.2070 0.0000e+00
      0.161      0.060     9.2361     90.012     35.172  27.573099     0.4508      7.189   291.1564 9.5965e+02     1.2654      0.159      0.230    14.2033 0.0000e+00
      0.174      0.059     9.2266     89.919     35.003  27.440560     0.4604      7.188   291.7749 1.0007e+03     1.2620      0.170      0.247    14.2007 0.0000e+00
      0.189      0.058     9.2147     89.802     34.936  27.387530     0.4642      7.188   292.8426 1.2777e+03     1.2812      0.184      0.267    14.1972 0.0000e+00
      0.205      0.057     9.2065     89.720     34.922  27.376414     0.4597      7.189   293.2244 1.5105e+03     1.2835      0.201      0.291    14.1950 0.0000e+00
      0.220      0.057     9.2029     89.679     34.916  27.369640     0.4612      7.189   293.1221 1.1995e+03     1.2596      0.217      0.313    14.1944 0.0000e+00
      0.233      0.060     9.2056     89.697     34.919  27.369122     0.4644      7.184   293.0682 9.1258e+02     1.2673      0.229      0.332    14.1941 0.0000e+00
      0.246      0.063     9.2136     89.768     34.924  27.370147     0.4619      7.177   292.9170 1.3836e+03     1.3156      0.242      0.350    14.1934 0.0000e+00
      0.260      0.065     9.2205     89.833     34.940  27.382040     0.4678      7.171   292.7569 2.4547e+03     1.3546      0.254      0.368    14.1934 0.0000e+00
      0.279      0.067     9.2251     89.877     34.946  27.385924     0.4802      7.168   292.8530 2.8919e+03     1.3731      0.271      0.394    14.1907 0.0000e+00
      0.300      0.069     9.2288     89.911     34.906  27.353609     0.4832      7.168   293.3045 2.2998e+03     1.3257      0.295      0.428    14.1846 0.0000e+00
      0.320      0.071     9.2294     89.915     34.849  27.308802     0.4763      7.167   293.8279 1.5992e+03     1.2706      0.315      0.457    14.1813 0.0000e+00
      0.337      0.072     9.2287     89.906     34.824  27.288655     0.4713      7.164   294.3630 1.4011e+03     1.2856      0.331      0.480    14.1811 0.0000e+00
      0.352      0.072     9.2300     89.916     34.840  27.300503     0.4679      7.158   295.0423 1.5764e+03     1.2932      0.345      0.501    14.1802 0.0000e+00
      0.369      0.072     9.2335     89.950     34.872  27.325059     0.4625      7.153   295.5890 1.5963e+03     1.2714      0.361      0.524    14.1790 0.0000e+00
      0.389      0.072     9.2403     90.015     34.881  27.331570     0.4612      7.151   295.5522 1.4837e+03     1.2669      0.381      0.553    14.1784 0.0000e+00
      0.409      0.073     9.2503     90.110     34.862  27.315721     0.4612      7.148   295.2000 1.5386e+03     1.2693      0.402      0.584    14.1777 0.0000e+00
      0.429      0.073     9.2619     90.222     34.873  27.323926     0.4726      7.147   295.5458 1.9033e+03     1.2688      0.422      0.612    14.1765 0.0000e+00
      0.446      0.072     9.2736     90.333     34.930  27.367283     0.4879      7.147   296.5504 1.8433e+03     1.2615      0.437      0.634    14.1757 0.0000e+00
      0.463      0.069     9.2804     90.398     34.966  27.395457     0.4813      7.148   297.2804 1.1233e+03     1.2422      0.453      0.657    14.1749 0.0000e+00
      0.483      0.065     9.2823     90.419     34.984  27.410577     0.4662      7.151   297.6604 6.5753e+02     1.2489      0.475      0.688    14.1746 0.0000e+00
      0.501      0.062     9.2824     90.423     34.999  27.423117     0.4622      7.155   298.1334 6.4760e+02     1.2809      0.493      0.714    14.1736 0.0000e+00
      0.516      0.060     9.2792     90.395     34.994  27.420078     0.4782      7.158   298.0954 1.1769e+03     1.2934      0.507      0.734    14.1712 0.0000e+00
      0.528      0.060     9.2752     90.357     35.015  27.437323     0.5034      7.160   297.4589 1.6317e+03     1.2787      0.517      0.751    14.1710 0.0000e+00
      0.540      0.060     9.2739     90.343     35.020  27.441128     0.5184      7.160   297.3199 1.2716e+03     1.2551      0.529      0.767    14.1723 0.0000e+00
      0.555      0.062     9.2739     90.340     34.972  27.402591     0.5224      7.159   297.7059 1.0127e+03     1.2524      0.544      0.789    14.1737 0.0000e+00
      0.572      0.065     9.2744     90.341     34.990  27.415859     0.5243      7.157   298.4267 1.0347e+03     1.2772      0.560      0.812    14.1757 0.0000e+00
      0.591      0.068     9.2764     90.362     35.065  27.474546     0.5325      7.155   299.2379 8.4305e+02     1.2806      0.580      0.840    14.1768 0.0000e+00
      0.610      0.069     9.2790     90.390     35.067  27.477194     0.5384      7.155   299.6854 9.1042e+02     1.2626      0.598      0.868    14.1759 0.0000e+00
      0.628      0.069     9.2812     90.415     35.028  27.447879     0.5309      7.155   299.4484 1.0586e+03     1.2721      0.615      0.892    14.1738 0.0000e+00
      0.646      0.067     9.2838     90.442     35.014  27.437591     0.5246      7.156   298.6089 8.1944e+02     1.2432      0.634      0.920    14.1717 0.0000e+00
      0.664      0.064     9.2843     90.447     34.987  27.416308     0.5265      7.158   298.2250 6.5313e+02     1.1572      0.651      0.944    14.1720 0.0000e+00
      0.679      0.061     9.2830     90.435     34.942  27.381035     0.5261      7.159   298.5067 7.2788e+02     1.1186      0.666      0.966    14.1745 0.0000e+00
      0.694      0.059     9.2807     90.412     34.875  27.328599     0.5292      7.160   299.0033 7.4051e+02     1.1120      0.681      0.987    14.1766 0.0000e+00
      0.708      0.057     9.2778     90.380     34.828  27.290290     0.5371      7.161   299.4976 6.4518e+02     1.1384      0.694      1.006    14.1777 0.0000e+00
      0.722      0.056     9.2771     90.366     34.842  27.298825     0.5378      7.162   299.7506 6.0953e+02     1.2229      0.708      1.027    14.1776 0.0000e+00
      0.736      0.060     9.2776     90.364     34.852  27.304795     0.5377      7.159   299.8260 6.6591e+02     1.2798      0.721      1.046    14.1774 0.0000e+00
      0.749      0.071     9.2760     90.346     34.847  27.298984     0.5366      7.150   299.7207 7.6222e+02     1.3074      0.734      1.065    14.1777 0.0000e+00
      0.764      0.086     9.2735     90.320     34.839  27.292055     0.5239      7.140   299.4233 8.9028e+02     1.3432      0.748      1.085    14.1759 0.0000e+00
      0.782      0.102     9.2742     90.325     34.830  27.284513     0.5220      7.130   299.2416 1.0463e+03     1.3768      0.763      1.107    14.1714 0.0000e+00
      0.810      0.115     9.2770     90.350     34.815  27.271284     0.5325      7.123   299.3302 1.1097e+03     1.3785      0.788      1.144    14.1678 0.0000e+00
      0.850      0.123     9.2777     90.354     34.800  27.259112     0.5311      7.117   299.5482 8.6443e+02     1.3332      0.832      1.207    14.1662 0.0000e+00
      0.893      0.126     9.2753     90.329     34.807  27.264337     0.5246      7.112   300.1572 5.9014e+02     1.2871      0.880      1.277    14.1655 0.0000e+00
      0.929      0.121     9.2702     90.276     34.817  27.270950     0.5266      7.107   301.0148 5.2966e+02     1.2781      0.915      1.326    14.1648 0.0000e+00
      0.956      0.110     9.2593     90.166     34.825  27.275567     0.5365      7.100   301.3137 5.3687e+02     1.3162      0.939      1.361    14.1638 0.0000e+00
      0.980      0.095     9.2403     89.976     34.803  27.256667     0.5341      7.093   301.1905 6.0845e+02     1.3516      0.961      1.394    14.1629 0.0000e+00
      1.001      0.081     9.2139     89.715     34.774  27.232914     0.5162      7.088   300.9020 6.6934e+02     1.3392      0.982      1.424    14.1616 0.0000e+00
      1.020      0.071     9.1839     89.421     34.786  27.242360     0.5135      7.088   300.4916 6.7315e+02     1.2587      1.001      1.452    14.1599 0.0000e+00
      1.036      0.066     9.1590     89.180     34.788  27.243882     0.5292      7.092   300.5315 6.8370e+02     1.1402      1.018      1.475    14.1575 0.0000e+00
      1.048      0.063     9.1448     89.041     34.797  27.251314     0.5402      7.095   301.3843 5.8714e+02     1.0963      1.028      1.490    14.1551 0.0000e+00
      1.062      0.063     9.1420     89.012     34.820  27.268725     0.5354      7.098   302.3708 5.3826e+02     1.0947      1.041      1.509    14.1533 0.0000e+00
      1.079      0.064     9.1501     89.090     34.815  27.263907     0.5265      7.101   302.5641 5.8816e+02     1.1215      1.059      1.535    14.1529 0.0000e+00
      1.097      0.065     9.1628     89.211     34.807  27.256553     0.5257      7.105   302.4314 5.2866e+02     1.2362      1.076      1.561    14.1535 0.0000e+00
      1.115      0.067     9.1757     89.336     34.790  27.243303     0.5257      7.108   302.4870 4.5394e+02     1.3227      1.094      1.586    14.1536 0.0000e+00
      1.132      0.068     9.1892     89.467     34.774  27.230708     0.5261      7.110   302.2899 4.7435e+02     1.3130      1.110      1.610    14.1527 0.0000e+00
      1.149      0.067     9.2012     89.580     34.777  27.231258     0.5306      7.112   301.8549 5.4384e+02     1.3017      1.127      1.635    14.1516 0.0000e+00
      1.166      0.066     9.2095     89.655     34.803  27.249952     0.5338      7.115   302.2178 5.7505e+02     1.3381      1.144      1.659    14.1504 0.0000e+00
      1.184      0.065     9.2151     89.707     34.825  27.266229     0.5377      7.118   303.4079 5.3842e+02     1.3569      1.161      1.684    14.1502 0.0000e+00
      1.201      0.064     9.2206     89.759     34.790  27.237574     0.5406      7.120   304.1130 5.2337e+02     1.3456      1.178      1.709    14.1502 0.0000e+00
      1.217      0.062     9.2263     89.815     34.769  27.220976     0.5320      7.123   304.2048 5.5864e+02     1.3542      1.193      1.730    14.1479 0.0000e+00
      1.232      0.059     9.2334     89.884     34.813  27.256046     0.5250      7.125   304.0869 5.4365e+02     1.3694      1.208      1.753    14.1445 0.0000e+00
      1.247      0.057     9.2430     89.978     34.844  27.280611     0.5305      7.127   303.8056 4.7930e+02     1.3768      1.224      1.775    14.1426 0.0000e+00
      1.261      0.056     9.2519     90.065     34.823  27.263995     0.5333      7.128   303.9015 5.2749e+02     1.3821      1.236      1.793    14.1425 0.0000e+00
      1.274      0.055     9.2603     90.147     34.799  27.245635     0.5323      7.129   304.4723 7.4712e+02     1.4027      1.250      1.813    14.1428 0.0000e+00
      1.288      0.053     9.2707     90.249     34.803  27.249118     0.5275      7.131   304.8559 8.1612e+02     1.4124      1.264      1.833    14.1430 0.0000e+00
      1.302      0.053     9.2797     90.338     34.794  27.242613     0.5208      7.133   304.9263 6.0731e+02     1.3478      1.277      1.853    14.1431 0.0000e+00
      1.316      0.052     9.2860     90.400     34.779  27.230482     0.5248      7.133   304.9796 5.1865e+02     1.2627      1.292      1.873    14.1430 0.0000e+00
      1.329      0.052     9.2909     90.446     34.778  27.229431     0.5294      7.134   304.9844 5.6862e+02     1.2368      1.304      1.891    14.1434 0.0000e+00
      1.341      0.052     9.2934     90.467     34.780  27.229904     0.5308      7.135   304.8984 5.1348e+02     1.2488      1.315      1.906    14.1444 0.0000e+00
      1.354      0.053     9.2943     90.470     34.791  27.236202     0.5319      7.137   304.7134 4.9384e+02     1.2854      1.328      1.926    14.1449 0.0000e+00
      1.368      0.056     9.2947     90.468     34.801  27.242079     0.5251      7.137   304.4683 5.1588e+02     1.3137      1.342      1.947    14.1446 0.0000e+00
      1.381      0.060     9.2929     90.446     34.797  27.237460     0.5217      7.136   304.4300 4.5411e+02     1.2861      1.354      1.964    14.1442 0.0000e+00
      1.396      0.063     9.2883     90.397     34.807  27.243852     0.5272      7.135   304.5951 4.2452e+02     1.2564      1.368      1.984    14.1428 0.0000e+00
      1.415      0.065     9.2824     90.336     34.824  27.255872     0.5368      7.135   304.9155 4.3864e+02     1.2596      1.388      2.012    14.1394 0.0000e+00
      1.434      0.065     9.2765     90.275     34.825  27.255786     0.5456      7.135   305.2069 4.4087e+02     1.2643      1.407      2.041    14.1363 0.0000e+00
      1.452      0.065     9.2721     90.230     34.810  27.242813     0.5422      7.135   305.2786 4.4264e+02     1.2818      1.424      2.065    14.1344 0.0000e+00
      1.467      0.065     9.2693     90.203     34.788  27.226009     0.5322      7.135   304.8358 4.1032e+02     1.3190      1.439      2.086    14.1321 0.0000e+00
      1.482      0.064     9.2669     90.182     34.809  27.243109     0.5265      7.135   303.8969 3.9457e+02     1.3175      1.454      2.108    14.1305 0.0000e+00
      1.497      0.064     9.2660     90.175     34.829  27.259073     0.5288      7.134   303.5633 4.0833e+02     1.2938      1.468      2.130    14.1284 0.0000e+00
      1.514      0.064     9.2675     90.190     34.790  27.228531     0.5316      7.134   304.0708 3.9248e+02     1.3082      1.484      2.153    14.1265 0.0000e+00
      1.531      0.065     9.2705     90.220     34.742  27.191313     0.5234      7.134   304.6995 3.6380e+02     1.3078      1.502      2.178    14.1271 0.0000e+00
      1.548      0.065     9.2746     90.260     34.739  27.190063     0.5211      7.135   304.9698 3.7878e+02     1.2898      1.518      2.202    14.1286 0.0000e+00
      1.565      0.065     9.2786     90.299     34.769  27.213419     0.5320      7.135   304.9308 4.4381e+02     1.3030      1.536      2.227    14.1297 0.0000e+00
      1.581      0.064     9.2810     90.321     34.778  27.219716     0.5358      7.134   304.4850 4.7898e+02     1.3147      1.551      2.249    14.1297 0.0000e+00
      1.597      0.063     9.2822     90.332     34.757  27.202703     0.5298      7.134   303.7093 4.5971e+02     1.3096      1.566      2.271    14.1301 0.0000e+00
      1.614      0.063     9.2840     90.347     34.752  27.198199     0.5432      7.133   303.4683 4.2984e+02     1.3027      1.582      2.295    14.1307 0.0000e+00
      1.629      0.063     9.2857     90.365     34.791  27.228754     0.5775      7.132   303.6360 3.9880e+02     1.3224      1.597      2.317    14.1305 0.0000e+00
      1.645      0.063     9.2842     90.353     34.823  27.254664     0.5956      7.132   303.9299 3.7790e+02     1.3641      1.613      2.339    14.1300 0.0000e+00
      1.661      0.063     9.2781     90.295     34.826  27.257483     0.5875      7.132   304.4403 3.6190e+02     1.3491      1.628      2.362    14.1285 0.0000e+00
      1.677      0.063     9.2698     90.215     34.832  27.262840     0.5630      7.132   304.4733 3.3826e+02     1.2936      1.645      2.386    14.1277 0.0000e+00
      1.694      0.063     9.2622     90.142     34.823  27.255932     0.5379      7.131   303.9848 3.4538e+02     1.2738      1.662      2.411    14.1284 0.0000e+00
      1.710      0.064     9.2547     90.071     34.799  27.237462     0.5315      7.131   303.6960 3.6796e+02     1.2925      1.677      2.432    14.1295 0.0000e+00
      1.726      0.064     9.2457     89.984     34.789  27.230010     0.5407      7.131   303.7350 3.6973e+02     1.3369      1.692      2.455    14.1301 0.0000e+00
      1.742      0.064     9.2392     89.920     34.788  27.229339     0.5577      7.130   303.9392 3.9290e+02     1.3524      1.708      2.477    14.1308 0.0000e+00
      1.759      0.063     9.2390     89.917     34.788  27.229339     0.5804      7.130   304.0148 3.9888e+02     1.3269      1.724      2.500    14.1317 0.0000e+00
      1.776      0.063     9.2434     89.958     34.790  27.230010     0.5949      7.130   303.9612 3.4950e+02     1.3037      1.742      2.527    14.1323 0.0000e+00
      1.792      0.063     9.2489     90.009     34.801  27.237453     0.5958      7.129   304.2368 3.4797e+02     1.2859      1.758      2.550    14.1329 0.0000e+00
      1.807      0.062     9.2537     90.055     34.825  27.255830     0.5912      7.128   304.6804 3.7947e+02     1.2946      1.772      2.570    14.1329 0.0000e+00
      1.822      0.061     9.2578     90.095     34.832  27.261707     0.5928      7.128   304.7635 3.6477e+02     1.3171      1.786      2.590    14.1326 0.0000e+00
      1.838      0.061     9.2591     90.108     34.811  27.245010     0.5978      7.128   304.6394 3.5226e+02     1.3142      1.802      2.613    14.1312 0.0000e+00
      1.853      0.062     9.2571     90.090     34.810  27.244440     0.5962      7.127   304.5566 3.5847e+02     1.2902      1.817      2.636    14.1298 0.0000e+00
      1.869      0.063     9.2533     90.052     34.823  27.254830     0.5921      7.126   304.3653 3.4687e+02     1.2697      1.832      2.658    14.1296 0.0000e+00
      1.885      0.064     9.2488     90.005     34.810  27.243635     0.5850      7.126   304.3051 3.1982e+02     1.2812      1.848      2.681    14.1290 0.0000e+00
      1.901      0.066     9.2443     89.957     34.802  27.236079     0.5845      7.126   304.9469 3.1054e+02     1.3075      1.864      2.705    14.1294 0.0000e+00
      1.918      0.067     9.2381     89.889     34.794  27.226956     0.5948      7.125   305.9306 3.2337e+02     1.3127      1.881      2.728    14.1304 0.0000e+00
      1.935      0.068     9.2323     89.815     34.764  27.196826     0.6088      7.122   306.3041 3.2582e+02     1.3142      1.897      2.752    14.1306 0.0000e+00
      1.953      0.069     9.2323     89.796     34.763  27.189261     0.6252      7.122   306.0215 3.3312e+02     1.3248      1.916      2.778    14.1287 0.0000e+00
      1.972      0.070     9.2371     89.828     34.782  27.198974     0.6358      7.122   305.6113 3.3512e+02     1.3193      1.934      2.805    14.1267 0.0000e+00
      1.989      0.070     9.2422     89.864     34.773  27.187263     0.6454      7.121   305.4739 3.1665e+02     1.3082      1.950      2.829    14.1240 0.0000e+00
      2.007      0.069     9.2474     89.892     34.767  27.174653     0.6587      7.120   305.5657 3.0583e+02     1.3126      1.968      2.854    14.1139 0.0000e+00
      2.025      0.068     9.2536     89.918     34.781  27.173494     0.6674      7.120   306.0323 3.0020e+02     1.3117      1.987      2.881    14.1021 0.0000e+00
      2.042      0.068     9.2613     89.956     34.797  27.173234     0.6687      7.120   306.9860 2.9399e+02     1.3282      2.003      2.905    14.0952 0.0000e+00
      2.059      0.069     9.2679     89.988     34.810  27.171494     0.6560      7.118   307.6322 2.8041e+02     1.3587      2.019      2.929    14.0913 0.0000e+00
      2.076      0.070     9.2694     89.978     34.796  27.152445     0.6518      7.116   307.5652 2.6366e+02     1.3449      2.036      2.953    14.0808 0.0000e+00
      2.094      0.071     9.2662     89.929     34.779  27.133397     0.6639      7.115   307.2937 2.6676e+02     1.3140      2.052      2.976    14.0605 0.0000e+00
      2.113      0.072     9.2625     89.880     34.783  27.131667     0.6636      7.115   307.2751 2.8613e+02     1.3208      2.071      3.004    14.0415 0.0000e+00
      2.132      0.073     9.2585     89.834     34.786  27.131524     0.6578      7.115   307.3404 2.8875e+02     1.3351      2.091      3.034    14.0240 0.0000e+00
      2.151      0.073     9.2541     89.786     34.788  27.131667     0.6576      7.115   307.3085 2.8213e+02     1.3040      2.109      3.058    14.0110 0.0000e+00
      2.169      0.072     9.2512     89.753     34.793  27.133397     0.6615      7.115   307.4915 2.9024e+02     1.2808      2.128      3.085    14.0036 0.0000e+00
      2.188      0.070     9.2488     89.722     34.821  27.152432     0.6593      7.115   307.9183 2.8949e+02     1.2991      2.147      3.114    13.9972 0.0000e+00
      2.206      0.068     9.2467     89.694     34.849  27.171324     0.6488      7.114   308.1671 2.7115e+02     1.2814      2.163      3.138    13.9935 0.0000e+00
      2.222      0.067     9.2445     89.668     34.851  27.171323     0.6540      7.113   308.2633 2.5286e+02     1.2499      2.179      3.161    13.9914 0.0000e+00
      2.239      0.066     9.2408     89.632     34.827  27.152417     0.6672      7.111   308.2213 2.4750e+02     1.2841      2.196      3.185    13.9894 0.0000e+00
      2.256      0.064     9.2375     89.601     34.802  27.133226     0.6707      7.109   307.7443 2.5506e+02     1.3287      2.212      3.209    13.9854 0.0000e+00
      2.272      0.064     9.2368     89.591     34.799  27.129780     0.6693      7.108   307.3148 2.5934e+02     1.3313      2.228      3.232    13.9803 0.0000e+00
      2.289      0.063     9.2401     89.617     34.777  27.110744     0.6595      7.109   307.3306 2.5330e+02     1.3157      2.246      3.257    13.9772 0.0000e+00
      2.305      0.062     9.2479     89.690     34.757  27.093556     0.6435      7.109   307.4190 2.6114e+02     1.2620      2.260      3.278    13.9785 0.0000e+00
      2.320      0.061     9.2588     89.793     34.782  27.112446     0.6414      7.109   307.6944 2.7806e+02     1.2009      2.274      3.299    13.9806 0.0000e+00
      2.335      0.060     9.2718     89.917     34.829  27.148655     0.6521      7.108   308.1652 2.6367e+02     1.2176      2.291      3.323    13.9776 0.0000e+00
      2.350      0.059     9.2861     90.053     34.832  27.150374     0.6538      7.107   308.3798 2.4241e+02     1.2805      2.305      3.343    13.9740 0.0000e+00
      2.365      0.059     9.2979     90.165     34.811  27.133228     0.6525      7.107   307.8797 2.3904e+02     1.3201      2.319      3.363    13.9727 0.0000e+00
      2.380      0.059     9.3066     90.249     34.809  27.131825     0.6637      7.108   306.8511 2.3287e+02     1.3310      2.334      3.386    13.9718 0.0000e+00
      2.395      0.058     9.3142     90.324     34.811  27.133414     0.6795      7.108   306.3536 2.2155e+02     1.3206      2.348      3.406    13.9703 0.0000e+00
      2.410      0.057     9.3195     90.376     34.836  27.152436     0.6874      7.108   306.4243 2.1231e+02     1.2866      2.364      3.429    13.9693 0.0000e+00
      2.425      0.054     9.3190     90.372     34.860  27.171327     0.6948      7.108   306.7598 2.1410e+02     1.2550      2.379      3.450    13.9684 0.0000e+00
      2.439      0.051     9.3118     90.301     34.860  27.171342     0.7047      7.110   307.3121 2.2267e+02     1.2745      2.392      3.469    13.9679 0.0000e+00
      2.452      0.048     9.3019     90.203     34.837  27.152608     0.7060      7.111   307.5955 2.1959e+02     1.3084      2.405      3.488    13.9681 0.0000e+00
      2.464      0.046     9.2935     90.118     34.816  27.135304     0.6925      7.110   307.3474 2.0794e+02     1.2984      2.416      3.505    13.9687 0.0000e+00
      2.474      0.044     9.2870     90.055     34.839  27.152623     0.6792      7.110   306.8074 2.0467e+02     1.3070      2.426      3.518    13.9697 0.0000e+00
      2.484      0.043     9.2798     89.987     34.863  27.171515     0.6832      7.110   306.4873 2.0925e+02     1.3820      2.435      3.532    13.9692 0.0000e+00
      2.495      0.041     9.2713     89.908     34.863  27.173232     0.6856      7.110   306.4882 2.0899e+02     1.4412      2.445      3.548    13.9674 0.0000e+00
      2.507      0.041     9.2647     89.847     34.861  27.173387     0.6805      7.110   306.5603 2.0513e+02     1.4427      2.459      3.566    13.9657 0.0000e+00
      2.518      0.042     9.2615     89.816     34.861  27.173387     0.6854      7.110   306.5843 2.0086e+02     1.4612      2.470      3.583    13.9654 0.0000e+00
      2.527      0.046     9.2635     89.834     34.862  27.173232     0.6899      7.109   306.8644 1.9744e+02     1.4515      2.478      3.594    13.9666 0.0000e+00
      2.536      0.051     9.2687     89.882     34.861  27.171515     0.6892      7.108   307.3655 1.9505e+02     1.3565      2.486      3.606    13.9687 0.0000e+00
      2.548      0.057     9.2716     89.907     34.838  27.152623     0.6943      7.107   307.4819 1.9359e+02     1.2893      2.497      3.621    13.9703 0.0000e+00
      2.564      0.063     9.2727     89.916     34.816  27.135306     0.6971      7.104   307.2389 1.9672e+02     1.2797      2.512      3.644    13.9703 0.0000e+00
      2.584      0.068     9.2745     89.933     34.839  27.152624     0.6958      7.102   307.0941 1.9562e+02     1.2710      2.533      3.674    13.9690 0.0000e+00
      2.605      0.069     9.2760     89.948     34.863  27.171515     0.6973      7.100   307.1081 1.8965e+02     1.2450      2.555      3.706    13.9675 0.0000e+00
      2.625      0.068     9.2791     89.978     34.865  27.173218     0.6962      7.099   307.0638 1.8780e+02     1.2098      2.575      3.735    13.9662 0.0000e+00
      2.642      0.066     9.2854     90.038     34.865  27.173216     0.6920      7.100   307.5913 1.8959e+02     1.2103      2.593      3.760    13.9653 0.0000e+00
      2.657      0.064     9.2923     90.102     34.865  27.171497     0.6918      7.100   308.6675 1.8924e+02     1.2514      2.606      3.779    13.9650 0.0000e+00
      2.670      0.063     9.3002     90.173     34.843  27.152435     0.6848      7.099   308.9780 1.8677e+02     1.2791      2.617      3.796    13.9653 0.0000e+00
      2.684      0.064     9.3095     90.260     34.820  27.133220     0.6726      7.097   308.7637 1.8627e+02     1.3019      2.631      3.815    13.9661 0.0000e+00
      2.700      0.065     9.3189     90.350     34.815  27.129665     0.6627      7.096   308.8297 1.8474e+02     1.3134      2.646      3.838    13.9657 0.0000e+00
      2.719      0.066     9.3272     90.430     34.790  27.109460     0.6570      7.096   308.7434 1.8074e+02     1.2966      2.666      3.867    13.9631 0.0000e+00
      2.739      0.066     9.3341     90.495     34.752  27.079415     0.6681      7.097   308.3223 1.7594e+02     1.3429      2.687      3.897    13.9604 0.0000e+00
      2.757      0.066     9.3384     90.528     34.762  27.083874     0.6872      7.097   308.7288 1.7233e+02     1.4458      2.704      3.921    13.9590 0.0000e+00
      2.772      0.065     9.3404     90.532     34.789  27.099872     0.7034      7.096   309.9584 1.6928e+02     1.5032      2.718      3.943    13.9584 0.0000e+00
      2.787      0.063     9.3425     90.528     34.777  27.082341     0.7084      7.095   310.5415 1.6766e+02     1.5176      2.731      3.962    13.9589 0.0000e+00
      2.802      0.060     9.3452     90.524     34.765  27.062390     0.7020      7.093   310.5314 1.6848e+02     1.4676      2.746      3.983    13.9584 0.0000e+00
      2.818      0.058     9.3471     90.505     34.765  27.049122     0.6997      7.093   310.3517 1.6530e+02     1.3557      2.763      4.008    13.9550 0.0000e+00
      2.834      0.057     9.3460     90.451     34.785  27.048905     0.6985      7.093   310.0033 1.6108e+02     1.2939      2.780      4.032    13.9466 0.0000e+00
      2.849      0.058     9.3449     90.392     34.820  27.059741     0.6961      7.092   309.7610 1.6023e+02     1.2706      2.796      4.054    13.9334 0.0000e+00
      2.860      0.059     9.3459     90.339     34.839  27.053131     0.6988      7.091   309.8311 1.5834e+02     1.2566      2.804      4.067    13.9198 0.0000e+00
      2.872      0.061     9.3455     90.261     34.846  27.032448     0.7030      7.092   310.3341 1.5637e+02     1.2774      2.813      4.080    13.8992 0.0000e+00
      2.889      0.064     9.3425     90.156     34.840  27.000135     0.7014      7.092   310.8532 1.5323e+02     1.3092      2.833      4.108    13.8767 0.0000e+00
      2.908      0.068     9.3384     90.042     34.847  26.979888     0.6982      7.092   311.0314 1.5031e+02     1.3042      2.853      4.138    13.8564 0.0000e+00
      2.926      0.069     9.3325     89.914     34.876  26.978101     0.7011      7.092   311.0254 1.5203e+02     1.2478      2.869      4.161    13.8247 0.0000e+00
      2.945      0.067     9.3235     89.767     34.905  26.978497     0.6996      7.091   311.0398 1.5143e+02     1.2381      2.888      4.188    13.7842 0.0000e+00
      2.964      0.062     9.3134     89.620     34.935  26.984655     0.6986      7.090   310.7749 1.4885e+02     1.2784      2.908      4.217    13.7445 0.0000e+00
      2.981      0.056     9.3041     89.494     34.958  26.989044     0.7063      7.090   310.1456 1.4747e+02     1.3074      2.924      4.241    13.7084 0.0000e+00
      2.994      0.050     9.2948     89.379     34.943  26.968054     0.7012      7.090   309.9693 1.4332e+02     1.3144      2.936      4.259    13.6717 0.0000e+00
      3.005      0.045     9.2836     89.259     34.888  26.921339     0.6926      7.090   310.1923 1.3943e+02     1.3017      2.947      4.275    13.6391 0.0000e+00
      3.013      0.043     9.2694     89.105     34.827  26.868685     0.7035      7.091   310.4332 1.4053e+02     1.3063      2.956      4.287    13.6158 0.0000e+00
      3.020      0.043     9.2515     88.895     34.807  26.839382     0.7130      7.091   310.9031 1.4279e+02     1.3094      2.960      4.294    13.5968 0.0000e+00
      3.030      0.047     9.2325     88.670     34.802  26.821008     0.7069      7.091   311.2272 1.4135e+02     1.3089      2.970      4.308    13.5823 0.0000e+00
      3.043      0.052     9.2167     88.473     34.762  26.773511     0.7125      7.090   310.5657 1.4012e+02     1.3608      2.984      4.328    13.5793 0.0000e+00
      3.058      0.058     9.2057     88.293     34.712  26.709552     0.7442      7.089   309.3588 1.4005e+02     1.4485      2.998      4.348    13.5786 0.0000e+00
      3.075      0.063     9.1952     88.119     34.711  26.682618     0.7681      7.086   308.9387 1.3744e+02     1.4850      3.014      4.372    13.5510 0.0000e+00
      3.093      0.065     9.1837     87.970     34.754  26.701806     0.7711      7.083   309.3578 1.3362e+02     1.4656      3.034      4.400    13.5265 0.0000e+00
      3.110      0.064     9.1763     87.880     34.745  26.687551     0.7717      7.082   310.0375 1.2953e+02     1.3979      3.050      4.423    13.5173 0.0000e+00
      3.128      0.063     9.1734     87.828     34.690  26.637243     0.7657      7.082   310.4459 1.2680e+02     1.3072      3.068      4.449    13.4697 0.0000e+00
      3.145      0.061     9.1705     87.762     34.662  26.601502     0.7551      7.082   310.4243 1.2683e+02     1.2846      3.086      4.475    13.4203 0.0000e+00
      3.158      0.059     9.1654     87.659     34.650  26.572869     0.7526      7.081   310.0333 1.2688e+02     1.3073      3.098      4.493    13.4106 0.0000e+00
      3.171      0.057     9.1580     87.527     34.642  26.544998     0.7543      7.080   309.3331 1.2607e+02     1.3058      3.109      4.509    13.4030 0.0000e+00
      3.185      0.057     9.1500     87.397     34.632  26.518477     0.7576      7.080   309.0135 1.2650e+02     1.2982      3.124      4.531    13.3919 0.0000e+00
      3.200      0.058     9.1418     87.277     34.636  26.506160     0.7650      7.079   309.1808 1.2727e+02     1.3069      3.138      4.552    13.3737 0.0000e+00
      3.215      0.061     9.1321     87.141     34.678  26.523054     0.7696      7.077   309.2908 1.2520e+02     1.2893      3.152      4.573    13.3424 0.0000e+00
      3.232      0.063     9.1225     86.996     34.798  26.595734     0.7669      7.074   309.4824 1.2180e+02     1.2679      3.169      4.597    13.3089 0.0000e+00
      3.249      0.065     9.1155     86.866     34.946  26.686451     0.7602      7.071   309.9489 1.1915e+02     1.2929      3.186      4.621    13.2795 0.0000e+00
      3.265      0.065     9.1059     86.714     35.033  26.730943     0.7527      7.069   310.1989 1.1751e+02     1.3159      3.202      4.644    13.2610 0.0000e+00
      3.283      0.064     9.0893     86.501     35.088  26.752681     0.7503      7.067   310.0101 1.1610e+02     1.3022      3.219      4.669    13.2423 0.0000e+00
      3.300      0.061     9.0705     86.272     35.119  26.758771     0.7502      7.065   309.7315 1.1384e+02     1.2793      3.237      4.695    13.2125 0.0000e+00
      3.315      0.059     9.0547     86.077     35.118  26.741053     0.7510      7.063   309.6690 1.1115e+02     1.2837      3.251      4.716    13.1785 0.0000e+00
      3.329      0.058     9.0452     85.937     35.125  26.728924     0.7600      7.061   309.7710 1.0865e+02     1.3256      3.264      4.734    13.1468 0.0000e+00
      3.342      0.056     9.0447     85.868     35.170  26.739103     0.7673      7.061   309.7601 1.0851e+02     1.3585      3.278      4.753    13.1182 0.0000e+00
      3.355      0.055     9.0542     85.878     35.206  26.737098     0.7656      7.060   309.7092 1.0994e+02     1.3445      3.290      4.772    13.0920 0.0000e+00
      3.370      0.056     9.0712     85.952     35.206  26.704650     0.7575      7.058   310.1881 1.1044e+02     1.3098      3.305      4.794    13.0702 0.0000e+00
      3.384      0.058     9.0936     86.055     35.205  26.664229     0.7520      7.055   310.9910 1.0953e+02     1.3052      3.319      4.814    13.0482 0.0000e+00
      3.397      0.061     9.1172     86.145     35.223  26.629294     0.7642      7.051   311.2430 1.0778e+02     1.3502      3.330      4.830    13.0136 0.0000e+00
      3.412      0.063     9.1348     86.188     35.243  26.599684     0.7763      7.048   311.1696 1.0604e+02     1.3654      3.345      4.852    12.9691 0.0000e+00
      3.429      0.065     9.1486     86.189     35.253  26.560141     0.7692      7.045   311.0503 1.0252e+02     1.3059      3.362      4.876    12.9274 0.0000e+00
      3.449      0.067     9.1654     86.129     35.322  26.532113     0.7610      7.043   310.7467 1.0031e+02     1.2722      3.382      4.906    12.8751 0.0000e+00
      3.468      0.067     9.1799     85.948     35.453  26.514695     0.7602      7.041   311.1985 1.0128e+02     1.2928      3.402      4.934    12.7925 0.0000e+00
      3.484      0.066     9.1823     85.645     35.562  26.476400     0.7594      7.038   312.4690 1.0083e+02     1.2812      3.417      4.956    12.7286 0.0000e+00
      3.500      0.064     9.1748     85.290     35.667  26.449935     0.7698      7.036   313.1160 9.8734e+01     1.2531      3.432      4.978    12.6888 0.0000e+00
      3.516      0.062     9.1653     84.915     35.808  26.448572     0.7943      7.036   313.1720 9.6859e+01     1.2588      3.447      5.001    12.5802 0.0000e+00
      3.532      0.060     9.1542     84.476     35.994  26.459806     0.8157      7.034   312.8873 9.5266e+01     1.2579      3.462      5.023    12.3885 0.0000e+00
      3.547      0.060     9.1397     83.950     36.192  26.458640     0.8268      7.032   312.2545 9.3598e+01     1.2724      3.479      5.046    12.2100 0.0000e+00
      3.561      0.060     9.1157     83.364     36.349  26.434305     0.8273      7.029   312.0596 9.3249e+01     1.3127      3.492      5.065    12.0790 0.0000e+00
      3.576      0.059     9.0772     82.759     36.461  26.419402     0.8220      7.026   312.5965 9.3651e+01     1.3480      3.505      5.084    11.9378 0.0000e+00
      3.592      0.059     9.0290     82.142     36.536  26.405346     0.8184      7.024   313.5833 9.2850e+01     1.3950      3.522      5.109    11.7692 0.0000e+00
      3.607      0.060     8.9845     81.521     36.633  26.391273     0.8208      7.021   314.2680 9.1016e+01     1.4220      3.538      5.131    11.5499 0.0000e+00
      3.622      0.061     8.9495     80.926     36.763  26.376154     0.8313      7.017   314.4228 8.8862e+01     1.4611      3.552      5.152    11.3278 0.0000e+00
      3.636      0.062     8.9078     80.309     36.857  26.349405     0.8633      7.015   314.3362 8.7185e+01     1.4715      3.564      5.171    11.2106 0.0000e+00
      3.651      0.062     8.8512     79.667     36.891  26.321736     0.9137      7.012   314.1682 8.6170e+01     1.3947      3.579      5.191    11.1458 0.0000e+00
      3.668      0.062     8.7973     79.074     36.915  26.295541     0.9536      7.009   314.1974 8.5891e+01     1.3564      3.597      5.218    11.0374 0.0000e+00
      3.686      0.063     8.7563     78.516     37.011  26.286618     0.9772      7.005   314.3459 8.5810e+01     1.3448      3.615      5.243    10.8648 0.0000e+00
      3.702      0.063     8.7184     77.916     37.146  26.277263     0.9977      7.001   314.5868 8.5396e+01     1.2847      3.630      5.266    10.7112 0.0000e+00
      3.717      0.063     8.6775     77.307     37.242  26.245816     1.0168      6.997   315.0443 8.4109e+01     1.2394      3.645      5.287    10.6676 0.0000e+00
      3.732      0.062     8.6361     76.757     37.317  26.223765     1.0238      6.993   315.4047 8.2220e+01     1.2550      3.660      5.308    10.6385 0.0000e+00
      3.748      0.062     8.5978     76.271     37.371  26.201055     1.0283      6.990   315.5882 8.0988e+01     1.2915      3.676      5.331    10.5265 0.0000e+00
      3.765      0.061     8.5686     75.876     37.396  26.161652     1.0440      6.985   315.7998 7.9796e+01     1.3138      3.692      5.355    10.3634 0.0000e+00
      3.781      0.061     8.5484     75.581     37.418  26.128257     1.0661      6.982   315.8132 7.8313e+01     1.3103      3.707      5.378    10.2171 0.0000e+00
      3.796      0.061     8.5315     75.341     37.453  26.114712     1.0836      6.979   315.4912 7.7225e+01     1.2803      3.724      5.401    10.1277 0.0000e+00
      3.811      0.061     8.5202     75.162     37.516  26.124829     1.0910      6.975   315.3490 7.6287e+01     1.2869      3.738      5.422    10.0552 0.0000e+00
      3.825      0.062     8.5196     75.087     37.556  26.123558     1.1461      6.973   315.6416 7.5117e+01     1.3290      3.751      5.441     9.9714 0.0000e+00
      3.840      0.064     8.5237     75.080     37.547  26.099306     1.2444      6.970   315.8460 7.4127e+01     1.3312      3.766      5.462     9.9055 0.0000e+00
      3.856      0.065     8.5195     75.032     37.534  26.085557     1.2872      6.965   316.0136 7.3526e+01     1.3132      3.780      5.482     9.8604 0.0000e+00
      3.875      0.064     8.5090     74.934     37.535  26.084308     1.2863      6.962   316.4640 7.2633e+01     1.3259      3.799      5.509     9.8149 0.0000e+00
      3.895      0.060     8.5050     74.878     37.549  26.084205     1.2883      6.960   316.7310 7.1709e+01     1.3315      3.821      5.543     9.7717 0.0000e+00
      3.913      0.055     8.5022     74.827     37.565  26.084300     1.2942      6.956   316.1451 7.1388e+01     1.3206      3.839      5.568     9.7441 0.0000e+00
      3.925      0.046     8.4936     74.737     37.575  26.085445     1.2928      6.951   315.0582 7.1170e+01     1.3158      3.850      5.584     9.7447 0.0000e+00
      3.934      0.035     8.4840     74.656     37.592  26.098037     1.2804      6.947   314.6024 7.0339e+01     1.3048      3.858      5.596     9.7506 0.0000e+00
      3.942      0.024     8.4748     74.584     37.603  26.109561     1.2822      6.944   314.7640 6.9216e+01     1.3091      3.867      5.609     9.7325 0.0000e+00
      3.947      0.019     8.4691     74.531     37.587  26.097798     1.3048      6.943   315.2914 6.8911e+01     1.3076      3.872      5.616     9.7136 0.0000e+00
      3.947      0.019     8.4696     74.515     37.579  26.082801     1.3340      6.941   315.9888 6.9176e+01     1.2866      3.871      5.615     9.7052 0.0000e+00
      3.947      0.024     8.4715     74.485     37.567  26.055209     1.3503      6.940   316.1406 6.9020e+01     1.2984      3.870      5.613     9.7075 0.0000e+00
      3.949      0.034     8.4708     74.410     37.555  26.018146     1.3637      6.938   315.4067 6.8698e+01     1.3278      3.870      5.614     9.7193 0.0000e+00
      3.958      0.047     8.4703     74.331     37.598  26.015611     1.4310      6.934   314.3424 6.8280e+01     1.3365      3.878      5.625     9.7186 0.0000e+00
      3.975      0.061     8.4701     74.269     37.648  26.024532     1.5397      6.929   314.0264 6.7160e+01     1.3121      3.897      5.651     9.7068 0.0000e+00
      3.996      0.072     8.4687     74.217     37.635  25.998993     1.6032      6.924   314.5111 6.5706e+01     1.2775      3.919      5.684     9.6818 0.0000e+00
      4.019      0.081     8.4684     74.167     37.609  25.960783     1.6471      6.919   315.2135 6.4642e+01     1.2844      3.941      5.716     9.6384 0.0000e+00
      4.042      0.086     8.4691     74.087     37.638  25.943478     2.0156      6.912   315.6358 6.3572e+01     1.3038      3.964      5.749     9.5928 0.0000e+00
      4.065      0.085     8.4675     73.970     37.663  25.916711     2.6954      6.904   315.7458 6.2301e+01     1.2990      3.987      5.782     9.5541 0.0000e+00
      4.087      0.081     8.4607     73.827     37.677  25.891078     3.0655      6.898   315.7688 6.1314e+01     1.2869      4.007      5.812     9.5395 0.0000e+00
      4.109      0.078     8.4522     73.682     37.716  25.887494     3.0989      6.894   315.4835 6.0363e+01     1.3104      4.030      5.844     9.5242 0.0000e+00
      4.129      0.076     8.4462     73.534     37.755  25.873339     3.2464      6.891   314.9643 5.9625e+01     1.3998      4.052      5.878     9.4664 0.0000e+00
      4.144      0.075     8.4373     73.344     37.787  25.846877     3.5169      6.890   314.6538 5.9195e+01     1.4831      4.064      5.895     9.3974 0.0000e+00
      4.158      0.074     8.4220     73.129     37.802  25.821472     3.6491      6.889   314.7396 5.8261e+01     1.4932      4.074      5.908     9.3511 0.0000e+00
      4.179      0.074     8.4044     72.926     37.832  25.820107     3.6503      6.887   314.8827 5.6993e+01     1.4914      4.098      5.944     9.3234 0.0000e+00
      4.202      0.074     8.3873     72.730     37.877  25.830359     3.6598      6.887   314.9214 5.5978e+01     1.5224      4.123      5.980     9.2704 0.0000e+00
      4.222      0.074     8.3692     72.523     37.891  25.818416     3.6165      6.886   315.3797 5.5275e+01     1.5331      4.141      6.005     9.1873 0.0000e+00
      4.241      0.073     8.3513     72.318     37.901  25.802681     3.5036      6.885   315.9499 5.4690e+01     1.5288      4.159      6.032     9.1409 0.0000e+00
      4.258      0.071     8.3389     72.139     37.895  25.767061     3.4341      6.882   315.8790 5.3875e+01     1.5309      4.175      6.056     9.1266 0.0000e+00
      4.274      0.070     8.3324     71.987     37.866  25.705186     3.4204      6.880   315.6410 5.2983e+01     1.4982      4.192      6.079     9.0945 0.0000e+00
      4.291      0.070     8.3275     71.844     37.907  25.689444     3.4290      6.879   315.5675 5.2267e+01     1.4692      4.207      6.102     9.0639 0.0000e+00
      4.309      0.071     8.3221     71.709     37.986  25.703667     3.4550      6.877   315.5934 5.1769e+01     1.4852      4.226      6.129     9.0436 0.0000e+00
      4.328      0.073     8.3203     71.617     38.011  25.686629     3.4782      6.872   315.7812 5.1569e+01     1.4781      4.244      6.156     9.0021 0.0000e+00
      4.346      0.075     8.3255     71.587     38.040  25.673887     3.5159      6.867   316.3760 5.1165e+01     1.4444      4.261      6.180     8.9411 0.0000e+00
      4.366      0.075     8.3365     71.607     38.093  25.676570     3.7909      6.864   317.2788 5.0289e+01     1.4437      4.280      6.208     8.8793 0.0000e+00
      4.387      0.075     8.3528     71.673     38.110  25.655543     4.2854      6.862   317.6627 4.9367e+01     1.4694      4.302      6.240     8.8282 0.0000e+00
      4.407      0.074     8.3764     71.801     38.091  25.610100     4.5513      6.860   317.6623 4.8568e+01     1.4809      4.322      6.269     8.7860 0.0000e+00
      4.425      0.072     8.4043     71.968     38.080  25.571538     4.5699      6.858   317.4456 4.7878e+01     1.4601      4.339      6.293     8.7437 0.0000e+00
      4.443      0.070     8.4291     72.120     38.118  25.570230     4.6306      6.857   316.9351 4.7201e+01     1.4624      4.357      6.319     8.7004 0.0000e+00
      4.460      0.068     8.4504     72.260     38.181  25.594250     4.7524      6.855   316.7382 4.6531e+01     1.5087      4.374      6.345     8.6579 0.0000e+00
      4.477      0.068     8.4703     72.403     38.220  25.607969     4.8204      6.851   317.4746 4.6009e+01     1.5308      4.390      6.367     8.6149 0.0000e+00
      4.493      0.069     8.4861     72.517     38.235  25.609103     4.8180      6.849   318.7828 4.5519e+01     1.5464      4.406      6.390     8.5713 0.0000e+00
      4.509      0.070     8.4974     72.589     38.249  25.607958     4.8059      6.848   319.4778 4.4972e+01     1.5459      4.422      6.414     8.5351 0.0000e+00
      4.527      0.071     8.5091     72.658     38.248  25.594117     4.8027      6.846   319.5977 4.4297e+01     1.4940      4.439      6.438     8.5114 0.0000e+00
      4.547      0.071     8.5210     72.727     38.232  25.568731     4.7890      6.843   319.4582 4.3470e+01     1.4681      4.458      6.467     8.4976 0.0000e+00
      4.567      0.070     8.5275     72.753     38.231  25.554974     4.7690      6.841   318.9093 4.2895e+01     1.4761      4.480      6.498     8.4883 0.0000e+00
      4.586      0.069     8.5296     72.747     38.246  25.554757     4.7714      6.839   318.5535 4.2454e+01     1.5001      4.499      6.524     8.4750 0.0000e+00
      4.602      0.067     8.5293     72.725     38.275  25.566092     4.7820      6.836   319.0280 4.1869e+01     1.5756      4.513      6.544     8.4558 0.0000e+00
      4.618      0.066     8.5253     72.678     38.282  25.565034     4.7780      6.833   319.9996 4.1451e+01     1.6560      4.529      6.568     8.4366 0.0000e+00
      4.633      0.065     8.5208     72.628     38.255  25.541955     4.7783      6.829   320.6646 4.1043e+01     1.6790      4.544      6.591     8.4198 0.0000e+00
      4.649      0.065     8.5218     72.628     38.260  25.541011     4.7944      6.826   320.7878 4.0450e+01     1.7006      4.558      6.611     8.4055 0.0000e+00
      4.667      0.065     8.5286     72.675     38.285  25.553614     4.8804      6.824   320.6288 3.9877e+01     1.7351      4.577      6.638     8.3950 0.0000e+00
      4.686      0.065     8.5383     72.748     38.312  25.567343     5.0377      6.822   320.5488 3.9260e+01     1.7289      4.596      6.666     8.3876 0.0000e+00
      4.702      0.064     8.5534     72.868     38.337  25.580023     5.1238      6.820   320.5961 3.8561e+01     1.6865      4.611      6.689     8.3818 0.0000e+00
      4.718      0.062     8.5704     73.004     38.342  25.579936     5.1404      6.817   320.4261 3.7935e+01     1.6498      4.627      6.711     8.3771 0.0000e+00
      4.733      0.061     8.5839     73.112     38.327  25.566283     5.2393      6.814   320.3005 3.7352e+01     1.6523      4.641      6.731     8.3710 0.0000e+00
      4.748      0.061     8.5977     73.217     38.298  25.541936     5.4097      6.811   320.4535 3.6813e+01     1.6856      4.656      6.753     8.3643 0.0000e+00
      4.762      0.061     8.6110     73.314     38.305  25.539526     5.4998      6.809   320.6412 3.6218e+01     1.7169      4.670      6.774     8.3594 0.0000e+00
      4.777      0.062     8.6198     73.376     38.310  25.537122     5.5109      6.807   320.8491 3.5646e+01     1.7256      4.684      6.794     8.3550 0.0000e+00
      4.794      0.063     8.6268     73.428     38.278  25.512869     5.5435      6.805   320.9891 3.5273e+01     1.7293      4.702      6.819     8.3524 0.0000e+00
      4.811      0.063     8.6366     73.507     38.261  25.500255     5.5998      6.803   321.0425 3.4850e+01     1.7309      4.718      6.843     8.3463 0.0000e+00
      4.828      0.063     8.6490     73.605     38.283  25.511599     5.6315      6.802   320.4625 3.4396e+01     1.7150      4.736      6.869     8.3341 0.0000e+00
      4.844      0.062     8.6628     73.710     38.309  25.523041     5.6329      6.800   319.6548 3.3954e+01     1.6897      4.751      6.891     8.3263 0.0000e+00
      4.858      0.061     8.6763     73.811     38.300  25.511601     5.6256      6.797   319.7944 3.3357e+01     1.6688      4.764      6.908     8.3229 0.0000e+00
      4.873      0.061     8.6888     73.904     38.292  25.500255     5.6451      6.795   320.1714 3.2789e+01     1.6759      4.779      6.931     8.3232 0.0000e+00
      4.889      0.060     8.7008     73.991     38.320  25.512849     5.7029      6.794   320.4275 3.2339e+01     1.7152      4.795      6.953     8.3193 0.0000e+00
      4.905      0.060     8.7076     74.040     38.363  25.536884     5.7453      6.791   320.9116 3.1941e+01     1.7471      4.809      6.975     8.3092 0.0000e+00
      4.920      0.060     8.7063     74.029     38.363  25.536875     5.7627      6.788   321.2070 3.1583e+01     1.7560      4.826      6.999     8.3029 0.0000e+00
      4.935      0.060     8.7025     73.995     38.327  25.512736     5.8402      6.786   320.6438 3.1144e+01     1.7627      4.840      7.020     8.2959 0.0000e+00
      4.950      0.061     8.7025     73.984     38.313  25.498997     5.9834      6.784   319.5222 3.0629e+01     1.7668      4.853      7.040     8.2856 0.0000e+00
      4.966      0.062     8.7048     73.986     38.322  25.497740     6.0698      6.782   319.0894 3.0145e+01     1.7445      4.870      7.064     8.2793 0.0000e+00
      4.981      0.062     8.7060     73.979     38.333  25.497532     6.0844      6.780   319.2827 2.9670e+01     1.7063      4.884      7.084     8.2813 0.0000e+00
      4.997      0.062     8.7068     73.971     38.341  25.496472     6.1977      6.778   319.7078 2.9145e+01     1.7021      4.899      7.107     8.2838 0.0000e+00
      5.015      0.062     8.7127     74.011     38.330  25.484919     6.4278      6.776   320.3583 2.8640e+01     1.7242      4.919      7.134     8.2768 0.0000e+00
      5.032      0.062     8.7260     74.121     38.332  25.484823     6.5601      6.775   320.2636 2.8150e+01     1.7291      4.935      7.158     8.2649 0.0000e+00
      5.046      0.062     8.7408     74.246     38.348  25.495317     6.5751      6.772   319.3379 2.7646e+01     1.7308      4.949      7.177     8.2549 0.0000e+00
      5.060      0.062     8.7528     74.343     38.336  25.484812     6.5916      6.770   318.8015 2.7187e+01     1.7137      4.961      7.196     8.2470 0.0000e+00
      5.075      0.062     8.7632     74.420     38.343  25.484796     6.6217      6.768   318.7686 2.6689e+01     1.6752      4.975      7.216     8.2405 0.0000e+00
      5.092      0.062     8.7723     74.484     38.366  25.495110     6.6445      6.766   318.7671 2.6142e+01     1.6926      4.993      7.242     8.2387 0.0000e+00
      5.111      0.062     8.7803     74.541     38.354  25.482525     6.6465      6.764   319.0426 2.5703e+01     1.7414      5.012      7.269     8.2414 0.0000e+00
      5.127      0.062     8.7864     74.586     38.325  25.459619     6.5627      6.761   319.5176 2.5321e+01     1.7464      5.029      7.294     8.2389 0.0000e+00
      5.141      0.061     8.7888     74.600     38.348  25.472117     6.4035      6.759   319.6070 2.4926e+01     1.7223      5.043      7.314     8.2306 0.0000e+00
      5.155      0.061     8.7886     74.592     38.403  25.506655     6.3214      6.758   319.3488 2.4571e+01     1.6939      5.054      7.330     8.2229 0.0000e+00
      5.169      0.062     8.7914     74.611     38.391  25.496246     6.3237      6.756   319.1495 2.4186e+01     1.6775      5.068      7.351     8.2173 0.0000e+00
      5.185      0.063     8.7974     74.656     38.359  25.473243     6.3208      6.754   319.0900 2.3740e+01     1.6774      5.085      7.375     8.2134 0.0000e+00
      5.203      0.064     8.8044     74.715     38.374  25.482506     6.3133      6.753   319.0601 2.3303e+01     1.6923      5.102      7.400     8.2101 0.0000e+00
      5.220      0.065     8.8131     74.793     38.370  25.481257     6.3165      6.751   319.1315 2.2873e+01     1.7043      5.120      7.427     8.2068 0.0000e+00
      5.237      0.067     8.8196     74.851     38.334  25.458141     6.3226      6.749   319.3502 2.2437e+01     1.7014      5.136      7.449     8.2036 0.0000e+00
      5.252      0.068     8.8231     74.877     38.334  25.456986     6.3320      6.746   319.9838 2.2036e+01     1.7186      5.151      7.471     8.2007 0.0000e+00
      5.268      0.070     8.8264     74.898     38.354  25.467291     6.3471      6.743   320.8555 2.1641e+01     1.7290      5.166      7.494     8.1996 0.0000e+00
      5.287      0.072     8.8257     74.885     38.341  25.455748     6.3584      6.740   320.9422 2.1221e+01     1.7045      5.183      7.518     8.2026 0.0000e+00
      5.307      0.074     8.8216     74.842     38.329  25.444403     6.3667      6.738   320.6023 2.0782e+01     1.6980      5.205      7.549     8.2053 0.0000e+00
      5.327      0.074     8.8188     74.814     38.351  25.457100     6.3835      6.737   320.5318 2.0332e+01     1.7107      5.224      7.577     8.2022 0.0000e+00
      5.347      0.072     8.8142     74.773     38.390  25.482289     6.4153      6.735   320.3475 1.9899e+01     1.7053      5.244      7.605     8.1979 0.0000e+00
      5.366      0.069     8.8091     74.728     38.410  25.494987     6.4655      6.733   320.0950 1.9506e+01     1.6942      5.264      7.634     8.1945 0.0000e+00
      5.383      0.064     8.8075     74.712     38.395  25.483633     6.5040      6.732   320.0595 1.9175e+01     1.6983      5.280      7.658     8.1899 0.0000e+00
      5.398      0.059     8.8105     74.733     38.380  25.471995     6.5129      6.730   320.6933 1.8875e+01     1.7253      5.294      7.679     8.1869 0.0000e+00
      5.412      0.056     8.8159     74.776     38.395  25.481259     6.5455      6.728   321.6497 1.8579e+01     1.7451      5.307      7.698     8.1868 0.0000e+00
      5.425      0.054     8.8219     74.825     38.378  25.468656     6.6047      6.728   321.8147 1.8293e+01     1.7237      5.320      7.716     8.1863 0.0000e+00
      5.437      0.054     8.8303     74.898     38.343  25.446599     6.6313      6.728   321.6552 1.8014e+01     1.6809      5.333      7.734     8.1842 0.0000e+00
      5.450      0.054     8.8377     74.968     38.371  25.468541     6.6364      6.727   321.5277 1.7732e+01     1.6854      5.344      7.750     8.1822 0.0000e+00
      5.464      0.054     8.8419     75.015     38.382  25.479989     6.6575      6.725   321.1344 1.7437e+01     1.7160      5.358      7.772     8.1804 0.0000e+00
      5.479      0.053     8.8452     75.051     38.345  25.458027     6.6932      6.724   321.3731 1.7165e+01     1.7162      5.374      7.795     8.1785 0.0000e+00
      5.494      0.050     8.8482     75.078     38.342  25.456975     6.7190      6.722   322.2630 1.6911e+01     1.7172      5.388      7.814     8.1799 0.0000e+00
      5.507      0.046     8.8507     75.097     38.359  25.467279     6.7215      6.720   322.6018 1.6676e+01     1.6982      5.402      7.833     8.1843 0.0000e+00
      5.518      0.041     8.8525     75.108     38.344  25.455624     6.7136      6.719   322.4578 1.6467e+01     1.6688      5.413      7.849     8.1911 0.0000e+00
      5.528      0.037     8.8545     75.117     38.329  25.443029     6.6605      6.718   322.4149 1.6257e+01     1.6673      5.421      7.863     8.1960 0.0000e+00
      5.536      0.034     8.8576     75.137     38.332  25.441988     6.5667      6.716   322.2554 1.6069e+01     1.6808      5.430      7.875     8.1955 0.0000e+00
      5.543      0.031     8.8611     75.165     38.335  25.443029     6.5169      6.715   321.9058 1.5913e+01     1.7401      5.436      7.883     8.1952 0.0000e+00
      5.550      0.029     8.8610     75.173     38.348  25.455613     6.5178      6.715   321.8013 1.5757e+01     1.8047      5.442      7.893     8.1930 0.0000e+00
      5.558      0.029     8.8594     75.172     38.358  25.467156     6.5683      6.715   322.0247 1.5605e+01     1.7909      5.451      7.906     8.1879 0.0000e+00
      5.566      0.032     8.8618     75.194     38.338  25.455611     6.6586      6.713   322.2842 1.5506e+01     1.7264      5.460      7.918     8.1834 0.0000e+00
      5.572      0.039     8.8660     75.219     38.326  25.443018     6.7090      6.712   322.3577 1.5454e+01     1.6651      5.464      7.925     8.1806 0.0000e+00
      5.578      0.049     8.8677     75.217     38.335  25.441875     6.7087      6.712   322.3110 1.5344e+01     1.6599      5.467      7.930     8.1872 0.0000e+00
      5.589      0.060     8.8651     75.181     38.344  25.441781     6.7012      6.710   322.3214 1.5124e+01     1.7553      5.479      7.946     8.1980 0.0000e+00
      5.608      0.073     8.8599     75.126     38.350  25.441876     6.7011      6.706   322.3978 1.4854e+01     1.8723      5.499      7.974     8.1995 0.0000e+00
      5.631      0.086     8.8554     75.081     38.356  25.443020     6.6983      6.702   322.5453 1.4562e+01     1.9143      5.521      8.008     8.1916 0.0000e+00
      5.657      0.099     8.8515     75.043     38.378  25.455614     6.6955      6.696   322.7285 1.4242e+01     1.9271      5.548      8.046     8.1805 0.0000e+00
      5.684      0.108     8.8481     75.011     38.398  25.467150     6.6768      6.690   322.8063 1.3918e+01     1.9361      5.575      8.085     8.1726 0.0000e+00
      5.712      0.110     8.8459     74.991     38.383  25.455512     6.6283      6.684   322.7981 1.3576e+01     1.9311      5.600      8.123     8.1675 0.0000e+00
      5.742      0.106     8.8469     74.998     38.363  25.441888     6.5948      6.679   322.8011 1.3189e+01     1.9278      5.629      8.165     8.1641 0.0000e+00
      5.775      0.096     8.8508     75.031     38.343  25.429408     6.5754      6.677   322.7567 1.2841e+01     1.9263      5.666      8.217     8.1615 0.0000e+00
      5.805      0.084     8.8574     75.088     38.346  25.431603     6.5047      6.676   322.6047 1.2641e+01     1.8833      5.699      8.265     8.1595 0.0000e+00
      5.823      0.069     8.8672     75.172     38.401  25.468430     6.4010      6.675   322.4267 1.2547e+01     1.7735      5.715      8.288     8.1583 0.0000e+00
      5.833      0.056     8.8744     75.234     38.438  25.493721     6.3514      6.675   322.4115 1.2459e+01     1.6973      5.720      8.296     8.1577 0.0000e+00
      5.842      0.047     8.8766     75.252     38.423  25.483417     6.3373      6.674   322.5068 1.2395e+01     1.6945      5.729      8.309     8.1584 0.0000e+00
      5.850      0.045     8.8777     75.259     38.406  25.470833     6.3226      6.673   322.5465 1.2368e+01     1.7090      5.738      8.322     8.1591 0.0000e+00
      5.857      0.049     8.8790     75.269     38.403  25.468553     6.3846      6.672   322.5468 1.2281e+01     1.7201      5.741      8.327     8.1592 0.0000e+00
      5.869      0.055     8.8795     75.272     38.385  25.455856     6.5072      6.672   322.5108 1.2102e+01     1.7068      5.752      8.342     8.1597 0.0000e+00
      5.888      0.061     8.8785     75.262     38.368  25.444292     6.5646      6.671   322.4561 1.1892e+01     1.6701      5.774      8.374     8.1598 0.0000e+00
      5.908      0.065     8.8785     75.262     38.385  25.455731     6.5733      6.671   322.8315 1.1692e+01     1.6734      5.795      8.405     8.1585 0.0000e+00
      5.927      0.069     8.8796     75.272     38.403  25.467180     6.6311      6.670   323.6935 1.1512e+01     1.7169      5.813      8.431     8.1574 0.0000e+00
      5.943      0.071     8.8816     75.289     38.385  25.455731     6.7303      6.670   324.1031 1.1351e+01     1.7379      5.828      8.453     8.1566 0.0000e+00
      5.959      0.071     8.8831     75.303     38.367  25.444283     6.7801      6.669   323.9125 1.1178e+01     1.7136      5.843      8.474     8.1562 0.0000e+00
      5.976      0.071     8.8805     75.283     38.382  25.455750     6.7641      6.669   323.7114 1.0997e+01     1.6672      5.860      8.499     8.1561 0.0000e+00
      5.996      0.072     8.8750     75.241     38.397  25.467398     6.6747      6.670   323.3923 1.0833e+01     1.6649      5.880      8.528     8.1558 0.0000e+00
      6.016      0.073     8.8721     75.221     38.381  25.458133     6.5360      6.670   322.8943 1.0673e+01     1.6864      5.899      8.556     8.1562 0.0000e+00
      6.035      0.073     8.8710     75.211     38.400  25.470706     6.4653      6.669   323.1102 1.0503e+01     1.6822      5.918      8.584     8.1568 0.0000e+00
      6.054      0.073     8.8665     75.171     38.434  25.492433     6.4541      6.667   324.1101 1.0345e+01     1.6754      5.937      8.611     8.1578 0.0000e+00
      6.071      0.074     8.8622     75.132     38.397  25.466857     6.4192      6.667   324.6596 1.0198e+01     1.6652      5.954      8.635     8.1608 0.0000e+00
      6.087      0.074     8.8627     75.134     38.321  25.415444     6.3653      6.666   324.6774 1.0032e+01     1.6811      5.969      8.658     8.1637 0.0000e+00
      6.106      0.074     8.8642     75.145     38.266  25.378740     6.3447      6.664   324.7552 9.8550e+00     1.7150      5.987      8.685     8.1637 0.0000e+00
      6.128      0.075     8.8648     75.151     38.305  25.404032     6.3445      6.663   324.6535 9.6949e+00     1.7090      6.010      8.717     8.1616 0.0000e+00
      6.149      0.076     8.8660     75.162     38.400  25.467276     6.3345      6.663   324.3084 9.5480e+00     1.7001      6.031      8.748     8.1600 0.0000e+00
      6.167      0.077     8.8680     75.178     38.462  25.508490     6.3801      6.662   324.4545 9.4107e+00     1.6992      6.049      8.773     8.1590 0.0000e+00
      6.184      0.077     8.8738     75.225     38.482  25.521378     6.4915      6.660   325.1300 9.2680e+00     1.6978      6.064      8.796     8.1583 0.0000e+00
      6.203      0.077     8.8803     75.278     38.446  25.496114     6.5606      6.660   325.5927 9.0895e+00     1.7141      6.082      8.823     8.1582 0.0000e+00
      6.224      0.077     8.8825     75.296     38.387  25.456999     6.5723      6.659   325.7463 8.8994e+00     1.6831      6.104      8.853     8.1586 0.0000e+00
      6.245      0.077     8.8825     75.295     38.346  25.429411     6.6337      6.658   325.7824 8.7239e+00     1.6581      6.124      8.882     8.1589 0.0000e+00
      6.266      0.077     8.8813     75.285     38.327  25.416513     6.7600      6.657   325.7712 8.5562e+00     1.7170      6.146      8.914     8.1579 0.0000e+00
      6.286      0.080     8.8774     75.252     38.344  25.428037     6.8402      6.655   325.8693 8.4261e+00     1.7540      6.167      8.944     8.1564 0.0000e+00
      6.302      0.085     8.8720     75.206     38.365  25.441765     6.8505      6.651   325.9368 8.3097e+00     1.7395      6.181      8.964     8.1559 0.0000e+00
      6.319      0.092     8.8695     75.185     38.386  25.455502     6.8384      6.646   325.7262 8.1430e+00     1.7243      6.194      8.984     8.1557 0.0000e+00
      6.342      0.098     8.8683     75.174     38.404  25.467152     6.8222      6.642   325.6459 7.9263e+00     1.7228      6.216      9.016     8.1556 0.0000e+00
      6.373      0.103     8.8664     75.156     38.387  25.455627     6.8195      6.641   325.9127 7.6904e+00     1.7214      6.248      9.062     8.1556 0.0000e+00
      6.408      0.105     8.8646     75.141     38.369  25.443138     6.8241      6.640   326.2845 7.4770e+00     1.7076      6.285      9.117     8.1557 0.0000e+00
      6.439      0.102     8.8644     75.139     38.369  25.443139     6.7958      6.638   326.7862 7.3010e+00     1.7084      6.316      9.161     8.1556 0.0000e+00
      6.464      0.094     8.8665     75.156     38.388  25.455638     6.7444      6.638   327.0747 7.1595e+00     1.7313      6.340      9.195     8.1550 0.0000e+00
      6.484      0.083     8.8693     75.180     38.405  25.467277     6.7255      6.638   326.9327 7.0548e+00     1.7400      6.360      9.225     8.1545 0.0000e+00
      6.502      0.073     8.8726     75.209     38.390  25.456877     6.7237      6.638   326.1872 6.9686e+00     1.7224      6.377      9.248     8.1542 0.0000e+00
      6.517      0.068     8.8739     75.219     38.390  25.456878     6.6767      6.638   325.2896 6.8898e+00     1.7017      6.392      9.270     8.1540 0.0000e+00
      6.532      0.066     8.8727     75.209     38.406  25.467288     6.5987      6.637   325.1135 6.8106e+00     1.6730      6.407      9.292     8.1540 0.0000e+00
      6.547      0.066     8.8715     75.198     38.388  25.455763     6.5621      6.636   325.3486 6.7185e+00     1.6500      6.420      9.311     8.1539 0.0000e+00
      6.564      0.067     8.8708     75.193     38.371  25.444514     6.5650      6.635   325.8090 6.6145e+00     1.6677      6.437      9.336     8.1540 0.0000e+00
      6.583      0.068     8.8691     75.178     38.392  25.458261     6.5784      6.636   326.1201 6.5082e+00     1.7036      6.457      9.365     8.1539 0.0000e+00
      6.602      0.068     8.8656     75.148     38.447  25.494993     6.6405      6.636   325.3241 6.4058e+00     1.7186      6.474      9.390     8.1538 0.0000e+00
      6.620      0.068     8.8632     75.127     38.467  25.507673     6.7465      6.636   323.8422 6.3088e+00     1.6956      6.492      9.416     8.1538 0.0000e+00
      6.637      0.068     8.8624     75.120     38.432  25.484593     6.8130      6.636   323.2600 6.2008e+00     1.6704      6.509      9.441     8.1537 0.0000e+00
      6.652      0.068     8.8638     75.132     38.410  25.469910     6.8379      6.636   323.6191 6.0788e+00     1.6884      6.522      9.460     8.1538 0.0000e+00
      6.669      0.068     8.8702     75.186     38.391  25.457127     6.8910      6.637   324.0533 5.9718e+00     1.6993      6.538      9.483     8.1538 0.0000e+00
      6.688      0.067     8.8768     75.243     38.391  25.457022     6.9684      6.637   324.6389 5.8697e+00     1.6800      6.559      9.513     8.1534 0.0000e+00
      6.706      0.066     8.8782     75.255     38.408  25.468641     7.0105      6.637   325.2794 5.7742e+00     1.6986      6.577      9.539     8.1529 0.0000e+00
      6.723      0.065     8.8799     75.269     38.411  25.470626     7.0136      6.636   325.0002 5.7081e+00     1.7417      6.593      9.562     8.1531 0.0000e+00
      6.739      0.063     8.8838     75.302     38.427  25.481016     6.9694      6.635   323.9304 5.6376e+00     1.8040      6.610      9.587     8.1533 0.0000e+00
      6.754      0.061     8.8840     75.303     38.407  25.467276     6.8810      6.635   323.3575 5.5664e+00     1.9022      6.624      9.607     8.1532 0.0000e+00
      6.768      0.060     8.8833     75.294     38.354  25.431491     6.8267      6.635   323.3218 5.5057e+00     1.9532      6.637      9.627     8.1533 0.0000e+00
      6.783      0.060     8.8830     75.289     38.352  25.429298     6.8273      6.635   323.4127 5.4310e+00     1.9325      6.651      9.646     8.1535 0.0000e+00
      6.798      0.060     8.8786     75.252     38.369  25.440756     6.8797      6.635   323.7679 5.3592e+00     1.8660      6.666      9.668     8.1537 0.0000e+00
      6.814      0.061     8.8756     75.229     38.372  25.443036     6.9729      6.636   324.2610 5.2883e+00     1.7900      6.682      9.692     8.1530 0.0000e+00
      6.830      0.063     8.8770     75.243     38.392  25.456868     7.0263      6.637   324.7290 5.2193e+00     1.7450      6.699      9.715     8.1510 0.0000e+00
      6.845      0.065     8.8779     75.248     38.430  25.481016     7.0193      6.636   325.0371 5.1623e+00     1.7190      6.713      9.736     8.1493 0.0000e+00
      6.861      0.066     8.8784     75.245     38.434  25.481026     6.9806      6.635   324.8897 5.0892e+00     1.7200      6.728      9.758     8.1499 0.0000e+00
      6.879      0.066     8.8786     75.242     38.401  25.456993     6.9255      6.633   324.5818 5.0037e+00     1.7267      6.746      9.784     8.1519 0.0000e+00
      6.897      0.065     8.8765     75.222     38.383  25.444400     6.8952      6.632   324.4983 4.9236e+00     1.7085      6.764      9.811     8.1533 0.0000e+00
      6.915      0.062     8.8737     75.197     38.401  25.455755     6.8902      6.632   324.4822 4.8484e+00     1.7139      6.782      9.837     8.1514 0.0000e+00
      6.931      0.059     8.8729     75.189     38.419  25.467290     6.8839      6.632   324.3870 4.7811e+00     1.7299      6.798      9.860     8.1466 0.0000e+00
      6.946      0.055     8.8718     75.179     38.404  25.456889     6.8918      6.631   324.4656 4.7247e+00     1.7198      6.812      9.880     8.1436 0.0000e+00
      6.957      0.053     8.8685     75.150     38.404  25.456982     6.9211      6.631   324.9158 4.6790e+00     1.7133      6.823      9.895     8.1431 0.0000e+00
      6.968      0.053     8.8650     75.121     38.421  25.468412     6.9443      6.631   325.3566 4.6265e+00     1.7122      6.833      9.910     8.1428 0.0000e+00
      6.980      0.054     8.8638     75.111     38.421  25.468109     6.9514      6.630   325.4935 4.5622e+00     1.7371      6.846      9.928     8.1424 0.0000e+00
      6.995      0.055     8.8656     75.126     38.398  25.453312     6.9249      6.630   325.3670 4.4939e+00     1.7702      6.860      9.950     8.1419 0.0000e+00
      7.011      0.058     8.8680     75.146     38.343  25.416495     6.8634      6.630   325.1170 4.4247e+00     1.7463      6.875      9.970     8.1413 0.0000e+00
      7.027      0.059     8.8700     75.162     38.325  25.403911     6.8226      6.630   325.1382 4.3606e+00     1.7224      6.891      9.995     8.1409 0.0000e+00
      7.042      0.058     8.8708     75.168     38.362  25.428143     6.8179      6.629   325.3649 4.2945e+00     1.7257      6.906     10.017     8.1413 0.0000e+00
      7.057      0.057     8.8691     75.153     38.404  25.455516     6.8247      6.629   325.7937 4.2238e+00     1.6947      6.920     10.036     8.1418 0.0000e+00
      7.072      0.055     8.8668     75.133     38.443  25.480903     6.8316      6.628   326.3638 4.1601e+00     1.6834      6.936     10.060     8.1416 0.0000e+00
      7.087      0.053     8.8657     75.123     38.443  25.481121     6.8367      6.627   326.4928 4.1157e+00     1.7119      6.951     10.082     8.1409 0.0000e+00
      7.098      0.052     8.8646     75.114     38.408  25.458147     6.8405      6.627   326.4073 4.0784e+00     1.7024      6.961     10.096     8.1402 0.0000e+00
      7.109      0.052     8.8628     75.099     38.407  25.457107     6.8962      6.628   326.3633 4.0268e+00     1.6605      6.972     10.111     8.1397 0.0000e+00
      7.122      0.053     8.8628     75.099     38.425  25.468538     7.0138      6.628   326.3045 3.9795e+00     1.6326      6.986     10.132     8.1395 0.0000e+00
      7.136      0.055     8.8646     75.114     38.426  25.469371     7.0853      6.628   326.3854 3.9319e+00     1.6401      6.998     10.150     8.1396 0.0000e+00
      7.150      0.059     8.8651     75.120     38.422  25.467176     7.0814      6.627   326.6534 3.8549e+00     1.6600      7.010     10.169     8.1396 0.0000e+00
      7.166      0.061     8.8644     75.115     38.383  25.441996     6.9764      6.627   326.8769 3.7796e+00     1.6888      7.027     10.192     8.1394 0.0000e+00
      7.183      0.063     8.8633     75.105     38.348  25.418900     6.7992      6.627   326.8503 3.7186e+00     1.7445      7.044     10.216     8.1392 0.0000e+00
      7.199      0.064     8.8629     75.100     38.383  25.441893     6.7126      6.627   326.7628 3.6543e+00     1.7535      7.059     10.238     8.1388 0.0000e+00
      7.217      0.066     8.8606     75.079     38.420  25.466030     6.7096      6.626   326.7654 3.5937e+00     1.7060      7.078     10.265     8.1397 0.0000e+00
      7.233      0.069     8.8577     75.054     38.407  25.456766     6.7168      6.624   326.8822 3.5399e+00     1.6898      7.094     10.289     8.1417 0.0000e+00
      7.248      0.072     8.8579     75.055     38.407  25.456869     6.7913      6.623   327.0557 3.4871e+00     1.6797      7.107     10.307     8.1416 0.0000e+00
      7.266      0.075     8.8577     75.054     38.423  25.467278     6.9109      6.621   327.1420 3.4176e+00     1.6748      7.123     10.332     8.1404 0.0000e+00
      7.287      0.077     8.8576     75.053     38.406  25.455631     6.9599      6.618   327.1511 3.3406e+00     1.6919      7.146     10.365     8.1395 0.0000e+00
      7.309      0.080     8.8588     75.063     38.387  25.443028     6.9514      6.616   327.1658 3.2736e+00     1.7033      7.168     10.397     8.1389 0.0000e+00
      7.331      0.083     8.8566     75.044     38.385  25.441893     6.9649      6.616   327.1488 3.2093e+00     1.7218      7.189     10.426     8.1386 0.0000e+00
      7.351      0.083     8.8508     74.995     38.385  25.441903     7.0031      6.615   327.0310 3.1488e+00     1.7313      7.211     10.457     8.1384 0.0000e+00
      7.371      0.081     8.8467     74.960     38.387  25.443143     7.0278      6.614   326.9468 3.0930e+00     1.7271      7.229     10.485     8.1384 0.0000e+00
      7.393      0.078     8.8432     74.931     38.408  25.456890     7.0340      6.613   327.1632 3.0467e+00     1.7012      7.249     10.514     8.1383 0.0000e+00
      7.415      0.075     8.8392     74.897     38.444  25.481132     7.0316      6.612   327.4959 3.0094e+00     1.6623      7.273     10.548     8.1380 0.0000e+00
      7.434      0.072     8.8381     74.888     38.445  25.482287     7.0265      6.611   327.6148 2.9645e+00     1.6534      7.291     10.574     8.1379 0.0000e+00
      7.451      0.069     8.8383     74.890     38.428  25.470848     7.0267      6.612   327.6539 2.9142e+00     1.6858      7.306     10.596     8.1382 0.0000e+00
      7.467      0.065     8.8381     74.888     38.427  25.469809     7.0158      6.612   327.6241 2.8769e+00     1.7188      7.322     10.620     8.1385 0.0000e+00
      7.483      0.061     8.8398     74.901     38.427  25.469724     6.9594      6.611   327.3406 2.8339e+00     1.7160      7.338     10.643     8.1387 0.0000e+00
      7.499      0.057     8.8433     74.931     38.428  25.469810     6.8777      6.610   326.9795 2.7733e+00     1.7134      7.355     10.667     8.1391 0.0000e+00
      7.513      0.054     8.8455     74.949     38.430  25.470849     6.8370      6.611   326.8718 2.7282e+00     1.7170      7.369     10.687     8.1390 0.0000e+00
      7.527      0.051     8.8455     74.949     38.447  25.482288     6.8350      6.613   327.4146 2.7111e+00     1.6995      7.382     10.706     8.1386 0.0000e+00
      7.538      0.049     8.8450     74.944     38.445  25.481133     6.8809      6.614   328.2944 2.7119e+00     1.6847      7.393     10.723     8.1382 0.0000e+00
      7.548      0.049     8.8443     74.938     38.408  25.456881     6.9691      6.614   328.6468 2.7022e+00     1.6907      7.401     10.735     8.1378 0.0000e+00
      7.560      0.050     8.8453     74.948     38.388  25.443030     7.0191      6.614   328.4065 2.6620e+00     1.7111      7.413     10.751     8.1377 0.0000e+00
      7.573      0.053     8.8476     74.968     38.384  25.440645     7.0258      6.614   327.9703 2.6170e+00     1.7169      7.426     10.771     8.1377 0.0000e+00
      7.587      0.056     8.8485     74.975     38.364  25.428052     7.0231      6.613   327.7605 2.5852e+00     1.7005      7.439     10.790     8.1376 0.0000e+00
      7.602      0.058     8.8489     74.979     38.349  25.417747     7.0042      6.612   327.7630 2.5531e+00     1.7570      7.455     10.813     8.1377 0.0000e+00
      7.618      0.060     8.8501     74.990     38.386  25.443038     6.9821      6.611   328.2584 2.5153e+00     1.8808      7.471     10.835     8.1379 0.0000e+00
      7.634      0.062     8.8511     75.000     38.441  25.479874     6.9760      6.611   329.1901 2.4668e+00     1.9464      7.485     10.856     8.1383 0.0000e+00
      7.650      0.064     8.8501     74.993     38.444  25.482164     6.9762      6.611   329.6497 2.4128e+00     1.9392      7.503     10.882     8.1384 0.0000e+00
      7.666      0.065     8.8490     74.984     38.426  25.470733     6.9662      6.611   329.6851 2.3770e+00     1.8542      7.518     10.904     8.1382 0.0000e+00
      7.681      0.066     8.8501     74.992     38.423  25.468653     6.9567      6.610   329.6184 2.3503e+00     1.7437      7.531     10.923     8.1383 0.0000e+00
      7.698      0.067     8.8521     75.008     38.407  25.457005     6.9619      6.610   329.6170 2.3099e+00     1.7312      7.549     10.949     8.1392 0.0000e+00
      7.718      0.069     8.8523     75.009     38.408  25.456891     6.9640      6.609   329.6694 2.2614e+00     1.7648      7.569     10.978     8.1406 0.0000e+00
      7.736      0.072     8.8507     74.994     38.424  25.467281     6.9739      6.608   329.5635 2.2270e+00     1.7537      7.587     11.004     8.1411 0.0000e+00
      7.751      0.076     8.8491     74.980     38.406  25.455632     6.9988      6.608   329.7126 2.2070e+00     1.7184      7.601     11.025     8.1401 0.0000e+00
      7.769      0.079     8.8486     74.975     38.387  25.443029     7.0160      6.607   330.2685 2.1697e+00     1.7049      7.616     11.046     8.1389 0.0000e+00
      7.791      0.081     8.8485     74.974     38.385  25.441892     7.0264      6.606   330.6922 2.1074e+00     1.7119      7.638     11.078     8.1382 0.0000e+00
      7.816      0.082     8.8471     74.963     38.385  25.441883     7.0504      6.605   330.7909 2.0499e+00     1.7114      7.665     11.118     8.1380 0.0000e+00
      7.839      0.082     8.8466     74.959     38.387  25.442914     7.0958      6.604   330.7742 2.0067e+00     1.6986      7.688     11.151     8.1380 0.0000e+00
      7.859      0.080     8.8482     74.974     38.404  25.454362     7.1243      6.604   330.4033 1.9649e+00     1.6800      7.707     11.178     8.1381 0.0000e+00
      7.879      0.077     8.8487     74.979     38.401  25.453311     7.1374      6.604   329.8338 1.9242e+00     1.7002      7.727     11.206     8.1379 0.0000e+00
      7.897      0.072     8.8472     74.968     38.366  25.430215     7.1446      6.603   329.8256 1.8943e+00     1.7289      7.745     11.233     8.1378 0.0000e+00
      7.914      0.068     8.8454     74.953     38.364  25.429071     7.1189      6.602   330.0461 1.8707e+00     1.6912      7.761     11.257     8.1380 0.0000e+00
      7.932      0.066     8.8449     74.949     38.380  25.439480     7.0934      6.601   330.0043 1.8472e+00     1.6727      7.779     11.283     8.1386 0.0000e+00
      7.949      0.063     8.8456     74.955     38.364  25.429082     7.0931      6.601   330.1804 1.8206e+00     1.7187      7.795     11.306     8.1395 0.0000e+00
      7.964      0.061     8.8463     74.961     38.365  25.430330     7.0976      6.601   330.7131 1.7853e+00     1.7284      7.810     11.327     8.1402 0.0000e+00
      7.979      0.060     8.8476     74.972     38.402  25.454571     7.1381      6.601   330.9388 1.7536e+00     1.6982      7.824     11.348     8.1404 0.0000e+00
      7.993      0.059     8.8504     74.994     38.423  25.468216     7.2157      6.600   330.1561 1.7284e+00     1.6887      7.839     11.369     8.1402 0.0000e+00
      8.008      0.059     8.8544     75.027     38.424  25.468311     7.2640      6.599   328.9925 1.7051e+00     1.7058      7.854     11.391     8.1401 0.0000e+00
      8.024      0.060     8.8578     75.054     38.406  25.455726     7.2723      6.599   328.6576 1.6818e+00     1.7215      7.869     11.413     8.1403 0.0000e+00
      8.039      0.060     8.8595     75.068     38.387  25.443038     7.1779      6.599   328.7744 1.6492e+00     1.6954      7.883     11.434     8.1407 0.0000e+00
      8.054      0.060     8.8610     75.082     38.385  25.441885     6.9951      6.598   329.1136 1.6172e+00     1.6645      7.899     11.456     8.1400 0.0000e+00
      8.070      0.059     8.8620     75.091     38.385  25.441780     6.8999      6.597   329.7481 1.6001e+00     1.6835      7.914     11.478     8.1391 0.0000e+00
      8.086      0.059     8.8623     75.094     38.384  25.441771     6.8995      6.597   330.0791 1.5869e+00     1.7111      7.929     11.500     8.1387 0.0000e+00
      8.101      0.059     8.8598     75.072     38.384  25.441780     6.9177      6.597   329.6738 1.5766e+00     1.7243      7.945     11.523     8.1384 0.0000e+00
      8.115      0.059     8.8558     75.038     38.385  25.441895     6.9365      6.596   328.8915 1.5673e+00     1.7203      7.959     11.543     8.1382 0.0000e+00
      8.129      0.059     8.8554     75.034     38.387  25.443153     6.9430      6.596   328.6223 1.5342e+00     1.6933      7.971     11.560     8.1385 0.0000e+00
      8.144      0.060     8.8552     75.033     38.408  25.456996     6.9588      6.596   328.8276 1.4939e+00     1.7042      7.986     11.582     8.1389 0.0000e+00
      8.160      0.061     8.8521     75.007     38.445  25.482279     7.0638      6.596   329.1376 1.4806e+00     1.7302      8.003     11.607     8.1388 0.0000e+00
      8.176      0.063     8.8484     74.976     38.464  25.494883     7.2382      6.596   329.3587 1.4675e+00     1.7021      8.018     11.629     8.1387 0.0000e+00
      8.191      0.064     8.8460     74.956     38.445  25.482393     7.3297      6.596   329.4355 1.4323e+00     1.6687      8.032     11.650     8.1385 0.0000e+00
      8.208      0.064     8.8446     74.944     38.409  25.458256     7.3337      6.595   329.5497 1.3996e+00     1.6932      8.048     11.673     8.1386 0.0000e+00
      8.226      0.065     8.8450     74.947     38.407  25.457006     7.3152      6.593   329.6217 1.3764e+00     1.7845      8.067     11.701     8.1390 0.0000e+00
      8.242      0.067     8.8452     74.949     38.423  25.467284     7.2890      6.593   329.6167 1.3588e+00     1.8877      8.083     11.724     8.1392 0.0000e+00
      8.258      0.069     8.8446     74.944     38.405  25.455540     7.2742      6.593   329.6620 1.3456e+00     1.9343      8.097     11.744     8.1392 0.0000e+00
      8.275      0.070     8.8462     74.958     38.384  25.441998     7.2742      6.592   329.8258 1.3299e+00     1.9204      8.114     11.769     8.1392 0.0000e+00
      8.295      0.070     8.8484     74.978     38.366  25.430539     7.2802      6.590   330.0487 1.3083e+00     1.9025      8.135     11.798     8.1391 0.0000e+00
      8.314      0.070     8.8495     74.988     38.386  25.443974     7.2822      6.590   330.0337 1.2839e+00     1.8712      8.154     11.827     8.1389 0.0000e+00
      8.332      0.070     8.8506     74.997     38.436  25.477453     7.2802      6.590   329.9878 1.2582e+00     1.7860      8.171     11.851     8.1392 0.0000e+00
      8.350      0.070     8.8511     75.002     38.401  25.454363     7.2744      6.590   330.1824 1.2289e+00     1.7269      8.188     11.876     8.1396 0.0000e+00
      8.367      0.069     8.8499     74.993     38.347  25.418777     7.2755      6.589   330.2359 1.2042e+00     1.7357      8.205     11.901     8.1401 0.0000e+00
      8.383      0.066     8.8494     74.989     38.361  25.428136     7.2944      6.589   330.2046 1.1906e+00     1.7704      8.220     11.922     8.1404 0.0000e+00
      8.402      0.064     8.8500     74.994     38.380  25.440541     7.3190      6.590   330.4921 1.1817e+00     1.7807      8.239     11.949     8.1406 0.0000e+00
      8.420      0.061     8.8508     75.002     38.381  25.441773     7.3343      6.590   330.9590 1.1653e+00     1.7379      8.260     11.979     8.1410 0.0000e+00
      8.435      0.058     8.8533     75.023     38.382  25.443030     7.3415      6.590   331.2034 1.1429e+00     1.7099      8.273     11.998     8.1413 0.0000e+00
      8.447      0.055     8.8568     75.053     38.401  25.455736     7.3143      6.589   330.6939 1.1259e+00     1.7480      8.283     12.014     8.1414 0.0000e+00
      8.460      0.053     8.8618     75.095     38.421  25.468426     7.2533      6.588   329.7029 1.1200e+00     1.7712      8.297     12.033     8.1415 0.0000e+00
      8.473      0.052     8.8673     75.141     38.423  25.469476     7.2102      6.588   329.2881 1.1059e+00     1.7471      8.309     12.051     8.1421 0.0000e+00
      8.486      0.054     8.8711     75.173     38.421  25.468428     7.1883      6.590   329.3786 1.0835e+00     1.7303      8.321     12.069     8.1425 0.0000e+00
      8.499      0.056     8.8727     75.186     38.402  25.455748     7.1449      6.591   329.7643 1.0735e+00     1.7207      8.335     12.088     8.1423 0.0000e+00
      8.513      0.057     8.8742     75.199     38.384  25.443154     7.0714      6.590   330.4242 1.0688e+00     1.6922      8.348     12.107     8.1420 0.0000e+00
      8.529      0.058     8.8767     75.221     38.384  25.443144     7.0254      6.588   330.7317 1.0603e+00     1.6605      8.363     12.130     8.1418 0.0000e+00
      8.546      0.060     8.8779     75.231     38.402  25.455623     7.0211      6.588   329.9544 1.0354e+00     1.6435      8.381     12.156     8.1415 0.0000e+00
      8.562      0.062     8.8742     75.199     38.419  25.467053     7.0291      6.588   328.5123 1.0150e+00     1.6997      8.397     12.180     8.1414 0.0000e+00
      8.575      0.064     8.8669     75.136     38.401  25.454363     7.0482      6.588   327.8363 1.0082e+00     1.8207      8.408     12.195     8.1412 0.0000e+00
      8.590      0.066     8.8598     75.076     38.363  25.429166     7.0683      6.587   327.8032 9.8794e-01     1.8860      8.424     12.216     8.1410 0.0000e+00
      8.608      0.068     8.8518     75.008     38.344  25.416372     7.0793      6.585   328.1118 9.6683e-01     1.9096      8.442     12.245     8.1417 0.0000e+00
      8.627      0.071     8.8439     74.941     38.360  25.426658     7.0884      6.583   328.9006 9.5004e-01     1.9226      8.459     12.269     8.1418 0.0000e+00
      8.646      0.074     8.8374     74.885     38.360  25.426544     7.1238      6.583   329.5113 9.3072e-01     1.8604      8.478     12.295     8.1409 0.0000e+00
      8.666      0.078     8.8320     74.839     38.342  25.414999     7.1861      6.582   329.6448 9.1184e-01     1.7670      8.499     12.326     8.1408 0.0000e+00
      8.684      0.081     8.8311     74.832     38.341  25.414054     7.2159      6.579   329.3100 8.8950e-01     1.7395      8.518     12.354     8.1411 0.0000e+00
      8.703      0.085     8.8331     74.849     38.343  25.415114     7.2085      6.577   328.8185 8.7052e-01     1.7115      8.534     12.375     8.1409 0.0000e+00
      8.725      0.087     8.8336     74.852     38.362  25.427814     7.2070      6.576   328.6067 8.5475e-01     1.6728      8.554     12.406     8.1403 0.0000e+00
      8.752      0.089     8.8354     74.867     38.382  25.440615     7.2170      6.574   328.6413 8.4283e-01     1.6987      8.583     12.449     8.1401 0.0000e+00
      8.777      0.090     8.8409     74.913     38.386  25.442915     7.2182      6.572   328.7218 8.3458e-01     1.7202      8.607     12.484     8.1403 0.0000e+00
      8.799      0.089     8.8439     74.939     38.405  25.455614     7.2032      6.572   329.3212 8.2358e-01     1.6877      8.627     12.513     8.1400 0.0000e+00
      8.821      0.085     8.8442     74.942     38.422  25.467178     7.1651      6.572   330.4685 8.1078e-01     1.7334      8.649     12.545     8.1394 0.0000e+00
      8.843      0.080     8.8468     74.964     38.404  25.455739     7.1057      6.573   330.7200 7.9489e-01     1.8755      8.673     12.579     8.1392 0.0000e+00
      8.864      0.076     8.8497     74.988     38.387  25.444290     7.0738      6.573   330.0390 7.7502e-01     1.9417      8.694     12.609     8.1392 0.0000e+00
      8.882      0.073     8.8521     75.007     38.405  25.455738     7.0728      6.573   329.5483 7.4973e-01     1.9228      8.710     12.634     8.1394 0.0000e+00
      8.899      0.071     8.8551     75.032     38.423  25.467178     7.0758      6.573   329.3464 7.4001e-01     1.9222      8.727     12.657     8.1400 0.0000e+00
      8.915      0.071     8.8561     75.042     38.405  25.455623     7.0823      6.573   329.3185 7.4669e-01     1.9647      8.743     12.680     8.1400 0.0000e+00
      8.931      0.072     8.8569     75.049     38.386  25.443010     7.0878      6.573   329.4699 7.3794e-01     1.9790      8.758     12.703     8.1393 0.0000e+00
      8.950      0.074     8.8575     75.055     38.383  25.441657     7.0954      6.573   330.2299 7.1803e-01     1.9425      8.776     12.728     8.1387 0.0000e+00
      8.970      0.075     8.8531     75.018     38.379  25.439263     7.1008      6.573   331.2799 7.0028e-01     1.9196      8.796     12.757     8.1386 0.0000e+00
      8.991      0.075     8.8446     74.947     38.341  25.414066     7.1078      6.573   331.4971 6.8409e-01     1.9160      8.818     12.790     8.1391 0.0000e+00
      9.012      0.072     8.8372     74.884     38.306  25.390978     7.1336      6.573   331.3075 6.7068e-01     1.9299      8.839     12.819     8.1396 0.0000e+00
      9.031      0.067     8.8328     74.847     38.340  25.414076     7.1553      6.573   331.2247 6.6468e-01     1.9354      8.858     12.846     8.1397 0.0000e+00
      9.048      0.061     8.8322     74.841     38.378  25.439367     7.1493      6.573   331.0118 6.6509e-01     1.8902      8.875     12.872     8.1402 0.0000e+00
      9.063      0.055     8.8332     74.850     38.383  25.442801     7.1262      6.573   330.8841 6.5736e-01     1.8105      8.888     12.892     8.1406 0.0000e+00
      9.074      0.053     8.8357     74.870     38.403  25.455603     7.1047      6.574   331.0581 6.4628e-01     1.7350      8.899     12.908     8.1407 0.0000e+00
      9.084      0.054     8.8427     74.930     38.421  25.467166     7.0924      6.575   331.3078 6.4433e-01     1.7104      8.909     12.922     8.1408 0.0000e+00
      9.095      0.058     8.8528     75.015     38.404  25.455624     7.0785      6.574   331.4946 6.4392e-01     1.6962      8.919     12.935     8.1408 0.0000e+00
      9.108      0.063     8.8610     75.084     38.385  25.443031     7.1111      6.573   331.5954 6.3992e-01     1.6847      8.931     12.953     8.1406 0.0000e+00
      9.127      0.068     8.8670     75.135     38.383  25.441896     7.2112      6.572   331.4946 6.3052e-01     1.7238      8.950     12.981     8.1403 0.0000e+00
      9.149      0.071     8.8722     75.179     38.383  25.441896     7.2776      6.571   331.3940 6.1580e-01     1.7418      8.973     13.015     8.1401 0.0000e+00
      9.171      0.071     8.8735     75.190     38.385  25.443032     7.2713      6.570   331.4119 6.0011e-01     1.7190      8.995     13.045     8.1399 0.0000e+00
      9.191      0.066     8.8709     75.167     38.405  25.455625     7.1535      6.571   331.3673 5.9719e-01     1.6923      9.014     13.074     8.1398 0.0000e+00
      9.208      0.059     8.8674     75.137     38.422  25.467169     6.9465      6.572   331.1979 5.9845e-01     1.6634      9.032     13.100     8.1399 0.0000e+00
      9.222      0.055     8.8642     75.111     38.405  25.455625     6.8450      6.572   331.0847 5.8009e-01     1.6751      9.046     13.119     8.1397 0.0000e+00
      9.231      0.055     8.8622     75.094     38.386  25.443032     6.8547      6.571   331.0312 5.6209e-01     1.7119      9.054     13.132     8.1395 0.0000e+00
      9.238      0.057     8.8613     75.086     38.384  25.441887     6.9255      6.569   330.8953 5.5247e-01     1.7729      9.058     13.139     8.1394 0.0000e+00
      9.250      0.062     8.8598     75.073     38.384  25.441782     7.0580      6.567   330.8177 5.3266e-01     1.8934      9.066     13.149     8.1394 0.0000e+00
      9.270      0.067     8.8599     75.074     38.384  25.441763     7.1338      6.567   330.7821 5.1476e-01     1.9483      9.089     13.183     8.1395 0.0000e+00
      9.295      0.072     8.8633     75.103     38.384  25.441668     7.1429      6.566   331.0666 5.0906e-01     1.9175      9.118     13.224     8.1396 0.0000e+00
      9.316      0.074     8.8656     75.123     38.382  25.440628     7.1321      6.566   331.6764 5.0109e-01     1.9175      9.138     13.252     8.1395 0.0000e+00
      9.333      0.072     8.8663     75.128     38.365  25.429190     7.0771      6.566   331.7884 4.9758e-01     1.8878      9.152     13.274     8.1396 0.0000e+00
      9.351      0.068     8.8661     75.126     38.367  25.430354     7.0012      6.568   331.3029 5.0144e-01     1.8025      9.170     13.301     8.1395 0.0000e+00
      9.368      0.065     8.8636     75.105     38.404  25.454699     6.9676      6.568   330.7100 4.9822e-01     1.7714      9.188     13.325     8.1394 0.0000e+00
      9.382      0.065     8.8596     75.071     38.426  25.469582     6.9736      6.568   330.4709 4.9268e-01     1.7555      9.200     13.344     8.1394 0.0000e+00
      9.397      0.066     8.8544     75.027     38.447  25.483311     7.0195      6.567   330.3908 4.9083e-01     1.7020      9.214     13.365     8.1394 0.0000e+00
      9.414      0.068     8.8483     74.975     38.463  25.493710     7.0990      6.567   331.1168 4.9055e-01     1.6731      9.231     13.389     8.1393 0.0000e+00
      9.432      0.071     8.8450     74.947     38.424  25.468325     7.1447      6.567   332.7962 4.8305e-01     1.6814      9.250     13.416     8.1393 0.0000e+00
      9.451      0.075     8.8463     74.958     38.367  25.430355     7.1583      6.566   333.6610 4.6889e-01     1.7105      9.267     13.441     8.1389 0.0000e+00
      9.471      0.077     8.8508     74.996     38.345  25.415576     7.2182      6.566   333.6573 4.5974e-01     1.7192      9.287     13.470     8.1389 0.0000e+00
      9.492      0.078     8.8570     75.049     38.346  25.416626     7.3267      6.567   333.1809 4.5150e-01     1.6947      9.308     13.500     8.1391 0.0000e+00
      9.513      0.078     8.8618     75.089     38.386  25.443043     7.3943      6.567   332.2036 4.4369e-01     1.6892      9.328     13.530     8.1391 0.0000e+00
      9.533      0.078     8.8642     75.109     38.444  25.481013     7.4114      6.566   331.3056 4.4218e-01     1.7142      9.348     13.559     8.1389 0.0000e+00
      9.552      0.078     8.8655     75.119     38.465  25.494763     7.3674      6.565   331.7006 4.4256e-01     1.7225      9.368     13.587     8.1387 0.0000e+00
      9.570      0.078     8.8632     75.100     38.446  25.482296     7.2669      6.563   333.4522 4.3990e-01     1.6985      9.386     13.613     8.1387 0.0000e+00
      9.589      0.078     8.8581     75.057     38.408  25.457260     7.2064      6.563   334.5878 4.3036e-01     1.6989      9.402     13.637     8.1387 0.0000e+00
      9.610      0.077     8.8537     75.020     38.391  25.446032     7.2059      6.563   334.7619 4.2239e-01     1.7272      9.423     13.667     8.1386 0.0000e+00
      9.632      0.077     8.8504     74.992     38.433  25.473518     7.2799      6.563   334.5257 4.2465e-01     1.7659      9.448     13.702     8.1385 0.0000e+00
      9.652      0.076     8.8495     74.984     38.528  25.535627     7.4025      6.563   333.8823 4.1800e-01     1.8615      9.466     13.730     8.1384 0.0000e+00
      9.670      0.073     8.8496     74.982     38.569  25.562055     7.4560      6.563   333.0914 3.9163e-01     1.9371      9.482     13.753     8.1384 0.0000e+00
      9.688      0.067     8.8486     74.971     38.536  25.539080     7.4588      6.563   332.6207 3.7407e-01     1.9165      9.502     13.780     8.1384 0.0000e+00
      9.707      0.059     8.8494     74.976     38.495  25.511813     7.4543      6.563   332.9240 3.7622e-01     1.8874      9.521     13.809     8.1385 0.0000e+00
      9.723      0.051     8.8499     74.981     38.456  25.486342     7.3098      6.563   333.4032 3.7672e-01     1.8908      9.537     13.833     8.1382 0.0000e+00
      9.735      0.044     8.8449     74.942     38.453  25.485086     7.0445      6.564   333.5104 3.6356e-01     1.8956      9.548     13.848     8.1367 0.0000e+00
      9.743      0.036     8.8328     74.840     38.469  25.496630     6.8936      6.566   333.6172 3.4881e-01     1.8844      9.555     13.858     8.1347 0.0000e+00
      9.749      0.030     8.8134     74.677     38.472  25.498927     6.8542      6.566   333.8337 3.5173e-01     1.8782      9.560     13.867     8.1341 0.0000e+00
      9.755      0.026     8.7945     74.519     38.492  25.512866     6.5868      6.566   333.8049 3.5564e-01     1.8502      9.566     13.875     8.1353 0.0000e+00
      9.761      0.022     8.7799     74.395     38.530  25.538167     6.0957      6.567   332.7533 3.4551e-01     1.7602      9.572     13.883     8.1367 0.0000e+00
      9.767      0.020     8.7628     74.249     38.550  25.550876     5.8327      6.568   331.1858 3.3260e-01     1.6755      9.578     13.892     8.1371 0.0000e+00
      9.773      0.017     8.7486     74.127     38.534  25.539542     5.8247      6.569   330.6828 3.2330e-01     1.6804      9.585     13.902     8.1377 0.0000e+00
      9.777      0.014     8.7444     74.088     38.519  25.528112     5.9897      6.570   330.8884 3.2293e-01     1.7892      9.590     13.907     8.1389 0.0000e+00
      9.780      0.010     8.7457     74.098     38.537  25.539667     6.2934      6.571   331.4346 3.2384e-01     1.8913      9.592     13.910     8.1392 0.0000e+00
      9.781      0.007     8.7483     74.120     38.556  25.552261     6.4546      6.572   332.2102 3.2055e-01     1.9086      9.592     13.912     8.1382 0.0000e+00
      9.782      0.005     8.7520     74.153     38.557  25.553405     6.4677      6.573   331.4899 3.1883e-01     1.9069      9.593     13.913     8.1367 0.0000e+00
      9.783      0.003     8.7542     74.172     38.556  25.553499     6.5262      6.574   329.5229 3.2324e-01     1.8701      9.593     13.914     8.1354 0.0000e+00
      9.784      0.002     8.7536     74.167     38.556  25.553394     6.6372      6.575   328.5605 3.2957e-01     1.7687      9.594     13.916     8.1345 0.0000e+00
      9.784      0.002     8.7512     74.148     38.553  25.552137     6.6890      6.575   328.6296 3.3076e-01     1.6877      9.595     13.917     8.1343 0.0000e+00
      9.785      0.002     8.7450     74.098     38.531  25.538294     6.6935      6.575   329.1532 3.3065e-01     1.6543      9.596     13.917     8.1353 0.0000e+00
      9.785      0.001     8.7350     74.017     38.490  25.513011     6.7188      6.576   329.9880 3.2680e-01     1.6703      9.596     13.918     8.1362 0.0000e+00
      9.785      0.001     8.7294     73.972     38.470  25.500417     6.7368      6.576   330.3773 3.2921e-01     1.6968      9.596     13.918     8.1360 0.0000e+00
      9.786 -9.990e-29 -9.990e-29 -9.990e-29 -9.990e-29 -9.990e-29 -9.990e-29 -9.990e-29 -9.990e-29 3.3898e-01 -9.990e-29      9.597     13.919     8.1368 0.0000e+00
      9.786 -9.990e-29 -9.990e-29 -9.990e-29 -9.990e-29 -9.990e-29 -9.990e-29 -9.990e-29 -9.990e-29 3.3365e-01 -9.990e-29      9.597     13.919     8.1375 0.0000e+00
      9.786 -9.990e-29 -9.990e-29 -9.990e-29 -9.990e-29 -9.990e-29 -9.990e-29 -9.990e-29 -9.990e-29 3.1649e-01 -9.990e-29      9.597     13.919     8.1404 0.0000e+00
      9.786 -9.990e-29 -9.990e-29 -9.990e-29 -9.990e-29 -9.990e-29 -9.990e-29 -9.990e-29 -9.990e-29 3.0785e-01 -9.990e-29      9.597     13.919     8.1435 0.0000e+00
