* Sea-Bird SBE19plus  Data File:
* FileName = C:\DATA\fcr.hex
* Software version 2.6.3.104 SB_Terminal.dll
* Temperature SN = 7809
* Conductivity SN = 7809
* System UpLoad Time = May 04 2018 16:34:00
* <ApplicationData>
* <Seaterm232>
* <SoftwareVersion>2.6.3.104</SoftwareVersion>
* <BuildDate>30-Jun-2017</BuildDate>
* </Seaterm232>
* </ApplicationData>
* cast  14 04 May 2018 17:50:57 samples 14159 to 15186, avg = 1, stop = mag switch
# nquan = 15
# nvalues = 897                         
# units = specified
# name 0 = depFM: Depth [fresh water, m]
# name 1 = dz/dtM: Descent Rate [m/s]
# name 2 = sbeox0Mg/L: Oxygen, SBE 43 [mg/l]
# name 3 = sbeox0PS: Oxygen, SBE 43 [% saturation]
# name 4 = specc: Specific Conductance [uS/cm]
# name 5 = c0uS/cm: Conductivity [uS/cm]
# name 6 = flECO-AFL: Fluorescence, WET Labs ECO-AFL/FL [mg/m^3]
# name 7 = ph: pH
# name 8 = orp: Oxidation Reduction Potential [mV]
# name 9 = par/sat/log: PAR/Logarithmic, Satlantic
# name 10 = turbWETntu0: Turbidity, WET Labs ECO [NTU]
# name 11 = prdM: Pressure, Strain Gauge [db]
# name 12 = prdE: Pressure, Strain Gauge [psi]
# name 13 = tv290C: Temperature [ITS-90, deg C]
# name 14 = flag:  0.000e+00
# span 0 =     -0.561,      9.765       
# span 1 =     -0.009,      3.857       
# span 2 =     5.8295,     9.9096       
# span 3 =     64.692,    108.822       
# span 4 =      0.695,     39.244       
# span 5 =   0.765040,  33.722684       
# span 6 =    -0.7499,     5.3392       
# span 7 =      4.719,      7.614       
# span 8 = -1240.7451,  1234.7598       
# span 9 = 9.2193e-01, 2.3556e+03       
# span 10 =    -1.7809,    62.2613      
# span 11 =     -0.551,      9.576      
# span 12 =     -0.798,     13.889      
# span 13 =     8.5205,    30.1382      
# span 14 = 0.0000e+00, 0.0000e+00      
# interval = seconds: 0.25
# start_time = May 04 2018 17:50:57 [Instrument's time stamp, header]
# bad_flag = -9.990e-29
# <Sensors count="9" >
#   <sensor Channel="1" >
#     <!-- Count, Temperature -->
#     <TemperatureSensor SensorID="58" >
#       <SerialNumber>7809</SerialNumber>
#       <CalibrationDate>09-Mar-18</CalibrationDate>
#       <A0>1.21093245e-003</A0>
#       <A1>2.84356597e-004</A1>
#       <A2>-1.94507398e-006</A2>
#       <A3>2.12806664e-007</A3>
#       <Slope>1.00000000</Slope>
#       <Offset>0.0000</Offset>
#     </TemperatureSensor>
#   </sensor>
#   <sensor Channel="2" >
#     <!-- Frequency 0, Conductivity -->
#     <ConductivitySensor SensorID="3" >
#       <SerialNumber>7809</SerialNumber>
#       <CalibrationDate>09-Mar-18</CalibrationDate>
#       <UseG_J>1</UseG_J>
#       <!-- Cell const and series R are applicable only for wide range sensors. -->
#       <SeriesR>0.0000</SeriesR>
#       <CellConst>2000.0000</CellConst>
#       <ConductivityType>0</ConductivityType>
#       <Coefficients equation="0" >
#         <A>0.00000000e+000</A>
#         <B>0.00000000e+000</B>
#         <C>0.00000000e+000</C>
#         <D>0.00000000e+000</D>
#         <M>0.0</M>
#         <CPcor>-9.57000000e-008</CPcor>
#       </Coefficients>
#       <Coefficients equation="1" >
#         <G>-1.00672082e+000</G>
#         <H>1.26906489e-001</H>
#         <I>-1.40584351e-004</I>
#         <J>2.47837121e-005</J>
#         <CPcor>-9.57000000e-008</CPcor>
#         <CTcor>3.2500e-006</CTcor>
#         <!-- WBOTC not applicable unless ConductivityType = 1. -->
#         <WBOTC>0.00000000e+000</WBOTC>
#       </Coefficients>
#       <Slope>1.00000000</Slope>
#       <Offset>0.00000</Offset>
#     </ConductivitySensor>
#   </sensor>
#   <sensor Channel="3" >
#     <!-- Count, Pressure, Strain Gauge -->
#     <PressureSensor SensorID="46" >
#       <SerialNumber>7809</SerialNumber>
#       <CalibrationDate>07-Mar-18</CalibrationDate>
#       <PA0>-4.08176359e-002</PA0>
#       <PA1>4.85188419e-004</PA1>
#       <PA2>-3.51168169e-012</PA2>
#       <PTEMPA0>-5.37806900e+001</PTEMPA0>
#       <PTEMPA1>5.36620721e+001</PTEMPA1>
#       <PTEMPA2>4.87214332e-002</PTEMPA2>
#       <PTCA0>5.25213435e+005</PTCA0>
#       <PTCA1>1.79532409e+000</PTCA1>
#       <PTCA2>-2.84353509e-001</PTCA2>
#       <PTCB0>2.51668750e+001</PTCB0>
#       <PTCB1>3.75000000e-004</PTCB1>
#       <PTCB2>0.00000000e+000</PTCB2>
#       <Offset>0.000000</Offset>
#     </PressureSensor>
#   </sensor>
#   <sensor Channel="4" >
#     <!-- A/D voltage 0, pH -->
#     <pH_Sensor SensorID="43" >
#       <SerialNumber>0363</SerialNumber>
#       <CalibrationDate>16-Mar-18</CalibrationDate>
#       <Slope>4.6194</Slope>
#       <Offset>2.5947</Offset>
#     </pH_Sensor>
#   </sensor>
#   <sensor Channel="5" >
#     <!-- A/D voltage 1, Oxidation Reduction Potential -->
#     <OxidationReductionPotentialSensor SensorID="41" >
#       <SerialNumber>0363</SerialNumber>
#       <CalibrationDate>16-Mar-18</CalibrationDate>
#       <B>2.499480</B>
#       <M>-0.496195</M>
#       <Offset>0.0</Offset>
#     </OxidationReductionPotentialSensor>
#   </sensor>
#   <sensor Channel="6" >
#     <!-- A/D voltage 2, Oxygen, SBE 43 -->
#     <OxygenSensor SensorID="38" >
#       <SerialNumber>0434</SerialNumber>
#       <CalibrationDate>13-Mar-18</CalibrationDate>
#       <Use2007Equation>1</Use2007Equation>
#       <CalibrationCoefficients equation="0" >
#         <!-- Coefficients for Owens-Millard equation. -->
#         <Boc>0.0000</Boc>
#         <Soc>0.0000e+000</Soc>
#         <offset>0.0000</offset>
#         <Pcor>0.00e+000</Pcor>
#         <Tcor>0.0000</Tcor>
#         <Tau>0.0</Tau>
#       </CalibrationCoefficients>
#       <CalibrationCoefficients equation="1" >
#         <!-- Coefficients for Sea-Bird equation - SBE calibration in 2007 and later. -->
#         <Soc>4.5718e-001</Soc>
#         <offset>-0.6113</offset>
#         <A>-4.0649e-003</A>
#         <B> 2.0945e-004</B>
#         <C>-3.3182e-006</C>
#         <D0> 2.5826e+000</D0>
#         <D1> 1.92634e-004</D1>
#         <D2>-4.64803e-002</D2>
#         <E> 3.6000e-002</E>
#         <Tau20> 1.2200</Tau20>
#         <H1>-3.3000e-002</H1>
#         <H2> 5.0000e+003</H2>
#         <H3> 1.4500e+003</H3>
#       </CalibrationCoefficients>
#     </OxygenSensor>
#   </sensor>
#   <sensor Channel="7" >
#     <!-- A/D voltage 3, PAR/Logarithmic, Satlantic -->
#     <PARLog_SatlanticSensor SensorID="76" >
#       <SerialNumber>1122</SerialNumber>
#       <CalibrationDate>22-Jun-2017</CalibrationDate>
#       <a0>9.6090e-001</a0>
#       <a1>8.0780e-001</a1>
#       <Im>1.3589e+000</Im>
#       <Multiplier>1.0000e+000</Multiplier>
#     </PARLog_SatlanticSensor>
#   </sensor>
#   <sensor Channel="8" >
#     <!-- A/D voltage 4, Fluorometer, WET Labs ECO-AFL/FL -->
#     <FluoroWetlabECO_AFL_FL_Sensor SensorID="20" >
#       <SerialNumber>FLNTURT-2496</SerialNumber>
#       <CalibrationDate>25-Jan-2017</CalibrationDate>
#       <ScaleFactor>5.30000000e+001</ScaleFactor>
#       <!-- Dark output -->
#       <Vblank>0.0560</Vblank>
#     </FluoroWetlabECO_AFL_FL_Sensor>
#   </sensor>
#   <sensor Channel="9" >
#     <!-- A/D voltage 5, Turbidity Meter, WET Labs, ECO-NTU -->
#     <TurbidityMeter SensorID="67" >
#       <SerialNumber>FLNTURT-2496</SerialNumber>
#       <CalibrationDate>25-Jan-2017</CalibrationDate>
#       <ScaleFactor>176.000000</ScaleFactor>
#       <!-- Dark output -->
#       <DarkVoltage>0.072000</DarkVoltage>
#     </TurbidityMeter>
#   </sensor>
# </Sensors>
# datcnv_date = May 08 2018 08:16:34, 7.26.7.114 [datcnv_vars = 14]
# datcnv_in = C:\DATA\050418_fcr50.hex C:\DATA\SBE19plusV2_7809.xmlcon
# datcnv_skipover = 0
# datcnv_ox_hysteresis_correction = yes
# datcnv_ox_tau_correction = yes
# filter_date = May 08 2018 08:16:56, 7.26.7.114
# filter_in = C:\DATA\050418_fcr50.cnv
# filter_low_pass_tc_A = 0.030
# filter_low_pass_tc_B = 0.150
# filter_low_pass_A_vars = prdM prdE tv290C
# filter_low_pass_B_vars = depFM dz/dtM sbeox0Mg/L sbeox0PS specc c0uS/cm flECO-AFL ph orp par/sat/log turbWETntu0
# alignctd_date = May 08 2018 08:17:15, 7.26.7.114
# alignctd_in = C:\DATA\050418_fcr50.cnv
# alignctd_adv = dz/dtM 1.000, sbeox0Mg/L 1.000, sbeox0PS 1.000, specc 1.000, c0uS/cm 1.000, flECO-AFL 1.000, ph 1.000, orp 1.000, turbWETntu0 1.000                                                                                 
# file_type = ascii
*END*
     -0.561 4.3139e-20     7.3340     97.261      0.717   0.790579    -0.1740      6.146 -1178.6311 9.8512e+02    -0.6904     -0.550     -0.798    30.1382 0.0000e+00
     -0.561 3.9217e-21     7.3373     97.302      0.715   0.788859    -0.1694      6.146  -564.0615 1.2694e+03    -0.7012     -0.549     -0.796    30.1380 0.0000e+00
     -0.561 3.5652e-22     7.3429     97.368      0.717   0.790404    -0.1706      6.128   563.6012 1.4346e+03    -0.7138     -0.550     -0.797    30.1376 0.0000e+00
     -0.561 3.2414e-23     7.3540     97.501      0.734   0.809254    -0.2241      6.094  1178.6772 1.6440e+03    -1.0259     -0.550     -0.797    30.1373 0.0000e+00
     -0.561 2.9799e-24     7.3739     97.733      0.750   0.826547    -0.3106      6.079  1234.1865 2.0150e+03    -1.5458     -0.549     -0.797    30.1370 0.0000e+00
     -0.561 6.3641e-25     7.4033     98.073      0.734   0.809252    -0.3535      6.117  1234.7598 2.2120e+03    -1.7809     -0.550     -0.798    30.1365 0.0000e+00
     -0.561 4.0785e-24     7.4386     98.478      0.718   0.790386    -0.3563      6.181  1185.6082 2.2069e+03    -1.7014     -0.551     -0.798    30.1320 0.0000e+00
     -0.561 4.4598e-23     7.4734     98.878      0.717   0.788671    -0.3267      6.215  1053.2319 2.1729e+03    -0.9196     -0.550     -0.798    30.1243 0.0000e+00
     -0.561 4.9055e-22     7.5045     99.234      0.717   0.788516    -0.2710      6.215   871.4544 2.1501e+03     0.4692     -0.550     -0.797    30.1083 0.0000e+00
     -0.561 5.3960e-21     7.5304     99.534      0.718   0.788502    -0.2438      6.208   679.7996 2.1483e+03     1.2045     -0.550     -0.798    30.0746 0.0000e+00
     -0.560 5.9356e-20     7.5485     99.746      0.718   0.788507    -0.2367      6.202   483.7507 1.9210e+03     1.1951     -0.550     -0.797    30.0358 0.0000e+00
     -0.560 6.5292e-19     7.5565     99.841      0.718   0.788573    -0.2126      6.200   295.9953 1.2831e+03     0.7831     -0.550     -0.797    30.0004 0.0000e+00
     -0.560 7.1821e-18     7.5555     99.829      0.719   0.789302    -0.1816      6.201   125.7186 8.3294e+02     0.1295     -0.550     -0.797    29.9662 0.0000e+00
     -0.560 7.9003e-17     7.5482     99.741      0.726   0.797320    -0.1746      6.204   -49.9179 1.1090e+03    -0.2065     -0.550     -0.797    29.9398 0.0000e+00
     -0.561 8.6904e-16     7.5369     99.605      0.748   0.822105    -0.1838      6.206  -238.0361 1.7205e+03    -0.2590     -0.550     -0.798    29.9253 0.0000e+00
     -0.561 9.5594e-15     7.5240     99.445      0.760   0.835340    -0.1832      6.210  -424.7475 2.1430e+03    -0.2601     -0.550     -0.798    29.9198 0.0000e+00
     -0.561 1.0515e-13     7.5113     99.286      0.756   0.830520    -0.1754      6.215  -613.4887 2.2860e+03    -0.2515     -0.550     -0.798    29.9206 0.0000e+00
     -0.560 1.1567e-12     7.5005     99.150      0.753   0.827233    -0.1724      6.221  -804.9828 2.2519e+03    -0.2768     -0.549     -0.797    29.9269 0.0000e+00
     -0.560 1.2724e-11     7.4922     99.048      0.724   0.795595    -0.1745      6.228  -989.5313 1.7934e+03    -0.2906     -0.549     -0.796    29.9352 0.0000e+00
     -0.560 1.3996e-10     7.4863     98.978      0.695   0.765040    -0.1637      6.233 -1139.3790 9.2497e+02    -0.2656     -0.549     -0.796    29.9421 0.0000e+00
     -0.560 1.5396e-09     7.4830     98.942      0.705   0.774854    -0.1532      6.235 -1218.4681 3.4837e+02    -0.2500     -0.550     -0.797    29.9469 0.0000e+00
     -0.560 1.6935e-08     7.4823     98.939      0.716   0.787429    -0.1662      6.238 -1238.7203 1.9942e+02    -0.2847     -0.549     -0.797    29.9514 0.0000e+00
     -0.560 1.8629e-07     7.4833     98.959      0.719   0.790273    -0.1827      6.241 -1240.5614 1.6577e+02    -0.3194     -0.549     -0.796    29.9562 0.0000e+00
     -0.560 1.8639e-07     7.4836     98.968      0.736   0.809241    -0.1778      6.244 -1240.7288 1.6190e+02    -0.3036     -0.549     -0.797    29.9603 0.0000e+00
     -0.560 1.8220e-08     7.4824     98.958      0.752   0.826536    -0.1632      6.247 -1240.7440 1.7097e+02    -0.2769     -0.550     -0.798    29.9641 0.0000e+00
     -0.560 1.5686e-08     7.4819     98.954      0.736   0.809145    -0.1626      6.250 -1240.7451 1.7918e+02    -0.3016     -0.549     -0.797    29.9676 0.0000e+00
     -0.560 1.5575e-07     7.4831     98.974      0.717   0.789203    -0.1699      6.252 -1240.7431 1.6998e+02    -0.3271     -0.549     -0.797    29.9718 0.0000e+00
     -0.560      0.000     7.4855     99.009      0.705   0.775657    -0.1692      6.252 -1240.7187 1.6252e+02    -0.2492     -0.549     -0.797    29.9746 0.0000e+00
     -0.560      0.000     7.4885     99.050      0.702   0.772182    -0.1170      6.245 -1240.4509 1.6665e+02     0.1829     -0.550     -0.797    29.9783 0.0000e+00
     -0.560      0.000     7.4929     99.102      0.737   0.810596    -0.0256      6.170 -1237.5045 1.7703e+02     0.8679     -0.550     -0.797    29.9793 0.0000e+00
     -0.560      0.002     7.5026     99.171      0.784   0.859650     0.0174      5.492 -1205.0949 1.9010e+02     1.2282     -0.549     -0.797    29.9846 0.0000e+00
     -0.560      0.010     7.5546     99.272      1.158   1.238459     0.0077      4.719  -848.5894 2.0045e+02     1.3047     -0.548     -0.795    29.9818 0.0000e+00
     -0.560      0.026     7.7094     99.409      5.389   5.580972    -0.1801      5.098    40.5193 2.0759e+02     1.7616     -0.549     -0.796    29.9885 0.0000e+00
     -0.559      0.047     7.9491     99.554     16.462  16.761613    -0.5445      5.878   874.0067 2.1540e+02     2.5714     -0.549     -0.797    29.9779 0.0000e+00
     -0.552      0.071     8.1784     99.659     28.129  28.171360    -0.7499      6.352   984.3228 2.5684e+02     3.0091     -0.549     -0.795    29.9965 0.0000e+00
     -0.528      0.093     8.3490     99.715     33.542  33.031040    -0.7428      6.850   635.4368 6.6789e+02     3.0248     -0.523     -0.759    29.9435 0.0000e+00
     -0.490      0.110     8.4710     99.755     34.632  33.614585    -0.5040      7.276   425.0359 1.5073e+03     2.3646     -0.480     -0.696    28.8303 0.0000e+00
     -0.450      0.123     8.5596     99.782     34.776  33.384356    -0.0870      7.520   399.7554 2.1076e+03     1.0996     -0.440     -0.639    26.7960 0.0000e+00
     -0.413      0.128     8.6351     99.782     34.753  33.041512     0.1365      7.614   399.1204 2.2600e+03     0.4263     -0.403     -0.585    25.2107 0.0000e+00
     -0.383      0.125     8.7147     99.766     34.759  32.708084     0.1668      7.592   403.3340 2.2864e+03     0.5104     -0.375     -0.544    24.1868 0.0000e+00
     -0.357      0.116     8.7985     99.748     34.875  32.464602     0.1883      7.489   404.7568 2.3039e+03     1.9637     -0.352     -0.512    23.4462 0.0000e+00
     -0.327      0.107     8.8753     99.733     35.132  32.383556     0.2952      7.360   402.6432 2.3190e+03    17.7232     -0.323     -0.468    22.9712 0.0000e+00
     -0.296      0.099     8.9336     99.722     35.440  32.426361     0.4851      7.264   400.6645 2.3301e+03    46.5847     -0.288     -0.417    22.5563 0.0000e+00
     -0.271      0.091     8.9738     99.773     35.719  32.537238     0.5812      7.223   399.8480 2.3352e+03    62.2247     -0.262     -0.381    22.0535 0.0000e+00
     -0.252      0.081     9.0057     99.941     35.981  32.707759     0.5847      7.223   397.6749 2.3372e+03    62.2613     -0.248     -0.359    21.5250 0.0000e+00
     -0.234      0.070     9.0287    100.122     36.152  32.836692     0.5635      7.247   394.6093 2.3359e+03    46.7214     -0.229     -0.333    21.0426 0.0000e+00
     -0.215      0.060     9.0349    100.151     36.226  32.889377     0.5185      7.285   392.7237 2.3289e+03    17.9821     -0.210     -0.304    20.6900 0.0000e+00
     -0.200      0.055     9.0285    100.054     36.318  32.963657     0.4910      7.343   391.3090 2.3208e+03     2.3179     -0.195     -0.282    20.5056 0.0000e+00
     -0.190      0.054     9.0145     99.905     36.465  33.099657     0.4884      7.409   389.4637 2.3158e+03     0.9138     -0.187     -0.271    20.4277 0.0000e+00
     -0.182      0.055     8.9897     99.682     36.625  33.263452     0.5049      7.464   387.5345 2.3139e+03     0.7618     -0.180     -0.261    20.4066 0.0000e+00
     -0.170      0.058     8.9626     99.431     36.777  33.419755     0.5343      7.500   386.2236 2.3194e+03     0.6935     -0.168     -0.246    20.3892 0.0000e+00
     -0.152      0.062     8.9433     99.225     36.893  33.528675     0.5498      7.517   386.0894 2.3327e+03     0.6371     -0.150     -0.218    20.3718 0.0000e+00
     -0.132      0.064     8.9321     99.093     36.935  33.564155     0.5463      7.521   386.4288 2.3461e+03     0.5994     -0.129     -0.186    20.3654 0.0000e+00
     -0.113      0.064     8.9250     99.015     36.899  33.531145     0.5463      7.515   386.7134 2.3535e+03     0.6038     -0.111     -0.160    20.4072 0.0000e+00
     -0.095      0.060     8.8932     98.668     36.734  33.383626     0.5502      7.498   386.8624 2.3556e+03     0.6289     -0.092     -0.134    20.4435 0.0000e+00
     -0.080      0.054     8.8005     97.639     36.437  33.114337     0.5477      7.464   385.8216 2.3553e+03     0.6283     -0.078     -0.114    20.4359 0.0000e+00
     -0.069      0.046     8.6778     96.274     36.111  32.815798     0.5437      7.412   383.8523 2.3533e+03     0.5968     -0.067     -0.099    20.4290 0.0000e+00
     -0.059      0.039     8.5735     95.120     35.837  32.568636     0.5287      7.346   382.4960 2.3512e+03     0.5838     -0.057     -0.083    20.4311 0.0000e+00
     -0.050      0.033     8.4745     94.019     35.667  32.412415     0.5041      7.278   381.7262 2.3483e+03     0.6238     -0.049     -0.071    20.4354 0.0000e+00
     -0.043      0.028     8.3629     92.732     35.590  32.324217     0.4941      7.228   381.4282 2.3437e+03     0.6532     -0.041     -0.060    20.4375 0.0000e+00
     -0.036      0.024     8.2359     91.232     35.565  32.264368     0.5010      7.204   381.7319 2.3397e+03     0.6645     -0.035     -0.052    20.4296 0.0000e+00
     -0.031      0.019     8.0941     89.553     35.609  32.260340     0.5038      7.198   381.3544 2.3364e+03     0.6690     -0.029     -0.042    20.4322 0.0000e+00
     -0.026      0.015     7.9700     88.071     35.744  32.338974     0.5186      7.199   380.0470 2.3339e+03     0.6160     -0.025     -0.036    20.4447 0.0000e+00
     -0.023      0.011     7.9130     87.357     35.909  32.452919     0.5514      7.200   379.1739 2.3310e+03     0.5724     -0.022     -0.032    20.4158 0.0000e+00
     -0.021      0.008     7.9236     87.427     36.048  32.558278     0.5599      7.199   379.0576 2.3274e+03     0.6002     -0.020     -0.028    20.3561 0.0000e+00
     -0.019      0.005     7.9566     87.759     36.105  32.596627     0.5479      7.198   379.1578 2.3236e+03     0.6164     -0.019     -0.027    20.2938 0.0000e+00
     -0.019      0.003     7.9879     88.063     36.056  32.535500     0.5261      7.200   378.9230 2.3209e+03     0.6154     -0.018     -0.026    20.2274 0.0000e+00
     -0.019      0.002     8.0117     88.279     35.987  32.454302     0.4895      7.206   378.5412 2.3213e+03     0.6496     -0.019     -0.027    20.1730 0.0000e+00
     -0.019      0.001     8.0179     88.312     35.917  32.377001     0.4726      7.213   378.3267 2.3231e+03     0.6634     -0.018     -0.027    20.1526 0.0000e+00
     -0.019      0.001     7.9942     88.037     35.838  32.299469     0.4781      7.216   377.9651 2.3252e+03     0.6288     -0.018     -0.027    20.1413 0.0000e+00
     -0.018      0.001     7.9228     87.264     35.809  32.279014     0.4642      7.212   377.3519 2.3286e+03     0.5974     -0.018     -0.026    20.1142 0.0000e+00
     -0.017      0.001     7.7996     85.944     35.837  32.320227     0.4336      7.203   376.5049 2.3313e+03     0.5898     -0.017     -0.025    20.0842 0.0000e+00
     -0.017      0.001     7.6495     84.327     35.856  32.353213     0.4203      7.198   375.8129 2.3327e+03     0.5683     -0.017     -0.025    20.0632 0.0000e+00
     -0.017      0.002     7.5002     82.700     35.854  32.360302     0.4225      7.196   376.2983 2.3337e+03     0.5508     -0.016     -0.024    20.0537 0.0000e+00
     -0.017      0.005     7.3642     81.215     35.898  32.405949     0.4230      7.187   377.4691 2.3343e+03     0.5610     -0.017     -0.024    20.0593 0.0000e+00
     -0.016      0.008     7.2697     80.203     35.943  32.460548     0.4171      7.162   377.4933 2.3350e+03     0.5688     -0.016     -0.023    20.0895 0.0000e+00
     -0.015      0.010     7.2602     80.143     35.908  32.448856     0.4163      7.133   376.4193 2.3333e+03     0.5839     -0.016     -0.023    20.1167 0.0000e+00
     -0.012      0.012     7.3459     81.120     35.830  32.391641     0.4231      7.119   375.2382 2.3288e+03     0.5920     -0.014     -0.020    20.1243 0.0000e+00
     -0.005      0.012     7.5027     82.857     35.770  32.340393     0.4351      7.119   374.5692 2.3249e+03     0.5749     -0.004     -0.006    20.1261 0.0000e+00
      0.001      0.011     7.6900     84.913     35.773  32.337324     0.4597      7.124   375.1286 2.3229e+03     0.5600      0.003      0.003    20.1441 0.0000e+00
      0.002      0.009     7.8625     86.791     35.804  32.354525     0.4818      7.134   376.4947 2.3214e+03     0.5647      0.002      0.004    20.1840 0.0000e+00
      0.003      0.006     7.9885     88.154     35.821  32.357818     0.4911      7.143   377.2346 2.3205e+03     0.5708      0.003      0.004    20.2037 0.0000e+00
      0.003      0.003     8.0574     88.896     35.850  32.377128     0.4891      7.151   377.2773 2.3196e+03     0.5728      0.003      0.004    20.2030 0.0000e+00
      0.003      0.001     8.0721     89.054     35.875  32.397444     0.4846      7.161   376.7528 2.3117e+03     0.5887      0.003      0.005    20.1973 0.0000e+00
      0.003      0.001     8.0480     88.789     35.891  32.412919     0.4927      7.173   375.6246 2.2695e+03     0.6101      0.003      0.004    20.1784 0.0000e+00
      0.004      0.000     8.0140     88.417     35.917  32.437221     0.5046      7.186   375.0801 2.1450e+03     0.6180      0.004      0.005    20.1587 0.0000e+00
      0.004 1.8842e-08     7.9984     88.245     35.917  32.437221     0.5086      7.201   375.4174 1.8962e+03     0.6232      0.004      0.006    20.1485 0.0000e+00
      0.004 2.0726e-07     8.0153     88.427     35.891  32.412921     0.5043      7.215   375.6585 1.5461e+03     0.6117      0.004      0.005    20.1479 0.0000e+00
      0.003 2.0726e-07     8.0584     88.899     35.876  32.397461     0.4989      7.225   375.5011 1.1689e+03     0.5704      0.003      0.005    20.1500 0.0000e+00
      0.003 1.8842e-08     8.1089     89.459     35.853  32.377317     0.4974      7.233   375.4076 8.1007e+02     0.5817      0.003      0.005    20.1518 0.0000e+00
      0.004 1.7129e-09     8.1519     89.942     35.830  32.359903     0.4954      7.238   375.3878 5.3105e+02     0.6262      0.004      0.006    20.1525 0.0000e+00
      0.004 1.5572e-10     8.1840     90.307     35.845  32.377443     0.4943      7.243   374.4016 3.8092e+02     0.6516      0.004      0.006    20.1494 0.0000e+00
      0.004 1.4156e-11     8.2112     90.615     35.865  32.398858     0.4928      7.245   372.6898 3.3221e+02     0.7053      0.004      0.005    20.1457 0.0000e+00
      0.004 1.2869e-12     8.2304     90.836     35.894  32.428301     0.4866      7.244   371.8987 3.5345e+02     0.7569      0.004      0.006    20.1464 0.0000e+00
      0.004 1.1699e-13     8.2355     90.905     35.944  32.479392     0.4833      7.244   371.8052 4.3346e+02     0.7872      0.004      0.006    20.1530 0.0000e+00
      0.004 1.0636e-14     8.2260     90.818     35.968  32.508504     0.4717      7.245   372.0757 5.3801e+02     0.7667      0.003      0.005    20.1596 0.0000e+00
      0.004 9.6690e-16     8.2033     90.588     35.978  32.526257     0.4377      7.247   372.6740 6.2705e+02     0.6915      0.004      0.005    20.1630 0.0000e+00
      0.004 8.7900e-17     8.1689     90.231     36.013  32.567020     0.4122      7.250   371.6402 7.2321e+02     0.6408      0.004      0.006    20.1671 0.0000e+00
      0.004 7.9905e-18     8.1212     89.736     36.058  32.620299     0.4113      7.254   369.1266 8.1942e+02     0.6122      0.004      0.006    20.1744 0.0000e+00
      0.004 7.2645e-19     8.0585     89.085     36.086  32.662368     0.4181      7.258   367.8355 8.7628e+02     0.6197      0.004      0.006    20.1855 0.0000e+00
      0.004 6.6040e-20     7.9829     88.293     36.101  32.694617     0.4203      7.260   368.0750 9.4305e+02     0.6399      0.004      0.006    20.1971 0.0000e+00
      0.004 6.0035e-21     7.8991     87.406     36.151  32.756183     0.4206      7.262   368.5807 1.0145e+03     0.6425      0.004      0.005    20.2083 0.0000e+00
      0.005 5.4580e-22     7.8099     86.452     36.223  32.835167     0.4301      7.262   368.6153 1.0567e+03     0.6513      0.004      0.006    20.2257 0.0000e+00
      0.005 4.9616e-23     7.7171     85.452     36.268  32.887459     0.4523      7.260   368.0637 1.1132e+03     0.6238      0.004      0.006    20.2517 0.0000e+00
      0.005 4.5106e-24     7.6239     84.444     36.318  32.943854     0.4783      7.255   367.1590 1.1524e+03     0.5862      0.004      0.006    20.2786 0.0000e+00
      0.005 4.1011e-25     7.5319     83.447     36.378  33.008944     0.4873      7.250   366.3670 1.1691e+03     0.5927      0.005      0.007    20.3013 0.0000e+00
      0.005 3.7887e-26     7.4406     82.456     36.402  33.039319     0.4778      7.246   365.8872 1.1918e+03     0.6103      0.005      0.007    20.3206 0.0000e+00
      0.005 1.0090e-26     7.3509     81.482     36.412  33.057071     0.4742      7.244   365.4018 1.1746e+03     0.6154      0.004      0.006    20.3366 0.0000e+00
      0.005 7.4015e-26     7.2641     80.541     36.445  33.096575     0.4798      7.244   365.1438 1.1346e+03     0.6548      0.004      0.006    20.3507 0.0000e+00
      0.005 8.1081e-25     7.1789     79.618     36.477  33.135870     0.4816      7.246   366.1228 1.0811e+03     0.7517      0.005      0.007    20.3639 0.0000e+00
      0.005 8.9186e-24     7.0956     78.717     36.481  33.151112     0.4781      7.250   367.5172 9.9226e+02     0.8097      0.004      0.006    20.3761 0.0000e+00
      0.005 9.8104e-23     7.0169     77.868     36.471  33.153862     0.4728      7.253   367.5485 8.9777e+02     0.7765      0.004      0.006    20.3884 0.0000e+00
      0.005 1.0791e-21     6.9429     77.072     36.476  33.169124     0.4736      7.256   367.1030 7.9322e+02     0.7164      0.004      0.006    20.4013 0.0000e+00
      0.005 1.1871e-20     6.8732     76.324     36.506  33.208632     0.4790      7.259   366.6050 6.8063e+02     0.6631      0.004      0.006    20.4150 0.0000e+00
      0.005 1.3058e-19     6.8082     75.630     36.538  33.250482     0.4828      7.264   365.8296 5.8645e+02     0.6204      0.005      0.007    20.4301 0.0000e+00
      0.005 1.4363e-18     6.7466     74.972     36.571  33.294047     0.4832      7.268   366.6754 4.9935e+02     0.5966      0.004      0.006    20.4461 0.0000e+00
      0.005 1.5800e-17     6.6918     74.392     36.621  33.354307     0.4835      7.271   368.8303 4.2800e+02     0.5899      0.005      0.007    20.4622 0.0000e+00
      0.005 1.7380e-16     6.6451     73.902     36.663  33.407459     0.4860      7.273   369.5997 3.8229e+02     0.6001      0.004      0.007    20.4792 0.0000e+00
      0.005 1.9118e-15     6.6007     73.437     36.670  33.428594     0.4857      7.275   369.2670 3.4786e+02     0.5975      0.005      0.007    20.4969 0.0000e+00
      0.005 2.1030e-14     6.5613     73.027     36.644  33.419330     0.4889      7.278   368.6803 3.2415e+02     0.5585      0.005      0.007    20.5154 0.0000e+00
      0.005 2.3132e-13     6.5303     72.709     36.632  33.422497     0.4978      7.280   367.6681 3.1283e+02     0.5560      0.005      0.007    20.5352 0.0000e+00
      0.005 2.5446e-12     6.5050     72.453     36.666  33.466910     0.5008      7.281   367.4390 3.0600e+02     0.5969      0.005      0.007    20.5557 0.0000e+00
      0.005 2.7990e-11     6.4838     72.243     36.700  33.511729     0.4977      7.282   368.2332 3.0159e+02     0.6256      0.004      0.006    20.5754 0.0000e+00
      0.005 3.0789e-10     6.4669     72.081     36.695  33.519803     0.4973      7.283   368.7527 3.0089e+02     0.6294      0.005      0.007    20.5948 0.0000e+00
      0.005 3.3868e-09     6.4537     71.957     36.660  33.501032     0.4962      7.285   368.7305 2.9950e+02     0.6126      0.005      0.007    20.6139 0.0000e+00
      0.005 3.7255e-08     6.4428     71.859     36.619  33.475344     0.5118      7.286   368.7388 2.9820e+02     0.6351      0.004      0.006    20.6323 0.0000e+00
      0.005 4.0981e-07     6.4358     71.804     36.593  33.463286     0.5481      7.286   368.6810 2.9794e+02     0.6572      0.004      0.006    20.6510 0.0000e+00
      0.005      0.000     6.4296     71.758     36.600  33.482293     0.5676      7.287   367.6006 2.9768e+02     0.6366      0.005      0.007    20.6692 0.0000e+00
      0.005      0.000     6.4199     71.674     36.623  33.514617     0.5633      7.289   366.0014 2.9754e+02     0.6299      0.004      0.006    20.6863 0.0000e+00
      0.005      0.001     6.4103     71.589     36.635  33.536547     0.5427      7.294   365.4344 2.9724e+02     0.6364      0.004      0.006    20.7027 0.0000e+00
      0.005      0.001     6.4036     71.534     36.645  33.556921     0.5197      7.298   365.8209 2.9699e+02     0.6546      0.004      0.006    20.7189 0.0000e+00
      0.005      0.001     6.3983     71.496     36.648  33.570425     0.5065      7.302   366.3733 2.9701e+02     0.6369      0.005      0.007    20.7351 0.0000e+00
      0.005      0.001     6.3933     71.461     36.638  33.572797     0.4931      7.304   366.4351 2.9648e+02     0.5750      0.005      0.007    20.7517 0.0000e+00
      0.006      0.001     6.3887     71.431     36.640  33.585617     0.4862      7.305   365.0188 2.9582e+02     0.6083      0.006      0.008    20.7677 0.0000e+00
      0.006      0.000     6.3850     71.412     36.641  33.598423     0.4879      7.306   362.5853 2.9757e+02     0.7338      0.006      0.009    20.7822 0.0000e+00
      0.006 1.8628e-08     6.3820     71.399     36.631  33.600618     0.4860      7.307   361.3610 3.0037e+02     0.8105      0.006      0.009    20.7967 0.0000e+00
      0.006 2.0490e-07     6.3797     71.393     36.633  33.612165     0.4907      7.308   361.7454 3.0626e+02     0.8030      0.006      0.008    20.8117 0.0000e+00
      0.006 2.0490e-07     6.3777     71.386     36.623  33.611029     0.4997      7.308   362.5002 3.5292e+02     0.7354      0.006      0.008    20.8270 0.0000e+00
      0.006 1.8627e-08     6.3745     71.362     36.589  33.586892     0.4927      7.309   362.6573 5.2963e+02     0.6644      0.005      0.007    20.8436 0.0000e+00
      0.006 1.6934e-09     6.3696     71.318     36.570  33.574397     0.4805      7.313   361.9247 8.8791e+02     0.6469      0.006      0.008    20.8593 0.0000e+00
      0.006 1.5395e-10     6.3614     71.234     36.579  33.586994     0.4806      7.316   360.7830 1.3688e+03     0.6457      0.006      0.009    20.8726 0.0000e+00
      0.006 1.3995e-11     6.3511     71.125     36.603  33.612174     0.4851      7.317   359.9525 1.8529e+03     0.6195      0.006      0.008    20.8838 0.0000e+00
      0.006 1.2732e-12     6.3396     71.002     36.613  33.624782     0.4795      7.315   359.6268 2.1858e+03     0.6043      0.006      0.009    20.8924 0.0000e+00
      0.006 1.2522e-13     6.3237     70.829     36.597  33.612412     0.4764      7.310   359.5983 2.3080e+03     0.6140      0.005      0.008    20.8994 0.0000e+00
      0.006 1.1566e-13     6.3054     70.629     36.570  33.589639     0.4845      7.302   359.7800 2.3272e+03     0.6146      0.006      0.008    20.9058 0.0000e+00
      0.006 1.1576e-12     6.2866     70.424     36.582  33.603508     0.5044      7.291   360.1029 2.3319e+03     0.6113      0.006      0.008    20.9102 0.0000e+00
      0.006 1.2723e-11     6.2678     70.219     36.632  33.653062     0.5332      7.281   360.3190 2.3330e+03     0.6051      0.006      0.009    20.9137 0.0000e+00
      0.006 1.3995e-10     6.2503     70.029     36.658  33.680673     0.5471      7.275   360.0700 2.3326e+03     0.6008      0.006      0.008    20.9171 0.0000e+00
      0.006 1.5395e-09     6.2329     69.842     36.657  33.683295     0.5535      7.271   359.5018 2.3320e+03     0.6200      0.006      0.009    20.9203 0.0000e+00
      0.006 1.6934e-08     6.2169     69.671     36.654  33.684772     0.5643      7.271   358.9550 2.3328e+03     0.6549      0.006      0.009    20.9242 0.0000e+00
      0.007 1.8627e-07     6.2037     69.531     36.664  33.698536     0.5675      7.273   359.5670 2.3368e+03     0.6567      0.007      0.009    20.9286 0.0000e+00
      0.007 1.8627e-07     6.1910     69.397     36.685  33.722684     0.5642      7.278   361.1373 2.3407e+03     0.6116      0.007      0.010    20.9335 0.0000e+00
      0.007 1.6934e-08     6.1784     69.263     36.681  33.722683     0.5619      7.283   361.7658 2.3412e+03     0.5667      0.006      0.009    20.9391 0.0000e+00
      0.007 1.5395e-09     6.1674     69.145     36.651  33.698535     0.5580      7.287   361.6600 2.3408e+03     0.5712      0.007      0.010    20.9447 0.0000e+00
      0.007 1.4100e-10     6.1576     69.040     36.634  33.684781     0.5539      7.292   361.2348 2.3407e+03     0.6053      0.007      0.010    20.9508 0.0000e+00
      0.007 2.4289e-11     6.1478     68.932     36.631  33.683418     0.5581      7.298   360.4106 2.3399e+03     0.6131      0.007      0.009    20.9572 0.0000e+00
      0.007 1.3995e-10     6.1356     68.796     36.630  33.682054     0.5630      7.303   360.3844 2.3389e+03     0.6046      0.006      0.009    20.9628 0.0000e+00
      0.007 1.5395e-09     6.1212     68.634     36.615  33.668290     0.5571      7.309   361.2624 2.3386e+03     0.5936      0.007      0.010    20.9674 0.0000e+00
      0.008 1.6934e-08     6.1073     68.477     36.589  33.644029     0.5508      7.314   361.8195 2.3392e+03     0.6016      0.008      0.011    20.9702 0.0000e+00
      0.008 1.8627e-07     6.0932     68.319     36.588  33.642779     0.5517      7.318   361.7870 2.3388e+03     0.6099      0.008      0.011    20.9717 0.0000e+00
      0.007 1.8627e-07     6.0762     68.127     36.599  33.653181     0.5497      7.322   361.5566 2.3382e+03     0.6019      0.007      0.010    20.9725 0.0000e+00
      0.007 1.6934e-08     6.0572     67.917     36.587  33.642768     0.5447      7.325   361.3567 2.3388e+03     0.6273      0.007      0.010    20.9719 0.0000e+00
      0.007 1.5395e-09     6.0392     67.716     36.587  33.643904     0.5465      7.329   360.9197 2.3380e+03     0.7037      0.006      0.009    20.9709 0.0000e+00
      0.007 1.3995e-10     6.0228     67.536     36.610  33.666915     0.5531      7.332   360.3157 2.3352e+03     0.7934      0.007      0.010    20.9702 0.0000e+00
      0.007 1.2723e-11     6.0082     67.377     36.607  33.666925     0.5508      7.334   360.2490 2.3337e+03     0.8268      0.007      0.010    20.9698 0.0000e+00
      0.007 1.1566e-12     5.9935     67.217     36.579  33.644036     0.5371      7.337   360.6291 2.3342e+03     0.8024      0.007      0.010    20.9708 0.0000e+00
      0.007 1.0515e-13     5.9781     67.050     36.576  33.644243     0.5352      7.340   360.9546 2.3367e+03     0.8038      0.007      0.010    20.9724 0.0000e+00
      0.007 9.5590e-15     5.9636     66.893     36.600  33.669431     0.5552      7.343   360.9146 2.3410e+03     0.8429      0.007      0.010    20.9750 0.0000e+00
      0.007 8.6900e-16     5.9512     66.758     36.625  33.694514     0.5679      7.346   359.8874 2.3427e+03     0.8487      0.006      0.009    20.9790 0.0000e+00
      0.007 7.9000e-17     5.9397     66.632     36.621  33.693454     0.5600      7.349   358.4286 2.3421e+03     0.8123      0.007      0.010    20.9829 0.0000e+00
      0.007 7.1820e-18     5.9277     66.501     36.580  33.656621     0.5516      7.351   357.9898 2.3415e+03     0.7688      0.007      0.010    20.9868 0.0000e+00
      0.007 6.5290e-19     5.9156     66.366     36.550  33.630275     0.5392      7.353   358.1094 2.3392e+03     0.7194      0.007      0.010    20.9910 0.0000e+00
      0.007 5.9355e-20     5.9044     66.241     36.549  33.628970     0.5117      7.355   358.4975 2.3371e+03     0.6425      0.007      0.010    20.9949 0.0000e+00
      0.007 5.3960e-21     5.8923     66.104     36.563  33.640850     0.4857      7.357   359.1557 2.3360e+03     0.5717      0.007      0.010    20.9980 0.0000e+00
      0.007 4.9052e-22     5.8783     65.944     36.570  33.646870     0.4737      7.359   358.4961 2.3361e+03     0.5661      0.007      0.010    21.0001 0.0000e+00
      0.007 4.4593e-23     5.8616     65.754     36.494  33.574735     0.4856      7.361   356.8036 2.3388e+03     0.5740      0.007      0.010    21.0011 0.0000e+00
      0.007 4.0539e-24     5.8420     65.524     36.037  33.149762     0.5189      7.363   355.9851 2.3400e+03     0.5756      0.006      0.009    21.0007 0.0000e+00
      0.007 3.6854e-25     5.8295     65.324     35.240  32.382897     0.5457      7.365   356.0851 2.3392e+03     0.5859      0.007      0.010    20.9994 0.0000e+00
      0.007 3.3503e-26     5.8560     65.412     34.793  31.860692     0.5520      7.366   356.4639 2.3377e+03     0.5773      0.006      0.009    20.9980 0.0000e+00
      0.007 3.0458e-27     6.0071     66.747     34.847  31.726148     0.5310      7.368   356.8654 2.3358e+03     0.5933      0.007      0.010    20.9957 0.0000e+00
      0.007 2.7689e-28     6.3926     70.672     35.022  31.708535     0.4945      7.368   357.1536 2.3360e+03     0.6265      0.007      0.010    20.9937 0.0000e+00
      0.007 2.5172e-29     7.0040     77.168     35.160  31.711006     0.4772      7.368   357.2820 2.3374e+03     0.6428      0.007      0.011    20.9885 0.0000e+00
      0.007 2.2883e-30     7.7092     84.767     35.221  31.692356     0.4777      7.368   357.1266 2.3372e+03     0.6683      0.007      0.009    20.8338 0.0000e+00
      0.007 2.0803e-31     8.3949     92.200     35.248  31.673464     0.4925      7.366   356.9960 2.3372e+03     0.6904      0.007      0.010    20.5038 0.0000e+00
      0.007 1.8912e-32     8.9941     98.725     35.271  31.673060     0.5274      7.363   356.8212 2.3382e+03     0.6655      0.008      0.011    20.2302 0.0000e+00
      0.007 1.7192e-33     9.4603    103.831     35.291  31.687446     0.5504      7.359   356.4757 2.3385e+03     0.6117      0.007      0.010    20.0685 0.0000e+00
      0.007 1.5629e-34     9.7697    107.250     35.320  31.720383     0.5502      7.355   357.1208 2.3379e+03     0.5887      0.007      0.010    19.9713 0.0000e+00
      0.007 1.4209e-35     9.9096    108.822     35.344  31.753754     0.5432      7.351   358.5123 2.3379e+03     0.5709      0.007      0.010    19.9167 0.0000e+00
      0.007 1.2917e-36     9.8926    108.674     35.352  31.773393     0.5387      7.349   358.9321 2.3394e+03     0.5499      0.007      0.010    19.8853 0.0000e+00
      0.007 1.1743e-37     9.7767    107.435     35.332  31.767327     0.5426      7.349   358.6684 2.3395e+03     0.5786      0.006      0.009    19.8833 0.0000e+00
      0.007 1.0675e-38     9.6323    105.873     35.297  31.743929     0.5534      7.350   358.2498 2.3379e+03     0.6130      0.007      0.010    19.8972 0.0000e+00
      0.007 9.7050e-40     9.4978    104.409     35.292  31.744554     0.5586      7.352   357.6559 2.3389e+03     0.5997      0.007      0.010    19.9164 0.0000e+00
      0.007 8.8225e-41     9.3821    103.153     35.319  31.774888     0.5503      7.352   357.8535 2.3403e+03     0.5697      0.007      0.010    19.9356 0.0000e+00
      0.007 8.0205e-42     9.2824    102.078     35.332  31.793144     0.5453      7.352   358.9190 2.3397e+03     0.5558      0.007      0.010    19.9527 0.0000e+00
      0.007 7.2915e-43     9.1954    101.144     35.303  31.774761     0.5528      7.353   359.6114 2.3386e+03     0.5534      0.007      0.010    19.9636 0.0000e+00
      0.007 6.6285e-44     9.1264    100.397     35.263  31.743162     0.5586      7.353   359.5140 2.3394e+03     0.5719      0.007      0.010    19.9693 0.0000e+00
      0.006 6.0260e-45     9.0775     99.855     35.248  31.728643     0.5509      7.354   359.2041 2.3409e+03     0.5963      0.006      0.009    19.9760 0.0000e+00
      0.006 5.4780e-46     9.0395     99.421     35.252  31.726230     0.5421      7.354   359.1342 2.3415e+03     0.6034      0.006      0.009    19.9871 0.0000e+00
      0.007 4.9801e-47     9.0064     99.029     35.250  31.713983     0.5449      7.354   359.0989 2.3428e+03     0.6279      0.007      0.010    20.0004 0.0000e+00
      0.007 4.5310e-48     8.9777     98.668     35.260  31.707570     0.5471      7.354   358.6914 2.3441e+03     0.6177      0.007      0.009    20.0081 0.0000e+00
      0.007 4.5133e-49     8.9531     98.337     35.290  31.712182     0.5417      7.355   358.3374 2.3439e+03     0.5714      0.007      0.010    20.0042 0.0000e+00
      0.007 4.7469e-49     8.9331     98.050     35.310  31.706211     0.5352      7.358   358.5184 2.3429e+03     0.5868      0.006      0.009    19.9954 0.0000e+00
      0.007 4.8134e-48     8.9174     97.814     35.328  31.698852     0.5413      7.361   358.8144 2.3415e+03     0.6205      0.007      0.010    19.9832 0.0000e+00
      0.007 5.2911e-47     8.9050     97.617     35.339  31.686683     0.5600      7.364   358.9921 2.3406e+03     0.6131      0.006      0.009    19.9599 0.0000e+00
      0.007 5.8201e-46     8.8961     97.453     35.365  31.686071     0.5592      7.367   359.0318 2.3423e+03     0.5885      0.007      0.010    19.9273 0.0000e+00
      0.007 6.4021e-45     8.8921     97.345     35.397  31.691414     0.5412      7.369   358.2627 2.3438e+03     0.5670      0.007      0.009    19.8907 0.0000e+00
      0.007 7.0423e-44     8.8886     97.270     35.408  31.687741     0.5443      7.370   357.0052 2.3422e+03     0.5670      0.007      0.010    19.8577 0.0000e+00
      0.007 7.7466e-43     8.8809     97.184     35.429  31.705157     0.5603      7.372   356.5614 2.3411e+03     0.5888      0.006      0.009    19.8299 0.0000e+00
      0.007 8.5212e-42     8.8729     97.116     35.428  31.711457     0.5601      7.373   356.7689 2.3428e+03     0.5867      0.007      0.010    19.7942 0.0000e+00
      0.007 9.3734e-41     8.8657     97.064     35.404  31.700417     0.5505      7.373   357.1904 2.3435e+03     0.5719      0.006      0.009    19.7552 0.0000e+00
      0.007 1.0311e-39     8.8566     96.990     35.392  31.698712     0.5452      7.373   357.7007 2.3411e+03     0.5927      0.007      0.009    19.7338 0.0000e+00
      0.007 1.1342e-38     8.8407     96.843     35.372  31.690842     0.5421      7.374   357.1735 2.3404e+03     0.5946      0.007      0.010    19.7361 0.0000e+00
      0.007 1.2476e-37     8.8168     96.602     35.339  31.668788     0.5416      7.374   355.7202 2.3423e+03     0.5640      0.006      0.009    19.7501 0.0000e+00
      0.007 1.3724e-36     8.7927     96.337     35.287  31.622598     0.5486      7.374   354.9286 2.3431e+03     0.5588      0.007      0.010    19.7651 0.0000e+00
      0.007 1.5096e-35     8.7752     96.122     35.246  31.576939     0.5531      7.373   354.8295 2.3415e+03     0.5621      0.006      0.009    19.7778 0.0000e+00
      0.007 1.6605e-34     8.7636     95.955     35.246  31.561285     0.5500      7.371   355.0378 2.3405e+03     0.5733      0.007      0.009    19.7927 0.0000e+00
      0.007 1.8266e-33     8.7508     95.771     35.263  31.560329     0.5567      7.368   355.5540 2.3407e+03     0.6023      0.007      0.010    19.8072 0.0000e+00
      0.007 2.0093e-32     8.7327     95.547     35.279  31.565354     0.5696      7.366   355.6506 2.3406e+03     0.6075      0.007      0.009    19.8073 0.0000e+00
      0.007 2.2102e-31     8.7153     95.360     35.270  31.558519     0.5675      7.364   355.1741 2.3407e+03     0.5750      0.007      0.009    19.7936 0.0000e+00
      0.007 2.4312e-30     8.7086     95.306     35.242  31.541197     0.5591      7.362   354.6965 2.3407e+03     0.5457      0.007      0.009    19.7701 0.0000e+00
      0.007 2.6743e-29     8.7117     95.357     35.241  31.546459     0.5604      7.362   354.4355 2.3412e+03     0.5589      0.006      0.009    19.7422 0.0000e+00
      0.007 2.9418e-28     8.7182     95.435     35.251  31.558639     0.5649      7.362   354.2558 2.3412e+03     0.6124      0.007      0.009    19.7257 0.0000e+00
      0.006 3.2359e-27     8.7259     95.518     35.255  31.561449     0.5580      7.361   354.1584 2.3412e+03     0.6433      0.006      0.009    19.7302 0.0000e+00
      0.006 3.5595e-26     8.7367     95.628     35.280  31.580444     0.5420      7.361   354.7214 2.3423e+03     0.5958      0.006      0.009    19.7466 0.0000e+00
      0.006 3.9155e-25     8.7486     95.754     35.301  31.597764     0.5363      7.362   355.6423 2.3423e+03     0.5564      0.006      0.009    19.7555 0.0000e+00
      0.006 4.3070e-24     8.7564     95.851     35.276  31.580329     0.5437      7.364   355.8281 2.3427e+03     0.5945      0.007      0.010    19.7588 0.0000e+00
      0.006 4.7377e-23     8.7605     95.919     35.245  31.560178     0.5489      7.364   355.3322 2.3439e+03     0.6301      0.006      0.009    19.7597 0.0000e+00
      0.006 5.2115e-22     8.7652     95.997     35.217  31.544654     0.5439      7.364   354.7235 2.3436e+03     0.6207      0.006      0.009    19.7499 0.0000e+00
      0.006 5.7327e-21     8.7738     96.101     35.184  31.519666     0.5390      7.363   354.5771 2.3431e+03     0.6026      0.007      0.010    19.7471 0.0000e+00
      0.006 6.3059e-20     8.7828     96.179     35.184  31.512095     0.5451      7.363   355.4547 2.3433e+03     0.5949      0.006      0.009    19.7539 0.0000e+00
      0.006 6.9365e-19     8.7872     96.183     35.207  31.516610     0.5529      7.363   356.7313 2.3431e+03     0.5882      0.007      0.010    19.7663 0.0000e+00
      0.006 7.6302e-18     8.7856     96.127     35.217  31.510725     0.5507      7.362   357.1063 2.3420e+03     0.5827      0.006      0.009    19.7853 0.0000e+00
      0.006 8.3932e-17     8.7788     96.044     35.214  31.504432     0.5457      7.361   356.8914 2.3418e+03     0.5888      0.007      0.010    19.7933 0.0000e+00
      0.006 9.2325e-16     8.7692     95.956     35.206  31.504023     0.5482      7.360   356.8004 2.3422e+03     0.6008      0.006      0.009    19.7821 0.0000e+00
      0.007 1.0156e-14     8.7601     95.881     35.197  31.505791     0.5522      7.361   356.5224 2.3428e+03     0.6674      0.007      0.010    19.7523 0.0000e+00
      0.007 1.1171e-13     8.7549     95.843     35.212  31.525826     0.5488      7.362   356.5414 2.3435e+03     0.7834      0.007      0.010    19.7258 0.0000e+00
      0.007 1.2288e-12     8.7560     95.865     35.242  31.555743     0.5437      7.361   357.3739 2.3420e+03     0.8135      0.007      0.009    19.7226 0.0000e+00
      0.006 1.3517e-11     8.7642     95.955     35.234  31.549969     0.5465      7.360   357.9844 2.3415e+03     0.7570      0.006      0.009    19.7366 0.0000e+00
      0.006 1.4869e-10     8.7769     96.089     35.203  31.519526     0.5550      7.358   357.8996 2.3443e+03     0.7099      0.006      0.009    19.7530 0.0000e+00
      0.006 1.6356e-09     8.7908     96.230     35.191  31.505207     0.5549      7.357   357.4671 2.3450e+03     0.6711      0.006      0.009    19.7620 0.0000e+00
      0.006 1.7992e-08     8.8049     96.375     35.194  31.503853     0.5447      7.356   356.8852 2.3437e+03     0.6243      0.006      0.009    19.7666 0.0000e+00
      0.006 1.9791e-07     8.8193     96.524     35.198  31.503152     0.5419      7.355   356.5422 2.3440e+03     0.6019      0.006      0.009    19.7680 0.0000e+00
      0.006      0.000     8.8283     96.615     35.193  31.496730     0.5483      7.354   356.4172 2.3438e+03     0.6134      0.006      0.009    19.7641 0.0000e+00
      0.006      0.000     8.8268     96.596     35.186  31.489705     0.5578      7.353   356.4065 2.3433e+03     0.6105      0.007      0.009    19.7576 0.0000e+00
      0.006      0.000     8.8187     96.512     35.175  31.481725     0.5655      7.352   356.4988 2.3425e+03     0.5983      0.006      0.009    19.7525 0.0000e+00
      0.006      0.003     8.8090     96.409     35.153  31.463760     0.5679      7.351   356.6735 2.3410e+03     0.6177      0.007      0.010    19.7476 0.0000e+00
      0.006      0.032     8.7977     96.275     35.157  31.463020     0.5679      7.350   356.9696 2.3410e+03     0.6315      0.006      0.009    19.7429 0.0000e+00
      0.007      0.351     8.7821     96.089     35.174  31.472774     0.5659      7.349   357.1532 2.3428e+03     0.6126      0.007      0.009    19.7403 0.0000e+00
      0.007      3.857     8.7659     95.900     35.159  31.454664     0.5615      7.348   356.4847 2.3435e+03     0.6035      0.007      0.009    19.7446 0.0000e+00
      0.007      3.857     8.7558     95.780     35.140  31.434564     0.5608      7.346   355.2543 2.3412e+03     0.6121      0.007      0.009    19.7509 0.0000e+00
      0.006      0.351     8.7534     95.741     35.129  31.420283     0.5563      7.346   354.8377 2.3388e+03     0.5956      0.006      0.009    19.7432 0.0000e+00
      0.006      0.032     8.7578     95.771     35.124  31.409006     0.5449      7.345   355.3188 2.3388e+03     0.5866      0.006      0.009    19.7313 0.0000e+00
      0.006      0.003     8.7681     95.865     35.150  31.425225     0.5424      7.343   356.0820 2.3408e+03     0.5941      0.006      0.009    19.7272 0.0000e+00
      0.006      0.000     8.7806     95.984     35.159  31.425850     0.5444      7.341   356.4084 2.3449e+03     0.5650      0.006      0.009    19.7237 0.0000e+00
      0.007      0.000     8.7901     96.064     35.158  31.416551     0.5417      7.339   355.3924 2.3486e+03     0.5395      0.007      0.010    19.7168 0.0000e+00
      0.007      0.000     8.7947     96.087     35.195  31.439805     0.5277      7.336   353.7775 2.3493e+03     0.5300      0.007      0.010    19.7070 0.0000e+00
      0.006 1.9791e-07     8.7969     96.090     35.218  31.452951     0.5043      7.333   353.1445 2.3492e+03     0.5720      0.006      0.009    19.6964 0.0000e+00
      0.006 1.7992e-08     8.8008     96.125     35.217  31.448471     0.4976      7.329   353.4183 2.3483e+03     0.6513      0.006      0.009    19.6871 0.0000e+00
      0.006 1.6356e-09     8.8036     96.157     35.217  31.449147     0.5018      7.324   353.9038 2.3455e+03     0.6347      0.006      0.009    19.6762 0.0000e+00
      0.006 1.4869e-10     8.7995     96.116     35.229  31.461117     0.4912      7.319   354.1114 2.3432e+03     0.5840      0.006      0.009    19.6599 0.0000e+00
      0.006 1.3517e-11     8.7924     96.037     35.235  31.466190     0.4791      7.312   353.7774 2.3423e+03     0.5883      0.007      0.010    19.6463 0.0000e+00
      0.006 1.2289e-12     8.7892     95.993     35.217  31.446980     0.4849      7.303   353.0487 2.3418e+03     0.5952      0.006      0.009    19.6436 0.0000e+00
      0.006 1.1191e-13     8.7922     96.013     35.192  31.419374     0.4966      7.296   352.4424 2.3415e+03     0.6052      0.006      0.009    19.6455 0.0000e+00
      0.006 1.2259e-14     8.7990     96.078     35.158  31.386431     0.4922      7.291   352.2967 2.3416e+03     0.6181      0.006      0.009    19.6486 0.0000e+00
      0.006 2.4058e-14     8.8049     96.136     35.138  31.366220     0.4776      7.286   352.4052 2.3429e+03     0.5981      0.006      0.009    19.6494 0.0000e+00
      0.006 2.5456e-13     8.8093     96.179     35.139  31.365520     0.4759      7.278   352.6366 2.3432e+03     0.5776      0.006      0.009    19.6431 0.0000e+00
      0.006 2.7993e-12     8.8145     96.235     35.154  31.377965     0.4813      7.266   352.9434 2.3406e+03     0.5843      0.006      0.009    19.6353 0.0000e+00
      0.006 3.0792e-11     8.8187     96.283     35.166  31.389668     0.4782      7.250   353.1026 2.3376e+03     0.5868      0.007      0.010    19.6309 0.0000e+00
      0.006 3.3871e-10     8.8195     96.296     35.154  31.380008     0.4754      7.231   352.8410 2.3380e+03     0.5768      0.006      0.009    19.6283 0.0000e+00
      0.007 3.7258e-09     8.8160     96.269     35.159  31.388195     0.4839      7.213   352.5332 2.3407e+03     0.5858      0.007      0.010    19.6250 0.0000e+00
      0.007 4.0984e-08     8.8064     96.177     35.194  31.425150     0.4987      7.198   352.1345 2.3419e+03     0.6048      0.007      0.010    19.6243 0.0000e+00
      0.007 4.5082e-07     8.7937     96.045     35.214  31.445779     0.4978      7.188   351.2902 2.3420e+03     0.6540      0.006      0.009    19.6261 0.0000e+00
      0.007      0.000     8.7836     95.933     35.216  31.447086     0.4819      7.182   350.6711 2.3407e+03     0.7538      0.007      0.009    19.6271 0.0000e+00
      0.007      0.000     8.7786     95.879     35.210  31.440957     0.4810      7.180   351.4460 2.3380e+03     0.8034      0.007      0.009    19.6330 0.0000e+00
      0.006      0.001     8.7788     95.887     35.201  31.435183     0.4874      7.178   353.0017 2.3372e+03     0.7958      0.006      0.008    19.6427 0.0000e+00
      0.006      0.002     8.7851     95.960     35.205  31.440785     0.4860      7.170   353.4772 2.3375e+03     0.7836      0.006      0.008    19.6466 0.0000e+00
      0.006      0.003     8.7963     96.079     35.212  31.445184     0.4817      7.155   352.7220 2.3368e+03     0.7175      0.006      0.008    19.6435 0.0000e+00
      0.007      0.004     8.8080     96.196     35.193  31.424857     0.4723      7.134   351.4419 2.3359e+03     0.6077      0.007      0.010    19.6422 0.0000e+00
      0.009      0.005     8.8158     96.271     35.153  31.385544     0.4735      7.118   350.5611 2.3359e+03     0.5546      0.009      0.013    19.6475 0.0000e+00
      0.011      0.008     8.8158     96.266     35.116  31.350909     0.4865      7.112   351.3642 2.3324e+03     0.5640      0.012      0.016    19.6514 0.0000e+00
      0.012      0.012     8.8105     96.210     35.085  31.323626     0.4735      7.119   353.2367 2.2970e+03     0.5680      0.012      0.018    19.6484 0.0000e+00
      0.013      0.017     8.8038     96.143     35.067  31.309702     0.4364      7.136   354.0143 2.1607e+03     0.5727      0.012      0.018    19.6418 0.0000e+00
      0.016      0.022     8.7974     96.070     35.068  31.309572     0.4142      7.161   353.2806 1.7887e+03     0.5907      0.015      0.021    19.6367 0.0000e+00
      0.024      0.027     8.7944     96.017     35.091  31.322054     0.4163      7.189   352.0238 1.1832e+03     0.6017      0.021      0.031    19.6326 0.0000e+00
      0.034      0.031     8.7967     96.011     35.116  31.333593     0.4344      7.217   351.2080 6.3832e+02     0.6447      0.034      0.050    19.6342 0.0000e+00
      0.045      0.033     8.8022     96.039     35.116  31.322056     0.4591      7.246   351.0740 3.5339e+02     0.7144      0.045      0.066    19.6408 0.0000e+00
      0.053      0.033     8.8083     96.076     35.115  31.309565     0.4753      7.276   351.2644 2.6214e+02     0.7428      0.052      0.076    19.6396 0.0000e+00
      0.060      0.033     8.8154     96.126     35.126  31.309566     0.4747      7.303   351.4441 3.3859e+02     0.7438      0.060      0.087    19.6282 0.0000e+00
      0.067      0.033     8.8213     96.164     35.151  31.322060     0.4607      7.323   351.2691 5.1212e+02     0.6955      0.066      0.096    19.6100 0.0000e+00
      0.075      0.034     8.8228     96.159     35.172  31.333588     0.4351      7.331   350.8691 6.3926e+02     0.6169      0.073      0.105    19.5927 0.0000e+00
      0.084      0.034     8.8181     96.093     35.165  31.321926     0.4128      7.332   350.3929 7.1273e+02     0.5868      0.081      0.118    19.5778 0.0000e+00
      0.096      0.034     8.8077     95.967     35.155  31.308070     0.4115      7.336   349.5555 9.1458e+02     0.5757      0.094      0.136    19.5629 0.0000e+00
      0.106      0.033     8.7983     95.849     35.145  31.293069     0.4381      7.344   349.0901 1.1514e+03     0.5742      0.106      0.153    19.5482 0.0000e+00
      0.114      0.031     8.7935     95.783     35.122  31.267562     0.4771      7.354   349.7559 1.1764e+03     0.5999      0.112      0.162    19.5367 0.0000e+00
      0.120      0.029     8.7906     95.743     35.109  31.253696     0.4885      7.364   350.3792 1.4082e+03     0.6115      0.117      0.169    19.5312 0.0000e+00
      0.126      0.028     8.7893     95.725     35.109  31.252425     0.4840      7.375   350.6030 1.6117e+03     0.5924      0.123      0.179    19.5251 0.0000e+00
      0.132      0.028     8.7910     95.734     35.113  31.252197     0.4869      7.387   350.8269 1.3551e+03     0.5822      0.130      0.188    19.5157 0.0000e+00
      0.139      0.029     8.7953     95.750     35.124  31.250939     0.4861      7.397   349.8170 1.1758e+03     0.5793      0.136      0.198    19.5077 0.0000e+00
      0.146      0.032     8.8000     95.764     35.124  31.237198     0.4831      7.404   348.0292 1.0257e+03     0.5580      0.143      0.208    19.5027 0.0000e+00
      0.154      0.035     8.8050     95.794     35.106  31.213056     0.4782      7.409   347.5367 8.1192e+02     0.5376      0.151      0.219    19.5034 0.0000e+00
      0.164      0.038     8.8092     95.829     35.111  31.213056     0.4737      7.412   347.8207 7.5897e+02     0.5457      0.160      0.232    19.5035 0.0000e+00
      0.174      0.040     8.8122     95.850     35.144  31.237190     0.4828      7.415   348.5367 6.7223e+02     0.5655      0.170      0.247    19.4839 0.0000e+00
      0.186      0.041     8.8167     95.883     35.166  31.250818     0.4972      7.417   349.7415 4.8219e+02     0.5625      0.182      0.264    19.4571 0.0000e+00
      0.197      0.042     8.8219     95.919     35.174  31.250810     0.5003      7.419   349.0516 3.4074e+02     0.5714      0.194      0.282    19.4477 0.0000e+00
      0.207      0.042     8.8238     95.921     35.166  31.237077     0.4928      7.419   346.7340 2.8694e+02     0.5817      0.204      0.296    19.4457 0.0000e+00
      0.217      0.041     8.8216     95.889     35.141  31.211788     0.4799      7.419   345.8100 2.3888e+02     0.5644      0.212      0.308    19.4377 0.0000e+00
      0.228      0.040     8.8173     95.839     35.128  31.199078     0.4736      7.420   346.1398 1.9571e+02     0.5763      0.223      0.323    19.4308 0.0000e+00
      0.239      0.039     8.8136     95.786     35.146  31.210414     0.4803      7.421   347.0224 1.8406e+02     0.6033      0.235      0.341    19.4188 0.0000e+00
      0.249      0.039     8.8123     95.746     35.170  31.221829     0.4877      7.421   348.4789 1.8124e+02     0.5849      0.245      0.355    19.4051 0.0000e+00
      0.258      0.039     8.8113     95.706     35.168  31.210064     0.4894      7.422   349.2955 1.8061e+02     0.5689      0.253      0.366    19.4038 0.0000e+00
      0.268      0.039     8.8101     95.675     35.159  31.195166     0.4916      7.422   348.7229 1.7923e+02     0.5919      0.263      0.381    19.4054 0.0000e+00
      0.277      0.039     8.8122     95.685     35.135  31.168711     0.4961      7.422   347.4919 1.7645e+02     0.5885      0.272      0.395    19.3999 0.0000e+00
      0.286      0.040     8.8172     95.711     35.118  31.144225     0.4983      7.421   346.8873 1.7446e+02     0.5575      0.281      0.408    19.3830 0.0000e+00
      0.296      0.042     8.8226     95.720     35.148  31.153125     0.4904      7.416   347.1781 1.7490e+02     0.5836      0.291      0.422    19.3652 0.0000e+00
      0.307      0.044     8.8277     95.729     35.163  31.149278     0.4834      7.411   347.9097 1.7776e+02     0.6607      0.301      0.437    19.3566 0.0000e+00
      0.318      0.045     8.8320     95.744     35.118  31.097688     0.4870      7.407   348.4192 1.8377e+02     0.6958      0.312      0.452    19.3543 0.0000e+00
      0.331      0.047     8.8345     95.730     35.067  31.037411     0.4877      7.403   348.6064 1.8643e+02     0.6733      0.325      0.471    19.3437 0.0000e+00
      0.345      0.047     8.8367     95.680     35.046  30.992027     0.4837      7.400   348.5391 1.8308e+02     0.6320      0.339      0.491    19.3112 0.0000e+00
      0.357      0.046     8.8386     95.613     35.012  30.929971     0.4928      7.397   348.1213 1.8084e+02     0.6242      0.350      0.507    19.2818 0.0000e+00
      0.368      0.045     8.8392     95.525     34.970  30.858622     0.5239      7.396   347.9436 1.8438e+02     0.6395      0.360      0.522    19.2733 0.0000e+00
      0.379      0.045     8.8422     95.427     34.917  30.764401     0.5478      7.393   348.0251 1.8853e+02     0.6030      0.373      0.541    19.2585 0.0000e+00
      0.390      0.044     8.8511     95.347     34.894  30.679793     0.5435      7.391   348.2456 1.8490e+02     0.5494      0.383      0.556    19.2134 0.0000e+00
      0.400      0.044     8.8635     95.294     35.022  30.724656     0.5355      7.389   349.4912 1.8007e+02     0.5412      0.391      0.567    19.1632 0.0000e+00
      0.412      0.045     8.8719     95.214     35.322  30.925693     0.5343      7.386   350.9545 1.8397e+02     0.5643      0.404      0.586    19.1262 0.0000e+00
      0.425      0.048     8.8735     95.082     35.631  31.141682     0.5375      7.381   350.9674 1.9859e+02     0.5853      0.417      0.607    19.0587 0.0000e+00
      0.436      0.051     8.8737     94.935     35.734  31.176811     0.5461      7.375   350.4210 2.0817e+02     0.5808      0.428      0.620    18.9579 0.0000e+00
      0.447      0.053     8.8751     94.785     35.639  31.032829     0.5474      7.370   349.8545 2.1646e+02     0.5706      0.437      0.634    18.8570 0.0000e+00
      0.462      0.053     8.8771     94.639     35.513  30.861429     0.5441      7.367   349.1945 2.2666e+02     0.5839      0.453      0.656    18.7664 0.0000e+00
      0.479      0.052     8.8746     94.459     35.457  30.755560     0.5427      7.366   350.1845 2.3784e+02     0.6201      0.471      0.683    18.6960 0.0000e+00
      0.494      0.051     8.8551     94.130     35.451  30.705320     0.5397      7.368   352.3601 2.4584e+02     0.6419      0.485      0.703    18.6230 0.0000e+00
      0.507      0.050     8.8145     93.613     35.406  30.634967     0.5351      7.369   353.1293 2.2382e+02     0.6035      0.497      0.722    18.5325 0.0000e+00
      0.518      0.048     8.7567     92.932     35.325  30.539967     0.5337      7.369   352.9464 2.2109e+02     0.5534      0.508      0.737    18.4439 0.0000e+00
      0.528      0.047     8.6866     92.116     35.247  30.445737     0.5412      7.365   352.4713 2.6749e+02     0.5546      0.517      0.749    18.3602 0.0000e+00
      0.538      0.047     8.6146     91.251     35.147  30.321201     0.5524      7.360   351.4286 3.0421e+02     0.5866      0.526      0.763    18.2949 0.0000e+00
      0.551      0.048     8.5542     90.472     35.042  30.177283     0.5582      7.355   350.9226 2.9433e+02     0.6055      0.539      0.782    18.2558 0.0000e+00
      0.566      0.050     8.5161     89.900     34.955  30.039206     0.5562      7.350   352.2033 2.8112e+02     0.5997      0.555      0.805    18.2236 0.0000e+00
      0.579      0.053     8.5033     89.578     34.901  29.921754     0.5465      7.346   354.6110 2.9637e+02     0.5774      0.569      0.824    18.1908 0.0000e+00
      0.591      0.055     8.5131     89.487     34.887  29.836674     0.5333      7.343   355.7707 3.0327e+02     0.5497      0.580      0.841    18.1388 0.0000e+00
      0.604      0.056     8.5420     89.606     34.893  29.772481     0.5243      7.342   355.2976 3.2536e+02     0.5391      0.592      0.858    18.0593 0.0000e+00
      0.619      0.056     8.5865     89.916     34.898  29.717057     0.5217      7.340   354.4833 3.4148e+02     0.5416      0.607      0.880    17.9671 0.0000e+00
      0.634      0.057     8.6455     90.400     34.907  29.674509     0.5201      7.340   354.2713 2.8743e+02     0.5488      0.623      0.903    17.8648 0.0000e+00
      0.649      0.059     8.7181     91.040     34.916  29.639000     0.5229      7.340   355.1423 2.5622e+02     0.5651      0.638      0.925    17.7551 0.0000e+00
      0.664      0.059     8.8005     91.788     34.925  29.605185     0.5368      7.340   356.6693 3.1304e+02     0.5857      0.652      0.945    17.6530 0.0000e+00
      0.679      0.058     8.8865     92.578     34.945  29.583126     0.5505      7.340   357.6773 4.6579e+02     0.6453      0.666      0.966    17.5681 0.0000e+00
      0.694      0.057     8.9736     93.388     34.962  29.562755     0.5509      7.337   357.7797 5.8863e+02     0.7363      0.681      0.987    17.4984 0.0000e+00
      0.709      0.055     9.0597     94.198     34.983  29.549345     0.5507      7.332   357.4771 5.1638e+02     0.8003      0.696      1.009    17.4379 0.0000e+00
      0.723      0.051     9.1380     94.939     35.012  29.547959     0.5569      7.325   357.1155 4.2852e+02     0.8401      0.709      1.029    17.3786 0.0000e+00
      0.738      0.047     9.2016     95.554     35.029  29.545961     0.5534      7.321   356.5915 4.7754e+02     0.8521      0.724      1.050    17.3218 0.0000e+00
      0.750      0.044     9.2494     96.031     35.012  29.525167     0.5448      7.321   356.0456 4.9775e+02     0.8221      0.738      1.070    17.2721 0.0000e+00
      0.759      0.044     9.2821     96.350     34.975  29.487042     0.5443      7.321   356.4512 4.2762e+02     0.7836      0.746      1.082    17.2286 0.0000e+00
      0.764      0.046     9.2997     96.488     34.969  29.466021     0.5477      7.319   357.5377 4.6234e+02     0.7821      0.748      1.085    17.1883 0.0000e+00
      0.773      0.051     9.3037     96.470     34.988  29.461486     0.5670      7.317   357.9977 5.3103e+02     0.8046      0.756      1.096    17.1622 0.0000e+00
      0.788      0.056     9.2979     96.349     34.979  29.432179     0.6026      7.316   357.9695 4.5115e+02     0.8120      0.772      1.119    17.1598 0.0000e+00
      0.807      0.061     9.2894     96.180     34.933  29.365668     0.6204      7.316   358.0573 3.3129e+02     0.8097      0.792      1.148    17.1570 0.0000e+00
      0.826      0.066     9.2819     96.009     34.885  29.292299     0.6168      7.314   357.5102 2.7234e+02     0.8075      0.811      1.176    17.1300 0.0000e+00
      0.844      0.068     9.2734     95.834     34.863  29.243586     0.6332      7.307   356.4309 3.1022e+02     0.7854      0.828      1.201    17.0951 0.0000e+00
      0.860      0.066     9.2643     95.650     34.873  29.221171     0.6703      7.295   356.1928 4.4836e+02     0.7566      0.844      1.224    17.0729 0.0000e+00
      0.877      0.062     9.2570     95.488     34.898  29.211745     0.6800      7.285   356.5245 5.3829e+02     0.7646      0.860      1.247    17.0310 0.0000e+00
      0.895      0.059     9.2524     95.385     34.899  29.193088     0.6671      7.282   357.0864 4.7500e+02     0.7905      0.878      1.274    16.9760 0.0000e+00
      0.911      0.057     9.2511     95.322     34.836  29.122565     0.6713      7.284   357.8239 3.8960e+02     0.7948      0.896      1.299    16.9400 0.0000e+00
      0.921      0.057     9.2526     95.243     34.798  29.057572     0.6850      7.287   356.9227 3.5913e+02     0.7859      0.903      1.309    16.8936 0.0000e+00
      0.932      0.058     9.2566     95.158     34.832  29.042242     0.6859      7.291   354.7947 3.4722e+02     0.7745      0.911      1.321    16.8394 0.0000e+00
      0.948      0.061     9.2611     95.090     34.829  29.000663     0.6818      7.295   354.1208 3.7524e+02     0.7487      0.929      1.348    16.8172 0.0000e+00
      0.965      0.064     9.2640     95.019     34.794  28.935809     0.6818      7.299   354.5384 3.8059e+02     0.7477      0.947      1.373    16.8089 0.0000e+00
      0.983      0.068     9.2674     94.950     34.786  28.893084     0.6950      7.302   355.2838 3.2813e+02     0.7932      0.963      1.397    16.7562 0.0000e+00
      1.001      0.071     9.2704     94.882     34.794  28.865044     0.7124      7.304   356.4221 2.9569e+02     0.8110      0.982      1.424    16.6785 0.0000e+00
      1.019      0.071     9.2707     94.802     34.812  28.850744     0.7089      7.304   356.9449 2.8673e+02     0.8106      1.000      1.450    16.6260 0.0000e+00
      1.038      0.071     9.2711     94.722     34.842  28.847158     0.7070      7.303   355.8399 3.1253e+02     0.8189      1.019      1.477    16.5811 0.0000e+00
      1.056      0.069     9.2771     94.691     34.850  28.821655     0.7269      7.300   353.7313 3.4428e+02     0.8191      1.036      1.503    16.5241 0.0000e+00
      1.074      0.064     9.2891     94.725     34.857  28.796351     0.7476      7.294   352.6150 3.0602e+02     0.8440      1.053      1.527    16.4723 0.0000e+00
      1.091      0.058     9.3037     94.803     34.886  28.795180     0.7454      7.291   352.4957 2.6012e+02     0.8451      1.070      1.552    16.4354 0.0000e+00
      1.107      0.053     9.3211     94.934     34.921  28.807462     0.7279      7.292   353.0642 2.5013e+02     0.8025      1.088      1.578    16.3945 0.0000e+00
      1.120      0.051     9.3381     95.083     34.943  28.817824     0.7189      7.292   354.2393 2.6107e+02     0.7868      1.101      1.597    16.3462 0.0000e+00
      1.127      0.053     9.3498     95.184     34.921  28.793452     0.7204      7.291   354.3139 3.0491e+02     0.8082      1.106      1.605    16.2999 0.0000e+00
      1.135      0.058     9.3578     95.226     34.905  28.766783     0.7270      7.288   353.1926 3.1819e+02     0.8467      1.110      1.611    16.2617 0.0000e+00
      1.149      0.065     9.3602     95.190     34.909  28.749372     0.7349      7.285   352.4689 2.7624e+02     0.8558      1.123      1.629    16.2388 0.0000e+00
      1.170      0.072     9.3521     95.042     34.889  28.709911     0.7324      7.283   352.3603 3.1644e+02     0.7962      1.147      1.663    16.2295 0.0000e+00
      1.193      0.077     9.3355     94.804     34.870  28.670643     0.7249      7.285   352.4813 3.9796e+02     0.7060      1.170      1.696    16.2276 0.0000e+00
      1.218      0.077     9.3120     94.499     34.880  28.655571     0.7270      7.288   352.8143 3.5824e+02     0.6192      1.194      1.732    16.2085 0.0000e+00
      1.240      0.073     9.2834     94.161     34.899  28.654641     0.7301      7.292   353.1165 2.8346e+02     0.5716      1.220      1.768    16.1717 0.0000e+00
      1.258      0.066     9.2565     93.862     34.916  28.659383     0.7258      7.295   353.4690 2.5772e+02     0.5571      1.235      1.791    16.1418 0.0000e+00
      1.271      0.060     9.2383     93.657     34.913  28.649401     0.7484      7.298   353.6343 2.5392e+02     0.5357      1.246      1.808    16.1074 0.0000e+00
      1.282      0.055     9.2337     93.574     34.865  28.597436     0.8101      7.299   353.1355 2.4982e+02     0.5574      1.258      1.824    16.0686 0.0000e+00
      1.293      0.052     9.2415     93.603     34.816  28.539071     0.8469      7.298   352.6868 2.2858e+02     0.5750      1.268      1.839    16.0439 0.0000e+00
      1.307      0.052     9.2545     93.679     34.810  28.515211     0.8442      7.298   352.7693 2.1192e+02     0.5650      1.280      1.857    16.0353 0.0000e+00
      1.322      0.053     9.2669     93.754     34.813  28.499417     0.8319      7.297   352.9292 2.0857e+02     0.6499      1.297      1.881    16.0291 0.0000e+00
      1.337      0.053     9.2794     93.835     34.803  28.475090     0.8088      7.296   353.5870 2.1034e+02     0.7769      1.313      1.904    16.0110 0.0000e+00
      1.350      0.052     9.2934     93.940     34.818  28.475065     0.7854      7.296   354.6995 2.1884e+02     0.8191      1.323      1.919    15.9826 0.0000e+00
      1.362      0.050     9.3077     94.061     34.857  28.499092     0.7796      7.296   355.0240 2.3248e+02     0.8246      1.335      1.937    15.9533 0.0000e+00
      1.376      0.050     9.3202     94.180     34.875  28.511582     0.7841      7.295   354.7566 2.3773e+02     0.8442      1.350      1.959    15.9275 0.0000e+00
      1.387      0.050     9.3301     94.283     34.859  28.499080     0.7854      7.288   354.4782 2.3496e+02     0.8421      1.361      1.974    15.9048 0.0000e+00
      1.397      0.050     9.3407     94.393     34.828  28.474939     0.7855      7.281   353.8944 2.3412e+02     0.8299      1.370      1.987    15.8852 0.0000e+00
      1.410      0.049     9.3549     94.530     34.829  28.473691     0.7856      7.277   353.2047 2.3766e+02     0.8189      1.381      2.002    15.8733 0.0000e+00
      1.426      0.049     9.3691     94.660     34.848  28.483989     0.8044      7.277   354.1403 2.4663e+02     0.8009      1.399      2.028    15.8710 0.0000e+00
      1.441      0.049     9.3766     94.715     34.842  28.472445     0.8387      7.278   356.4303 2.5533e+02     0.7953      1.416      2.054    15.8734 0.0000e+00
      1.451      0.051     9.3753     94.676     34.840  28.461100     0.8502      7.280   357.4050 2.5943e+02     0.8114      1.422      2.062    15.8777 0.0000e+00
      1.460      0.053     9.3668     94.562     34.867  28.473811     0.8518      7.280   357.1490 2.5286e+02     0.8133      1.431      2.075    15.8733 0.0000e+00
      1.472      0.054     9.3561     94.427     34.910  28.499121     0.8586      7.280   356.3464 2.4623e+02     0.7262      1.443      2.093    15.8652 0.0000e+00
      1.488      0.055     9.3485     94.324     34.938  28.513114     0.8596      7.280   355.1865 2.5507e+02     0.6128      1.457      2.113    15.8569 0.0000e+00
      1.507      0.056     9.3415     94.236     34.949  28.515975     0.8546      7.281   355.5997 2.7057e+02     0.6019      1.477      2.143    15.8423 0.0000e+00
      1.524      0.056     9.3355     94.171     34.972  28.533714     0.8440      7.281   357.5571 2.8470e+02     0.6248      1.496      2.170    15.8276 0.0000e+00
      1.536      0.056     9.3351     94.158     34.980  28.537094     0.8318      7.282   358.6349 2.8712e+02     0.6153      1.507      2.186    15.8145 0.0000e+00
      1.547      0.057     9.3402     94.178     34.940  28.493338     0.8266      7.282   358.5642 2.7769e+02     0.6403      1.516      2.199    15.8002 0.0000e+00
      1.559      0.058     9.3476     94.208     34.905  28.449153     0.8362      7.280   357.9927 2.7843e+02     0.7124      1.527      2.216    15.7892 0.0000e+00
      1.574      0.061     9.3504     94.204     34.917  28.447340     0.8472      7.278   357.1451 2.9027e+02     0.7859      1.541      2.236    15.7921 0.0000e+00
      1.592      0.065     9.3440     94.132     34.950  28.471410     0.8492      7.276   356.7477 2.9468e+02     0.8269      1.560      2.263    15.7918 0.0000e+00
      1.611      0.067     9.3273     93.962     34.969  28.486165     0.8606      7.273   357.1466 2.8820e+02     0.8714      1.581      2.293    15.7736 0.0000e+00
      1.630      0.067     9.2971     93.643     34.990  28.498740     0.8841      7.270   358.0958 2.8083e+02     0.9581      1.599      2.319    15.7463 0.0000e+00
      1.648      0.065     9.2561     93.206     34.998  28.496452     0.9031      7.269   358.8467 2.7048e+02     0.9911      1.617      2.345    15.7258 0.0000e+00
      1.664      0.062     9.2121     92.735     34.963  28.458487     0.9162      7.269   358.9992 2.7202e+02     0.9641      1.632      2.368    15.7267 0.0000e+00
      1.678      0.058     9.1700     92.283     34.929  28.420702     0.9229      7.270   358.8210 2.9607e+02     0.8765      1.645      2.386    15.7315 0.0000e+00
      1.692      0.056     9.1344     91.894     34.942  28.420587     0.9190      7.270   358.5843 3.1145e+02     0.6951      1.659      2.406    15.7231 0.0000e+00
      1.706      0.055     9.1074     91.589     35.001  28.457087     0.9151      7.270   358.4597 3.0200e+02     0.5707      1.674      2.428    15.7083 0.0000e+00
      1.720      0.056     9.0915     91.394     35.046  28.481000     0.9223      7.269   358.1743 2.8508e+02     0.5629      1.687      2.446    15.6940 0.0000e+00
      1.733      0.057     9.0907     91.351     35.031  28.455695     0.9416      7.267   357.9732 2.9043e+02     0.6006      1.700      2.464    15.6803 0.0000e+00
      1.747      0.058     9.1042     91.449     34.986  28.405116     0.9643      7.267   358.4377 3.0692e+02     0.6299      1.713      2.484    15.6654 0.0000e+00
      1.762      0.058     9.1247     91.613     34.970  28.377436     0.9763      7.266   358.8859 3.0768e+02     0.6429      1.727      2.505    15.6472 0.0000e+00
      1.778      0.058     9.1457     91.781     34.986  28.375014     0.9767      7.265   359.0048 3.0685e+02     0.6354      1.744      2.529    15.6288 0.0000e+00
      1.795      0.058     9.1674     91.955     35.006  28.375807     0.9597      7.265   359.1009 3.2623e+02     0.6004      1.761      2.555    15.6120 0.0000e+00
      1.810      0.058     9.1855     92.094     35.038  28.387009     0.9270      7.264   358.5851 3.3868e+02     0.5861      1.776      2.575    15.5926 0.0000e+00
      1.823      0.058     9.1951     92.148     35.053  28.383442     0.9033      7.263   357.6725 3.1918e+02     0.5841      1.788      2.593    15.5708 0.0000e+00
      1.836      0.059     9.1960     92.113     35.009  28.332652     0.9025      7.261   357.4456 3.2782e+02     0.5763      1.800      2.611    15.5486 0.0000e+00
      1.850      0.061     9.1875     91.985     34.965  28.280907     0.9174      7.259   357.6481 3.7243e+02     0.5830      1.814      2.631    15.5267 0.0000e+00
      1.866      0.063     9.1704     91.770     34.965  28.265775     0.9186      7.257   357.7971 3.6888e+02     0.5745      1.829      2.653    15.5054 0.0000e+00
      1.885      0.065     9.1485     91.506     34.998  28.276675     0.9170      7.256   358.2154 3.2684e+02     0.5642      1.848      2.681    15.4835 0.0000e+00
      1.904      0.065     9.1286     91.258     35.031  28.285674     0.9257      7.255   358.8337 3.2484e+02     0.5817      1.867      2.708    15.4605 0.0000e+00
      1.921      0.064     9.1169     91.084     35.008  28.247554     0.9217      7.254   358.2175 3.4566e+02     0.6017      1.884      2.733    15.4387 0.0000e+00
      1.936      0.063     9.1162     91.018     34.972  28.196755     0.9153      7.252   356.5301 3.5044e+02     0.6533      1.899      2.755    15.4176 0.0000e+00
      1.950      0.061     9.1260     91.061     34.975  28.179447     0.9127      7.251   355.9838 3.4952e+02     0.7480      1.911      2.774    15.3945 0.0000e+00
      1.964      0.061     9.1434     91.186     34.979  28.165262     0.9090      7.248   356.2587 3.8817e+02     0.8313      1.925      2.792    15.3699 0.0000e+00
      1.981      0.060     9.1670     91.374     34.984  28.152222     0.9165      7.242   356.5834 4.3471e+02     0.8669      1.942      2.817    15.3418 0.0000e+00
      1.998      0.056     9.1958     91.614     35.000  28.148758     0.9386      7.235   357.2427 3.9830e+02     0.8438      1.960      2.843    15.3090 0.0000e+00
      2.013      0.051     9.2246     91.859     34.987  28.123357     0.9650      7.230   356.9175 3.6261e+02     0.7952      1.975      2.863    15.2803 0.0000e+00
      2.028      0.045     9.2441     92.013     34.974  28.099089     0.9874      7.229   355.5768 3.8092e+02     0.7668      1.990      2.886    15.2568 0.0000e+00
      2.039      0.040     9.2497     92.038     35.000  28.109323     0.9975      7.229   354.9705 3.6996e+02     0.7757      2.001      2.903    15.2321 0.0000e+00
      2.044      0.036     9.2436     91.956     35.023  28.120081     0.9949      7.229   354.9205 3.4202e+02     0.7812      2.004      2.907    15.2085 0.0000e+00
      2.049      0.032     9.2319     91.833     35.003  28.102146     0.9925      7.229   355.1446 3.4639e+02     0.7723      2.008      2.912    15.1867 0.0000e+00
      2.056      0.030     9.2223     91.743     34.977  28.082977     0.9876      7.228   355.8740 3.4734e+02     0.7895      2.014      2.921    15.1669 0.0000e+00
      2.066      0.031     9.2155     91.677     34.971  28.078816     0.9722      7.228   356.3404 3.2759e+02     0.8063      2.026      2.939    15.1506 0.0000e+00
      2.076      0.036     9.2110     91.618     34.944  28.051834     0.9637      7.228   356.1377 3.2166e+02     0.7609      2.038      2.955    15.1377 0.0000e+00
      2.083      0.045     9.2095     91.574     34.905  28.010729     0.9663      7.227   355.5732 3.3478e+02     0.6684      2.043      2.964    15.1343 0.0000e+00
      2.089      0.055     9.2128     91.562     34.865  27.962805     0.9676      7.225   355.2799 3.5295e+02     0.6042      2.046      2.969    15.1424 0.0000e+00
      2.101      0.066     9.2208     91.582     34.834  27.916869     0.9704      7.221   355.5164 3.4654e+02     0.5650      2.056      2.983    15.1460 0.0000e+00
      2.123      0.080     9.2315     91.620     34.844  27.899788     0.9816      7.216   355.9382 3.1621e+02     0.5601      2.080      3.017    15.1359 0.0000e+00
      2.151      0.095     9.2448     91.661     34.863  27.883248     1.0019      7.210   356.3357 3.2348e+02     0.6369      2.109      3.060    15.1235 0.0000e+00
      2.177      0.107     9.2597     91.691     34.865  27.843849     1.0225      7.203   356.6226 3.5012e+02     0.7304      2.135      3.096    15.1006 0.0000e+00
      2.204      0.114     9.2757     91.722     34.872  27.804369     1.0378      7.197   356.8266 3.4467e+02     0.7752      2.159      3.132    15.0668 0.0000e+00
      2.236      0.117     9.2912     91.756     34.902  27.786834     1.0397      7.192   356.9095 3.4290e+02     0.8125      2.191      3.178    15.0369 0.0000e+00
      2.271      0.117     9.3060     91.799     34.912  27.758781     1.0178      7.187   356.7644 3.3537e+02     0.8448      2.229      3.233    14.9923 0.0000e+00
      2.303      0.116     9.3181     91.834     34.900  27.719133     0.9941      7.183   356.6207 3.0484e+02     0.8304      2.261      3.279    14.9284 0.0000e+00
      2.329      0.115     9.3248     91.825     34.895  27.688415     0.9831      7.180   356.6344 3.0517e+02     0.7905      2.282      3.310    14.8617 0.0000e+00
      2.355      0.114     9.3266     91.771     34.867  27.641331     0.9859      7.178   356.9294 3.1919e+02     0.7898      2.308      3.348    14.7991 0.0000e+00
      2.384      0.115     9.3214     91.649     34.839  27.594304     1.0084      7.175   357.6932 2.9974e+02     0.8223      2.339      3.394    14.7481 0.0000e+00
      2.413      0.119     9.3108     91.473     34.833  27.564278     1.0352      7.173   358.3840 2.9121e+02     0.8172      2.365      3.432    14.7071 0.0000e+00
      2.442      0.123     9.2996     91.288     34.825  27.532248     1.0427      7.170   358.3989 3.0679e+02     0.7887      2.394      3.472    14.6698 0.0000e+00
      2.474      0.121     9.2867     91.088     34.848  27.524502     1.0357      7.169   358.1308 2.9885e+02     0.7828      2.424      3.515    14.6344 0.0000e+00
      2.510      0.112     9.2794     90.956     34.887  27.534093     1.0244      7.169   357.8953 2.7555e+02     0.8076      2.460      3.567    14.5998 0.0000e+00
      2.548      0.100     9.2784     90.911     34.887  27.521183     0.9972      7.172   357.5311 2.6141e+02     0.8138      2.502      3.629    14.5634 0.0000e+00
      2.576      0.085     9.2723     90.832     34.863  27.495397     0.9741      7.175   357.0832 2.5787e+02     0.7959      2.533      3.674    14.5260 0.0000e+00
      2.589      0.069     9.2698     90.784     34.849  27.476296     0.9742      7.177   357.2979 2.5761e+02     0.8045      2.541      3.685    14.4858 0.0000e+00
      2.594      0.054     9.2719     90.772     34.869  27.480716     0.9812      7.177   358.1484 2.5323e+02     0.7960      2.542      3.687    14.4520 0.0000e+00
      2.603      0.042     9.2765     90.782     34.890  27.485334     0.9849      7.178   358.4177 2.5934e+02     0.7857      2.552      3.701    14.4376 0.0000e+00
      2.616      0.037     9.2904     90.887     34.883  27.468617     0.9816      7.178   358.1448 2.7111e+02     0.8019      2.567      3.723    14.4319 0.0000e+00
      2.626      0.036     9.3040     90.990     34.896  27.469082     0.9777      7.179   357.6880 2.6400e+02     0.8092      2.576      3.738    14.4219 0.0000e+00
      2.635      0.036     9.3136     91.053     34.938  27.490932     0.9841      7.181   357.1103 2.4899e+02     0.8130      2.583      3.746    14.4029 0.0000e+00
      2.643      0.035     9.3256     91.135     34.939  27.478801     1.0035      7.183   356.8383 2.4615e+02     0.8173      2.592      3.759    14.3832 0.0000e+00
      2.651      0.034     9.3385     91.221     34.919  27.449396     1.0295      7.184   357.4118 2.4779e+02     0.8306      2.600      3.770    14.3690 0.0000e+00
      2.659      0.035     9.3433     91.239     34.937  27.452871     1.0407      7.187   358.6231 2.5160e+02     0.8206      2.608      3.782    14.3548 0.0000e+00
      2.668      0.036     9.3351     91.154     34.945  27.457300     1.0277      7.189   359.1803 2.6050e+02     0.7871      2.617      3.796    14.3391 0.0000e+00
      2.677      0.038     9.3243     91.075     34.911  27.439443     1.0020      7.190   358.8144 2.5903e+02     0.7919      2.625      3.807    14.3216 0.0000e+00
      2.687      0.041     9.3185     91.060     34.876  27.427468     0.9867      7.191   358.1569 2.5166e+02     0.8174      2.634      3.820    14.2991 0.0000e+00
      2.698      0.043     9.3121     91.014     34.884  27.439529     0.9898      7.191   357.6836 2.5198e+02     0.8215      2.647      3.838    14.2806 0.0000e+00
      2.710      0.044     9.3036     90.906     34.919  27.458294     0.9849      7.192   357.9964 2.4583e+02     0.8112      2.657      3.854    14.2782 0.0000e+00
      2.721      0.045     9.2932     90.780     34.937  27.463837     0.9733      7.192   359.0139 2.3521e+02     0.8142      2.668      3.870    14.2913 0.0000e+00
      2.734      0.046     9.2852     90.689     34.916  27.443045     0.9774      7.192   359.7468 2.3790e+02     0.8279      2.681      3.889    14.3233 0.0000e+00
      2.746      0.046     9.2873     90.664     34.879  27.397382     0.9802      7.192   359.8889 2.4574e+02     0.8246      2.692      3.905    14.3371 0.0000e+00
      2.757      0.047     9.2966     90.658     34.869  27.356192     0.9790      7.192   359.6999 2.4620e+02     0.8045      2.703      3.920    14.3122 0.0000e+00
      2.768      0.048     9.3017     90.603     34.878  27.325969     0.9905      7.192   359.4405 2.4210e+02     0.8596      2.714      3.937    14.2940 0.0000e+00
      2.781      0.048     9.3022     90.513     34.869  27.285914     0.9996      7.192   359.3337 2.3835e+02     1.0028      2.727      3.955    14.3027 0.0000e+00
      2.794      0.048     9.3019     90.420     34.867  27.252836     0.9967      7.192   359.0972 2.3060e+02     1.0711      2.740      3.973    14.2862 0.0000e+00
      2.807      0.047     9.2980     90.292     34.896  27.243478     0.9924      7.191   359.0758 2.2017e+02     1.0436      2.753      3.992    14.2211 0.0000e+00
      2.820      0.045     9.2903     90.109     34.936  27.236230     1.0030      7.191   359.5910 2.2057e+02     0.9764      2.765      4.011    14.1671 0.0000e+00
      2.831      0.042     9.2812     89.884     34.989  27.228660     1.0241      7.190   359.9921 2.2812e+02     0.8683      2.776      4.028    14.1238 0.0000e+00
      2.840      0.039     9.2730     89.665     35.035  27.215378     1.0368      7.190   360.1399 2.2712e+02     0.8043      2.785      4.039    14.0750 0.0000e+00
      2.849      0.036     9.2655     89.478     35.071  27.202578     1.0370      7.189   360.2589 2.2035e+02     0.8137      2.794      4.052    14.0356 0.0000e+00
      2.858      0.034     9.2567     89.309     35.107  27.200850     1.0359      7.189   360.3132 2.1525e+02     0.8292      2.803      4.065    13.9836 0.0000e+00
      2.867      0.033     9.2449     89.134     35.128  27.194449     1.0413      7.189   359.9353 2.1299e+02     0.8396      2.812      4.078    13.9076 0.0000e+00
      2.875      0.032     9.2301     88.945     35.141  27.188658     1.0474      7.188   359.3896 2.1042e+02     0.8477      2.819      4.089    13.8307 0.0000e+00
      2.882      0.031     9.2131     88.751     35.162  27.194312     1.0545      7.188   359.4806 2.0320e+02     0.8351      2.826      4.099    13.7735 0.0000e+00
      2.890      0.031     9.1950     88.552     35.180  27.199299     1.0527      7.187   359.8309 1.9657e+02     0.8099      2.834      4.110    13.7331 0.0000e+00
      2.899      0.031     9.1824     88.397     35.178  27.185454     1.0353      7.186   360.1833 1.9688e+02     0.7869      2.843      4.122    13.7021 0.0000e+00
      2.906      0.032     9.1762     88.287     35.160  27.153891     1.0283      7.186   360.6436 1.9832e+02     0.8018      2.850      4.133    13.6784 0.0000e+00
      2.914      0.034     9.1695     88.153     35.169  27.135141     1.0416      7.185   359.9765 1.9300e+02     0.8376      2.857      4.143    13.6648 0.0000e+00
      2.923      0.035     9.1643     88.018     35.226  27.149211     1.0490      7.183   358.3981 1.8835e+02     0.8226      2.866      4.157    13.6557 0.0000e+00
      2.932      0.036     9.1643     87.936     35.245  27.133472     1.0436      7.181   357.8204 1.8641e+02     0.7735      2.875      4.170    13.6396 0.0000e+00
      2.942      0.038     9.1651     87.871     35.199  27.071799     1.0409      7.180   357.9818 1.8190e+02     0.7620      2.885      4.184    13.6144 0.0000e+00
      2.951      0.040     9.1627     87.783     35.186  27.038472     1.0445      7.179   358.1119 1.7947e+02     0.8053      2.895      4.198    13.5783 0.0000e+00
      2.961      0.042     9.1585     87.683     35.227  27.047977     1.0406      7.178   358.7061 1.7974e+02     0.8398      2.902      4.209    13.5318 0.0000e+00
      2.972      0.043     9.1500     87.560     35.262  27.059707     1.0119      7.177   359.5735 1.7838e+02     0.8429      2.914      4.226    13.4862 0.0000e+00
      2.985      0.045     9.1347     87.391     35.264  27.053289     0.9739      7.175   358.8777 1.7432e+02     0.8425      2.927      4.246    13.4503 0.0000e+00
      2.996      0.047     9.1169     87.196     35.250  27.033871     0.9672      7.173   356.9179 1.6911e+02     0.8358      2.938      4.261    13.4197 0.0000e+00
      3.007      0.047     9.0966     86.980     35.236  27.015410     0.9861      7.172   356.1834 1.6668e+02     0.8232      2.948      4.276    13.3832 0.0000e+00
      3.020      0.047     9.0729     86.743     35.248  27.020555     0.9906      7.171   356.5358 1.6973e+02     0.8113      2.962      4.295    13.3605 0.0000e+00
      3.032      0.047     9.0531     86.527     35.276  27.032574     0.9846      7.169   357.2204 1.7121e+02     0.8449      2.975      4.314    13.3581 0.0000e+00
      3.044      0.047     9.0407     86.335     35.313  27.033731     0.9874      7.168   358.1802 1.6434e+02     0.8929      2.985      4.330    13.3429 0.0000e+00
      3.056      0.046     9.0331     86.153     35.367  27.034512     0.9871      7.167   358.7619 1.5783e+02     0.8737      2.996      4.346    13.3251 0.0000e+00
      3.068      0.045     9.0279     85.983     35.435  27.041969     0.9720      7.165   358.2317 1.5827e+02     0.8258      3.009      4.364    13.3286 0.0000e+00
      3.079      0.045     9.0227     85.811     35.519  27.060341     0.9614      7.162   356.8450 1.6090e+02     0.8031      3.020      4.380    13.3243 0.0000e+00
      3.091      0.046     9.0166     85.641     35.581  27.066111     0.9696      7.160   356.1061 1.6142e+02     0.8128      3.031      4.396    13.2801 0.0000e+00
      3.102      0.047     9.0077     85.471     35.600  27.048179     0.9795      7.157   356.3536 1.6015e+02     0.8203      3.041      4.411    13.2168 0.0000e+00
      3.113      0.047     8.9977     85.304     35.616  27.033979     0.9795      7.155   356.8258 1.6042e+02     0.8032      3.053      4.427    13.1545 0.0000e+00
      3.126      0.048     8.9916     85.169     35.637  27.021399     0.9972      7.152   357.1688 1.6437e+02     0.7892      3.066      4.446    13.0889 0.0000e+00
      3.140      0.048     8.9899     85.079     35.676  27.023031     1.0457      7.150   357.4030 1.6752e+02     0.8032      3.079      4.466    13.0248 0.0000e+00
      3.152      0.047     8.9882     85.008     35.744  27.053671     1.0790      7.147   357.5930 1.6623e+02     0.8192      3.091      4.484    12.9826 0.0000e+00
      3.163      0.047     8.9862     84.944     35.794  27.074363     1.0880      7.144   357.3153 1.6589e+02     0.7994      3.102      4.499    12.9535 0.0000e+00
      3.174      0.047     8.9866     84.892     35.832  27.082698     1.0802      7.141   356.5403 1.6788e+02     0.8084      3.113      4.515    12.9083 0.0000e+00
      3.186      0.047     8.9878     84.837     35.877  27.090934     1.0500      7.138   356.0519 1.6654e+02     0.8980      3.124      4.531    12.8639 0.0000e+00
      3.198      0.048     8.9861     84.757     35.935  27.110415     1.0350      7.135   355.8841 1.5929e+02     0.9971      3.135      4.547    12.8380 0.0000e+00
      3.211      0.050     8.9806     84.649     35.986  27.127727     1.0455      7.132   355.8881 1.5434e+02     1.0303      3.149      4.567    12.8188 0.0000e+00
      3.224      0.052     8.9747     84.522     35.997  27.109742     1.0668      7.129   356.1862 1.5736e+02     0.9634      3.162      4.586    12.7914 0.0000e+00
      3.237      0.052     8.9657     84.342     36.011  27.083414     1.0911      7.126   356.8207 1.6453e+02     0.8591      3.174      4.604    12.7515 0.0000e+00
      3.251      0.051     8.9466     84.057     36.038  27.063349     1.0991      7.124   357.4512 1.6965e+02     0.8069      3.188      4.623    12.7156 0.0000e+00
      3.265      0.048     8.9125     83.642     36.078  27.057581     1.0998      7.121   357.4428 1.6624e+02     0.7899      3.203      4.645    12.6932 0.0000e+00
      3.278      0.045     8.8653     83.122     36.144  27.077135     1.1093      7.119   357.3219 1.5859e+02     0.8069      3.215      4.663    12.6586 0.0000e+00
      3.289      0.043     8.8183     82.618     36.219  27.109247     1.1122      7.117   357.1939 1.5258e+02     0.8291      3.225      4.678    12.6028 0.0000e+00
      3.298      0.042     8.7778     82.179     36.276  27.128337     1.1067      7.115   356.8418 1.4955e+02     0.8150      3.234      4.691    12.5437 0.0000e+00
      3.306      0.042     8.7349     81.727     36.288  27.117427     1.1075      7.112   357.8834 1.5226e+02     0.7886      3.242      4.702    12.4923 0.0000e+00
      3.315      0.044     8.6927     81.307     36.283  27.104310     1.1032      7.108   360.0651 1.5868e+02     0.7535      3.250      4.714    12.4524 0.0000e+00
      3.327      0.048     8.6615     80.997     36.282  27.096718     1.0920      7.103   360.9364 1.6182e+02     0.7260      3.262      4.732    12.4211 0.0000e+00
      3.340      0.050     8.6421     80.765     36.299  27.089123     1.0920      7.098   360.7607 1.5792e+02     0.7320      3.275      4.750    12.3890 0.0000e+00
      3.354      0.050     8.6272     80.541     36.327  27.075960     1.1033      7.095   360.2647 1.4913e+02     0.7644      3.288      4.769    12.3536 0.0000e+00
      3.370      0.048     8.6088     80.275     36.363  27.064523     1.1086      7.094   359.4126 1.4247e+02     0.7824      3.307      4.797    12.3449 0.0000e+00
      3.385      0.045     8.5858     79.978     36.426  27.077784     1.0734      7.090   359.0623 1.4252e+02     0.7665      3.323      4.819    12.3477 0.0000e+00
      3.394      0.040     8.5595     79.678     36.497  27.109271     1.0086      7.087   360.2447 1.4701e+02     0.7552      3.329      4.829    12.3171 0.0000e+00
      3.401      0.036     8.5305     79.386     36.534  27.127726     0.9691      7.085   362.3520 1.5130e+02     0.7676      3.335      4.837    12.2654 0.0000e+00
      3.409      0.032     8.5015     79.118     36.509  27.110410     0.9635      7.083   363.2900 1.5174e+02     0.7946      3.343      4.849    12.2093 0.0000e+00
      3.416      0.030     8.4755     78.892     36.473  27.090398     0.9957      7.080   363.1539 1.4878e+02     0.8064      3.351      4.860    12.1596 0.0000e+00
      3.424      0.030     8.4564     78.716     36.453  27.076258     1.0552      7.077   362.5128 1.4422e+02     0.7885      3.357      4.869    12.1296 0.0000e+00
      3.433      0.029     8.4470     78.596     36.458  27.066446     1.0939      7.075   361.3893 1.4078e+02     0.7919      3.366      4.882    12.1202 0.0000e+00
      3.441      0.028     8.4443     78.530     36.525  27.098745     1.1059      7.073   360.7553 1.3802e+02     0.8172      3.375      4.895    12.1213 0.0000e+00
      3.448      0.027     8.4398     78.476     36.600  27.149267     1.1171      7.071   361.3855 1.3388e+02     0.8807      3.381      4.904    12.1363 0.0000e+00
      3.453      0.027     8.4312     78.396     36.626  27.169319     1.1190      7.069   362.8140 1.3137e+02     0.9797      3.387      4.912    12.1453 0.0000e+00
      3.459      0.028     8.4244     78.291     36.624  27.150704     1.1011      7.067   363.5731 1.3218e+02     1.0072      3.392      4.920    12.1198 0.0000e+00
      3.465      0.030     8.4197     78.155     36.628  27.114671     1.0946      7.064   363.2500 1.3635e+02     0.9996      3.398      4.928    12.0842 0.0000e+00
      3.473      0.033     8.4155     78.002     36.691  27.114588     1.1037      7.062   362.5211 1.4035e+02     1.0097      3.406      4.940    12.0804 0.0000e+00
      3.483      0.036     8.4105     77.844     36.801  27.149643     1.1007      7.060   362.0731 1.3879e+02     0.9769      3.416      4.955    12.1003 0.0000e+00
      3.493      0.038     8.4005     77.651     36.868  27.157482     1.0954      7.057   361.9639 1.3522e+02     0.9387      3.426      4.969    12.0757 0.0000e+00
      3.503      0.040     8.3855     77.420     36.905  27.145823     1.1047      7.054   361.9752 1.3302e+02     0.9443      3.435      4.981    12.0133 0.0000e+00
      3.514      0.042     8.3703     77.185     36.945  27.135632     1.1117      7.052   362.2952 1.3137e+02     0.9533      3.447      4.997    11.9475 0.0000e+00
      3.524      0.043     8.3567     76.961     36.949  27.097726     1.1067      7.049   362.9078 1.3017e+02     0.9558      3.457      5.014    11.8799 0.0000e+00
      3.535      0.044     8.3402     76.723     36.959  27.068438     1.0986      7.046   363.4453 1.2792e+02     0.9748      3.465      5.027    11.8265 0.0000e+00
      3.547      0.044     8.3167     76.447     37.035  27.098967     1.0963      7.043   363.5459 1.2540e+02     0.9997      3.478      5.045    11.7767 0.0000e+00
      3.559      0.040     8.2842     76.122     37.119  27.149327     1.0978      7.038   363.3491 1.2535e+02     1.0128      3.490      5.063    11.7218 0.0000e+00
      3.572      0.031     8.2461     75.773     37.146  27.169351     1.0801      7.035   362.6151 1.2733e+02     1.0413      3.503      5.081    11.6654 0.0000e+00
      3.584      0.019     8.2072     75.444     37.103  27.150574     1.0484      7.032   361.8125 1.2882e+02     1.0697      3.517      5.101    11.6105 0.0000e+00
      3.589      0.007     8.1658     75.128     37.014  27.112809     1.0361      7.029   362.2486 1.2807e+02     1.0517      3.524      5.110    11.5748 0.0000e+00
      3.586     -0.003     8.1237     74.823     36.939  27.093759     1.0321      7.025   362.8971 1.2607e+02     1.0367      3.519      5.104    11.5631 0.0000e+00
      3.577     -0.009     8.0889     74.573     36.920  27.110764     1.0091      7.023   362.9428 1.2666e+02     1.0411      3.508      5.088    11.5634 0.0000e+00
      3.569     -0.009     8.0656     74.417     36.909  27.127961     0.9783      7.020   363.3177 1.2968e+02     1.0136      3.497      5.072    11.5768 0.0000e+00
      3.565     -0.002     8.0563     74.378     36.859  27.111211     0.9632      7.016   363.9029 1.3231e+02     0.9781      3.495      5.068    11.6174 0.0000e+00
      3.565      0.012     8.0633     74.431     36.849  27.098761     0.9643      7.011   363.1354 1.3289e+02     0.9785      3.497      5.071    11.6759 0.0000e+00
      3.569      0.027     8.0832     74.517     36.914  27.104425     0.9740      7.006   361.4360 1.3091e+02     0.9881      3.498      5.073    11.7161 0.0000e+00
      3.579      0.042     8.1112     74.617     37.023  27.116148     0.9792      7.002   360.9081 1.2825e+02     0.9718      3.506      5.085    11.7440 0.0000e+00
      3.594      0.053     8.1417     74.724     37.122  27.113423     0.9721      6.999   361.2269 1.2542e+02     0.9647      3.524      5.111    11.7876 0.0000e+00
      3.612      0.060     8.1658     74.800     37.151  27.071404     0.9612      6.996   362.0207 1.2161e+02     0.9934      3.543      5.138    11.7901 0.0000e+00
      3.631      0.063     8.1758     74.799     37.180  27.052517     0.9573      6.993   363.3648 1.1807e+02     1.0143      3.561      5.166    11.7203 0.0000e+00
      3.650      0.061     8.1686     74.688     37.238  27.075510     0.9621      6.991   364.1423 1.1913e+02     1.0034      3.580      5.193    11.6230 0.0000e+00
      3.665      0.056     8.1487     74.480     37.281  27.095391     0.9642      6.988   363.0757 1.2233e+02     0.9839      3.595      5.214    11.5081 0.0000e+00
      3.679      0.048     8.1221     74.189     37.320  27.102401     0.9641      6.985   360.8795 1.2218e+02     0.9915      3.608      5.233    11.4197 0.0000e+00
      3.690      0.038     8.0898     73.839     37.346  27.096744     0.9605      6.983   359.9580 1.2444e+02     1.0038      3.620      5.251    11.3682 0.0000e+00
      3.699      0.028     8.0477     73.465     37.330  27.090460     0.9574      6.981   360.1936 1.2607e+02     0.9499      3.628      5.262    11.3450 0.0000e+00
      3.705      0.019     7.9963     73.090     37.272  27.089925     0.9637      6.979   360.8024 1.2063e+02     0.8587      3.634      5.271    11.3452 0.0000e+00
      3.709      0.013     7.9498     72.747     37.223  27.090316     0.9633      6.978   361.6404 1.1516e+02     0.8163      3.639      5.278    11.3138 0.0000e+00
      3.709      0.012     7.9176     72.455     37.228  27.095235     0.9518      6.975   361.4639 1.1356e+02     0.8033      3.638      5.277    11.2593 0.0000e+00
      3.707      0.018     7.8961     72.226     37.235  27.085905     0.9359      6.972   360.3894 1.1518e+02     0.8240      3.636      5.273    11.2553 0.0000e+00
      3.707      0.030     7.8873     72.062     37.225  27.040988     0.9178      6.967   359.7478 1.1870e+02     0.9143      3.633      5.270    11.3440 0.0000e+00
      3.712      0.044     7.8957     71.922     37.298  26.996596     0.9077      6.959   359.6433 1.2109e+02     0.9798      3.635      5.272    11.4153 0.0000e+00
      3.727      0.055     7.9082     71.727     37.487  26.993536     0.9047      6.950   359.9000 1.2034e+02     0.9741      3.651      5.294    11.3891 0.0000e+00
      3.753      0.060     7.9096     71.471     37.670  27.003837     0.8912      6.941   360.4430 1.1669e+02     0.9684      3.680      5.338    11.3709 0.0000e+00
      3.779      0.059     7.9043     71.259     37.760  26.994012     0.8652      6.936   360.8739 1.1259e+02     0.9718      3.711      5.381    11.3577 0.0000e+00
      3.797      0.049     7.8989     71.127     37.824  27.001667     0.8465      6.931   361.3244 1.0967e+02     0.9538      3.727      5.404    11.2153 0.0000e+00
      3.805      0.034     7.8894     71.010     37.888  27.032847     0.8393      6.926   361.7597 1.0939e+02     0.9641      3.733      5.414    10.9871 0.0000e+00
      3.809      0.017     7.8707     70.856     37.908  27.053514     0.8425      6.923   361.5763 1.1280e+02     1.0047      3.736      5.420    10.8144 0.0000e+00
      3.809      0.002     7.8464     70.702     37.877  27.061060     0.8492      6.922   360.9138 1.1687e+02     1.0177      3.737      5.419    10.7255 0.0000e+00
      3.806     -0.006     7.8239     70.590     37.818  27.060618     0.8466      6.922   360.5478 1.1737e+02     1.0000      3.734      5.415    10.6821 0.0000e+00
      3.800     -0.009     7.8024     70.466     37.755  27.048218     0.8472      6.921   360.5918 1.1303e+02     0.9740      3.728      5.407    10.6635 0.0000e+00
      3.795     -0.008     7.7772     70.279     37.715  27.038164     0.8667      6.920   360.7587 1.0968e+02     0.9766      3.720      5.396    10.6689 0.0000e+00
      3.792     -0.003     7.7492     70.053     37.736  27.066069     0.8986      6.920   361.2745 1.1038e+02     1.0016      3.719      5.393    10.7119 0.0000e+00
      3.792      0.008     7.7234     69.833     37.730  27.068146     0.9201      6.920   362.0097 1.1064e+02     1.0321      3.718      5.392    10.7830 0.0000e+00
      3.793      0.023     7.7075     69.665     37.650  26.999794     0.9245      6.917   362.4209 1.1122e+02     1.0401      3.718      5.392    10.8272 0.0000e+00
      3.798      0.039     7.7067     69.549     37.635  26.938087     0.9150      6.912   362.8046 1.1101e+02     1.0066      3.723      5.399    10.8440 0.0000e+00
      3.809      0.054     7.7168     69.425     37.713  26.893469     0.9065      6.907   363.1216 1.0550e+02     0.9935      3.731      5.412    10.8613 0.0000e+00
      3.828      0.067     7.7281     69.260     37.815  26.841189     0.9131      6.902   362.8984 9.9163e+01     1.0037      3.751      5.441    10.8743 0.0000e+00
      3.853      0.078     7.7353     69.077     37.940  26.813822     0.9131      6.897   362.6008 9.6698e+01     1.0075      3.779      5.482    10.8733 0.0000e+00
      3.877      0.086     7.7380     68.903     38.075  26.816432     0.9061      6.892   363.3952 9.6213e+01     1.0099      3.803      5.516    10.8149 0.0000e+00
      3.897      0.091     7.7348     68.719     38.168  26.809158     0.8743      6.885   364.9322 9.5493e+01     0.9711      3.822      5.543    10.6653 0.0000e+00
      3.918      0.094     7.7243     68.489     38.233  26.789294     0.8138      6.878   365.5252 9.4728e+01     0.9050      3.842      5.572    10.4809 0.0000e+00
      3.941      0.095     7.7074     68.210     38.288  26.766682     0.7809      6.873   365.4030 9.4077e+01     0.8510      3.864      5.604    10.3225 0.0000e+00
      3.967      0.099     7.6863     67.903     38.313  26.726189     0.7707      6.869   365.0893 9.2991e+01     0.8068      3.889      5.641    10.2023 0.0000e+00
      3.995      0.104     7.6618     67.568     38.329  26.680622     0.7545      6.867   364.5717 9.2262e+01     0.7981      3.919      5.684    10.1153 0.0000e+00
      4.022      0.108     7.6345     67.203     38.386  26.660147     0.7327      6.866   364.4783 9.1609e+01     0.8062      3.945      5.720    10.0309 0.0000e+00
      4.049      0.110     7.6023     66.798     38.485  26.669055     0.7178      6.861   365.5090 8.9999e+01     0.8132      3.968      5.756     9.9492 0.0000e+00
      4.078      0.111     7.5634     66.354     38.545  26.661274     0.7121      6.855   367.2248 8.8611e+01     0.7908      3.999      5.800     9.8763 0.0000e+00
      4.108      0.112     7.5221     65.916     38.553  26.629514     0.7284      6.850   368.0161 8.8690e+01     0.7190      4.030      5.845     9.8047 0.0000e+00
      4.136      0.112     7.4848     65.531     38.554  26.602491     0.8220      6.847   367.8492 8.8573e+01     0.8308      4.056      5.883     9.7249 0.0000e+00
      4.164      0.111     7.4537     65.205     38.573  26.588491     0.9440      6.846   367.2719 8.6428e+01     1.1349      4.083      5.922     9.6414 0.0000e+00
      4.192      0.107     7.4292     64.934     38.612  26.587212     0.9720      6.846   366.5430 8.3955e+01     1.2218      4.111      5.963     9.5766 0.0000e+00
      4.222      0.102     7.4140     64.753     38.647  26.586993     0.9409      6.847   366.6932 8.2807e+01     1.0886      4.141      6.006     9.5288 0.0000e+00
      4.249      0.096     7.4108     64.692     38.669  26.585819     0.9437      6.847   367.6261 8.3127e+01     1.0495      4.169      6.046     9.4966 0.0000e+00
      4.273      0.090     7.4210     64.766     38.661  26.572995     0.9872      6.847   368.1857 8.3571e+01     1.1455      4.192      6.080     9.4660 0.0000e+00
      4.293      0.083     7.4458     64.971     38.650  26.558930     1.0353      6.845   368.2116 8.2638e+01     1.1825      4.211      6.107     9.4228 0.0000e+00
      4.312      0.077     7.4807     65.223     38.663  26.542758     1.0292      6.844   367.9389 8.1430e+01     1.0998      4.228      6.132     9.3919 0.0000e+00
      4.330      0.072     7.5195     65.470     38.674  26.504426     0.9874      6.843   367.5556 8.0450e+01     1.1222      4.247      6.160     9.3695 0.0000e+00
      4.348      0.071     7.5626     65.751     38.701  26.476391     0.9800      6.842   367.4484 7.9291e+01     1.2700      4.266      6.187     9.3594 0.0000e+00
      4.364      0.073     7.6069     66.048     38.736  26.457723     0.9947      6.840   367.4170 7.7959e+01     1.3304      4.280      6.208     9.3689 0.0000e+00
      4.380      0.077     7.6470     66.301     38.728  26.405663     0.9906      6.839   367.1763 7.6954e+01     1.2419      4.294      6.228     9.3355 0.0000e+00
      4.399      0.080     7.6850     66.526     38.728  26.354852     0.9756      6.838   367.2057 7.6686e+01     1.0850      4.314      6.256     9.2614 0.0000e+00
      4.423      0.081     7.7280     66.791     38.799  26.351288     0.9969      6.837   367.6000 7.6397e+01     1.0811      4.337      6.291     9.2011 0.0000e+00
      4.448      0.080     7.7797     67.143     38.883  26.362513     1.0459      6.835   367.7290 7.6124e+01     1.2260      4.362      6.327     9.1518 0.0000e+00
      4.472      0.078     7.8419     67.606     38.937  26.363535     1.0453      6.834   367.6463 7.6531e+01     1.2186      4.388      6.363     9.0917 0.0000e+00
      4.492      0.073     7.9129     68.167     38.973  26.363612     1.0259      6.834   367.7182 7.6918e+01     1.1444      4.408      6.393     9.0234 0.0000e+00
      4.506      0.069     7.9909     68.807     38.995  26.363412     1.0419      6.833   367.3932 7.6328e+01     1.1529      4.420      6.411     8.9544 0.0000e+00
      4.519      0.067     8.0828     69.578     39.005  26.361113     1.0635      6.831   366.7294 7.4605e+01     1.1689      4.431      6.426     8.8919 0.0000e+00
      4.534      0.067     8.1838     70.434     38.977  26.335811     1.0948      6.828   366.7474 7.2867e+01     1.2469      4.446      6.448     8.8468 0.0000e+00
      4.551      0.071     8.2822     71.271     38.947  26.311455     1.1166      6.825   367.1794 7.2249e+01     1.3022      4.463      6.473     8.8174 0.0000e+00
      4.570      0.076     8.3747     72.061     38.965  26.320601     1.1343      6.822   367.3932 7.2149e+01     1.3185      4.480      6.498     8.7996 0.0000e+00
      4.592      0.080     8.4602     72.787     38.969  26.319403     1.1710      6.819   367.6974 7.1896e+01     1.4140      4.503      6.530     8.7891 0.0000e+00
      4.615      0.084     8.5371     73.437     38.944  26.296972     1.1743      6.816   368.1902 7.1505e+01     1.4182      4.527      6.565     8.7814 0.0000e+00
      4.637      0.086     8.6075     74.029     38.962  26.303363     1.1089      6.812   367.9314 7.1314e+01     1.2473      4.548      6.595     8.7762 0.0000e+00
      4.659      0.088     8.6681     74.538     39.015  26.333169     1.0238      6.808   366.9779 7.0704e+01     1.0877      4.569      6.626     8.7734 0.0000e+00
      4.680      0.088     8.7162     74.942     39.031  26.339879     1.0095      6.804   366.6419 6.9449e+01     1.1056      4.590      6.657     8.7689 0.0000e+00
      4.702      0.087     8.7527     75.248     39.007  26.320988     1.0464      6.802   366.8800 6.8404e+01     1.2504      4.611      6.688     8.7611 0.0000e+00
      4.725      0.084     8.7731     75.419     38.971  26.295241     1.0472      6.801   367.3614 6.6898e+01     1.2511      4.634      6.721     8.7527 0.0000e+00
      4.749      0.080     8.7842     75.513     38.954  26.282552     1.0471      6.799   368.0753 6.5101e+01     1.1145      4.659      6.756     8.7458 0.0000e+00
      4.770      0.079     8.7932     75.588     38.973  26.294560     1.1092      6.796   368.6285 6.3825e+01     1.1251      4.679      6.787     8.7398 0.0000e+00
      4.788      0.080     8.7988     75.637     39.002  26.313432     1.1732      6.793   368.4573 6.2678e+01     1.2573      4.697      6.812     8.7355 0.0000e+00
      4.804      0.082     8.8042     75.682     39.012  26.320243     1.1958      6.788   367.5534 6.1709e+01     1.3088      4.711      6.832     8.7345 0.0000e+00
      4.821      0.087     8.8094     75.724     39.003  26.313421     1.2453      6.784   366.9917 6.1164e+01     1.2594      4.725      6.853     8.7336 0.0000e+00
      4.844      0.092     8.8163     75.779     38.977  26.294435     1.3298      6.781   367.0006 6.0549e+01     1.2705      4.748      6.886     8.7322 0.0000e+00
      4.873      0.096     8.8265     75.863     38.960  26.281170     1.3903      6.778   367.2308 5.9630e+01     1.4120      4.779      6.932     8.7318 0.0000e+00
      4.902      0.097     8.8365     75.946     38.960  26.280025     1.4349      6.777   367.6243 5.8927e+01     1.4448      4.809      6.976     8.7320 0.0000e+00
      4.929      0.097     8.8456     76.021     38.964  26.280592     1.5286      6.775   367.8000 5.8087e+01     1.3617      4.835      7.011     8.7310 0.0000e+00
      4.952      0.093     8.8531     76.080     38.978  26.288025     1.6682      6.772   367.7205 5.7004e+01     1.3838      4.857      7.044     8.7285 0.0000e+00
      4.973      0.087     8.8533     76.079     39.007  26.306399     1.7541      6.770   367.5234 5.6484e+01     1.4980      4.877      7.074     8.7264 0.0000e+00
      4.994      0.081     8.8473     76.029     39.014  26.312266     1.7864      6.770   367.2236 5.6194e+01     1.6139      4.898      7.104     8.7247 0.0000e+00
      5.015      0.076     8.8441     76.004     38.988  26.295466     1.8377      6.769   366.8493 5.5639e+01     1.5939      4.919      7.135     8.7228 0.0000e+00
      5.035      0.073     8.8438     75.999     38.987  26.293754     1.8968      6.769   366.5249 5.5075e+01     1.4704      4.939      7.163     8.7196 0.0000e+00
      5.051      0.073     8.8421     75.977     38.988  26.291570     1.9494      6.767   366.3995 5.4603e+01     1.4941      4.954      7.185     8.7170 0.0000e+00
      5.066      0.074     8.8408     75.954     38.962  26.269050     2.0047      6.764   366.4517 5.3708e+01     1.6371      4.968      7.205     8.7189 0.0000e+00
      5.083      0.077     8.8410     75.940     38.981  26.275442     2.0144      6.761   367.2415 5.2204e+01     1.6728      4.983      7.227     8.7223 0.0000e+00
      5.103      0.080     8.8400     75.917     39.035  26.305361     1.9566      6.758   368.2916 5.0762e+01     1.5901      5.003      7.256     8.7200 0.0000e+00
      5.127      0.082     8.8380     75.887     39.055  26.313310     1.8935      6.757   368.2223 4.9766e+01     1.5221      5.029      7.294     8.7152 0.0000e+00
      5.152      0.084     8.8367     75.865     39.055  26.308049     1.8860      6.756   367.6077 4.8958e+01     1.5830      5.054      7.330     8.7106 0.0000e+00
      5.174      0.085     8.8343     75.837     39.055  26.305239     1.9215      6.754   367.3133 4.8073e+01     1.7164      5.075      7.360     8.7008 0.0000e+00
      5.193      0.085     8.8315     75.811     39.018  26.279331     1.9086      6.750   367.3296 4.7100e+01     1.7009      5.093      7.387     8.6912 0.0000e+00
      5.212      0.085     8.8321     75.814     38.973  26.248786     1.8402      6.747   368.4067 4.6052e+01     1.5483      5.110      7.411     8.6849 0.0000e+00
      5.233      0.084     8.8352     75.838     38.981  26.253394     1.8024      6.745   370.4420 4.5104e+01     1.5186      5.131      7.442     8.6783 0.0000e+00
      5.258      0.081     8.8394     75.871     39.010  26.271539     1.8188      6.743   371.2895 4.4181e+01     1.6467      5.156      7.478     8.6748 0.0000e+00
      5.282      0.077     8.8459     75.925     39.021  26.277699     1.8548      6.743   370.8238 4.3208e+01     1.6932      5.180      7.513     8.6738 0.0000e+00
      5.303      0.072     8.8509     75.964     39.004  26.264370     1.8693      6.743   370.4899 4.2498e+01     1.6232      5.201      7.545     8.6730 0.0000e+00
      5.319      0.066     8.8517     75.967     38.966  26.237378     1.8938      6.743   369.9190 4.2111e+01     1.6551      5.217      7.567     8.6720 0.0000e+00
      5.331      0.061     8.8510     75.955     38.923  26.205317     1.9489      6.743   368.9975 4.1716e+01     1.8042      5.227      7.581     8.6704 0.0000e+00
      5.343      0.058     8.8503     75.936     38.914  26.194193     2.0209      6.743   369.2437 4.1125e+01     1.8692      5.239      7.599     8.6689 0.0000e+00
      5.358      0.058     8.8503     75.919     38.978  26.229865     2.0853      6.742   370.6586 4.0539e+01     1.7401      5.255      7.622     8.6664 0.0000e+00
      5.373      0.061     8.8504     75.903     39.027  26.255648     2.0832      6.741   371.4786 4.0049e+01     1.5247      5.269      7.642     8.6647 0.0000e+00
      5.389      0.063     8.8510     75.895     39.030  26.251947     2.0774      6.739   371.6716 3.9566e+01     1.4932      5.284      7.664     8.6629 0.0000e+00
      5.406      0.063     8.8544     75.915     39.030  26.248602     2.0894      6.738   371.9600 3.9047e+01     1.5731      5.301      7.688     8.6562 0.0000e+00
      5.424      0.064     8.8636     75.989     38.984  26.215200     2.0529      6.737   371.9541 3.8493e+01     1.5136      5.320      7.715     8.6451 0.0000e+00
      5.441      0.066     8.8795     76.121     38.913  26.165562     2.0137      6.735   371.6867 3.8048e+01     1.5053      5.338      7.742     8.6349 0.0000e+00
      5.455      0.069     8.8982     76.275     38.903  26.156393     2.0108      6.733   371.7382 3.7793e+01     1.5640      5.350      7.761     8.6279 0.0000e+00
      5.470      0.072     8.9177     76.430     38.927  26.167834     2.0548      6.731   372.0602 3.7716e+01     1.6137      5.362      7.777     8.6234 0.0000e+00
      5.489      0.073     8.9406     76.611     38.950  26.176889     2.1134      6.729   372.3963 3.7637e+01     1.7102      5.381      7.805     8.6208 0.0000e+00
      5.511      0.072     8.9631     76.794     38.995  26.202375     2.1127      6.726   372.6195 3.7247e+01     1.6930      5.404      7.838     8.6193 0.0000e+00
      5.534      0.070     8.9795     76.929     39.027  26.222003     2.0923      6.724   372.8656 3.6509e+01     1.7108      5.427      7.872     8.6166 0.0000e+00
      5.554      0.066     8.9925     77.040     39.030  26.223721     2.1057      6.724   373.1349 3.5644e+01     1.8639      5.449      7.904     8.6097 0.0000e+00
      5.569      0.062     9.0054     77.155     39.027  26.223141     2.1281      6.724   373.2084 3.5014e+01     1.8349      5.463      7.923     8.6001 0.0000e+00
      5.579      0.061     9.0193     77.277     39.012  26.214994     2.1326      6.722   372.5493 3.4668e+01     1.6053      5.470      7.933     8.5940 0.0000e+00
      5.589      0.064     9.0358     77.421     38.972  26.188717     2.1243      6.719   371.3598 3.4442e+01     1.4678      5.479      7.947     8.5917 0.0000e+00
      5.603      0.072     9.0510     77.552     38.927  26.159412     2.1380      6.715   371.0447 3.4284e+01     1.5149      5.493      7.967     8.5917 0.0000e+00
      5.623      0.082     9.0608     77.637     38.955  26.178147     2.1785      6.712   371.4074 3.3970e+01     1.6257      5.512      7.995     8.5941 0.0000e+00
      5.649      0.092     9.0698     77.714     39.024  26.224749     2.1815      6.708   371.9597 3.3424e+01     1.6474      5.538      8.033     8.5968 0.0000e+00
      5.677      0.099     9.0793     77.792     39.012  26.214906     2.1470      6.705   372.7314 3.2857e+01     1.6251      5.568      8.075     8.5979 0.0000e+00
      5.704      0.101     9.0845     77.831     38.973  26.186129     2.1568      6.703   372.9939 3.2215e+01     1.7231      5.595      8.115     8.5976 0.0000e+00
      5.732      0.098     9.0826     77.808     38.989  26.194287     2.2446      6.702   371.8646 3.1393e+01     1.8547      5.620      8.153     8.5980 0.0000e+00
      5.758      0.092     9.0767     77.751     38.981  26.186552     2.3536      6.703   370.0911 3.0576e+01     1.8735      5.649      8.193     8.5987 0.0000e+00
      5.781      0.085     9.0697     77.686     38.939  26.156094     2.3807      6.704   369.6186 2.9928e+01     1.7975      5.672      8.227     8.5976 0.0000e+00
      5.801      0.078     9.0607     77.605     38.922  26.143484     2.3425      6.704   369.9370 2.9463e+01     1.7598      5.689      8.251     8.5939 0.0000e+00
      5.819      0.073     9.0512     77.524     38.948  26.161081     2.3613      6.703   369.9836 2.9168e+01     1.8757      5.706      8.276     8.5897 0.0000e+00
      5.835      0.071     9.0451     77.472     38.974  26.178376     2.4149      6.702   370.1814 2.9030e+01     1.9773      5.723      8.301     8.5862 0.0000e+00
      5.850      0.072     9.0432     77.452     38.952  26.162103     2.4118      6.700   370.8659 2.8864e+01     1.9205      5.737      8.321     8.5834 0.0000e+00
      5.867      0.074     9.0462     77.472     38.945  26.154818     2.3877      6.699   370.8605 2.8403e+01     1.8609      5.752      8.342     8.5816 0.0000e+00
      5.888      0.076     9.0551     77.544     38.946  26.153783     2.4085      6.698   369.5140 2.7719e+01     1.9278      5.773      8.373     8.5821 0.0000e+00
      5.911      0.079     9.0672     77.646     38.940  26.149585     2.4530      6.696   368.6103 2.7081e+01     2.0588      5.797      8.408     8.5837 0.0000e+00
      5.932      0.082     9.0829     77.781     38.967  26.167556     2.4474      6.694   368.7095 2.6558e+01     2.0713      5.818      8.438     8.5805 0.0000e+00
      5.951      0.084     9.1059     77.978     38.988  26.180578     2.4132      6.693   368.9069 2.6154e+01     1.9568      5.836      8.464     8.5759 0.0000e+00
      5.970      0.084     9.1316     78.195     38.988  26.180045     2.4349      6.692   369.1902 2.5823e+01     1.9251      5.854      8.490     8.5744 0.0000e+00
      5.992      0.083     9.1517     78.364     38.961  26.161106     2.6089      6.692   369.7256 2.5438e+01     1.9625      5.875      8.523     8.5743 0.0000e+00
      6.017      0.082     9.1652     78.475     38.935  26.142067     2.8818      6.692   370.2178 2.4958e+01     1.9824      5.900      8.558     8.5744 0.0000e+00
      6.040      0.082     9.1719     78.528     38.935  26.140336     3.0133      6.690   370.3225 2.4518e+01     1.9827      5.924      8.592     8.5736 0.0000e+00
      6.060      0.082     9.1732     78.537     38.937  26.140179     3.0045      6.686   370.0460 2.4262e+01     1.9048      5.945      8.622     8.5727 0.0000e+00
      6.078      0.081     9.1727     78.530     38.938  26.140165     3.0880      6.684   369.8860 2.4036e+01     1.8647      5.960      8.644     8.5716 0.0000e+00
      6.096      0.080     9.1695     78.500     38.940  26.140163     3.2693      6.682   369.7648 2.3641e+01     1.8337      5.976      8.667     8.5690 0.0000e+00
      6.118      0.080     9.1610     78.424     38.942  26.140154     3.3498      6.682   369.4402 2.3135e+01     1.7130      5.999      8.701     8.5661 0.0000e+00
      6.142      0.081     9.1518     78.344     38.942  26.140050     3.3537      6.682   369.4027 2.2684e+01     1.7174      6.024      8.738     8.5654 0.0000e+00
      6.162      0.082     9.1505     78.333     38.941  26.138905     3.4902      6.680   370.4297 2.2308e+01     1.9179      6.044      8.765     8.5644 0.0000e+00
      6.181      0.082     9.1545     78.366     38.923  26.126311     3.7323      6.678   371.9640 2.1912e+01     2.0919      6.062      8.791     8.5624 0.0000e+00
      6.201      0.081     9.1586     78.399     38.907  26.114766     3.8452      6.677   372.3801 2.1487e+01     2.0517      6.081      8.820     8.5608 0.0000e+00
      6.222      0.078     9.1643     78.445     38.926  26.126310     3.8357      6.677   372.1047 2.1056e+01     1.9196      6.101      8.850     8.5598 0.0000e+00
      6.245      0.077     9.1737     78.523     38.946  26.138905     3.9569      6.676   371.7322 2.0680e+01     1.9595      6.124      8.882     8.5603 0.0000e+00
      6.266      0.077     9.1860     78.628     38.948  26.140050     4.2088      6.674   371.1461 2.0453e+01     2.1066      6.148      8.916     8.5599 0.0000e+00
      6.284      0.079     9.1978     78.728     38.948  26.140153     4.3450      6.671   371.9016 2.0338e+01     2.1724      6.164      8.941     8.5582 0.0000e+00
      6.298      0.082     9.2060     78.798     38.949  26.140153     4.3441      6.668   373.8971 2.0158e+01     2.1148      6.174      8.955     8.5568 0.0000e+00
      6.316      0.087     9.2099     78.829     38.951  26.140039     4.3082      6.666   374.7970 1.9772e+01     1.9903      6.191      8.979     8.5555 0.0000e+00
      6.341      0.091     9.2124     78.847     38.950  26.138780     4.2785      6.665   374.6076 1.9290e+01     2.0090      6.218      9.018     8.5549 0.0000e+00
      6.369      0.095     9.2148     78.867     38.930  26.124927     4.2791      6.664   374.1019 1.8839e+01     2.1580      6.246      9.059     8.5555 0.0000e+00
      6.398      0.095     9.2150     78.867     38.893  26.099539     4.2691      6.665   373.3297 1.8409e+01     2.1435      6.275      9.101     8.5550 0.0000e+00
      6.425      0.091     9.2120     78.839     38.874  26.085791     4.2311      6.665   372.9279 1.8025e+01     1.9561      6.301      9.139     8.5529 0.0000e+00
      6.447      0.084     9.2083     78.805     38.875  26.085687     4.2340      6.665   373.2884 1.7741e+01     1.8452      6.322      9.171     8.5519 0.0000e+00
      6.465      0.077     9.2055     78.780     38.895  26.098281     4.3129      6.666   373.9015 1.7563e+01     1.9326      6.341      9.198     8.5520 0.0000e+00
      6.481      0.070     9.1999     78.731     38.914  26.111073     4.3954      6.666   374.1467 1.7417e+01     2.0659      6.356      9.218     8.5513 0.0000e+00
      6.497      0.065     9.1943     78.686     38.916  26.113372     4.4133      6.665   374.2747 1.7205e+01     2.0227      6.371      9.240     8.5497 0.0000e+00
      6.515      0.062     9.1934     78.681     38.934  26.126071     4.4557      6.665   374.3292 1.6947e+01     1.9594      6.389      9.266     8.5481 0.0000e+00
      6.531      0.062     9.1948     78.693     38.950  26.137624     4.5952      6.665   374.0315 1.6743e+01     2.0641      6.406      9.292     8.5471 0.0000e+00
      6.545      0.062     9.1983     78.723     38.933  26.126070     4.6940      6.665   373.6874 1.6596e+01     2.0983      6.418      9.309     8.5472 0.0000e+00
      6.559      0.062     9.2033     78.764     38.916  26.113362     4.7038      6.664   373.2659 1.6407e+01     2.0061      6.430      9.327     8.5483 0.0000e+00
      6.576      0.063     9.2079     78.800     38.915  26.110959     4.6858      6.663   372.8067 1.6182e+01     1.9564      6.449      9.354     8.5500 0.0000e+00
      6.593      0.065     9.2130     78.842     38.895  26.097022     4.6425      6.663   372.8675 1.5960e+01     1.9558      6.466      9.377     8.5512 0.0000e+00
      6.609      0.068     9.2180     78.884     38.858  26.071835     4.6299      6.663   373.1403 1.5712e+01     2.0298      6.481      9.400     8.5506 0.0000e+00
      6.627      0.069     9.2190     78.893     38.841  26.060404     4.6345      6.662   373.2660 1.5450e+01     2.0564      6.498      9.425     8.5490 0.0000e+00
      6.646      0.069     9.2189     78.891     38.878  26.085800     4.5607      6.660   373.5266 1.5215e+01     1.9424      6.516      9.451     8.5473 0.0000e+00
      6.664      0.070     9.2204     78.904     38.937  26.124917     4.4724      6.660   373.8827 1.4998e+01     1.9334      6.536      9.479     8.5462 0.0000e+00
      6.682      0.071     9.2214     78.912     38.978  26.152394     4.4584      6.660   373.3554 1.4790e+01     2.0694      6.554      9.506     8.5460 0.0000e+00
      6.699      0.072     9.2229     78.924     38.996  26.164043     4.4746      6.659   372.1421 1.4619e+01     2.1214      6.570      9.528     8.5461 0.0000e+00
      6.716      0.074     9.2240     78.931     38.959  26.138770     4.4666      6.658   371.7745 1.4429e+01     2.0134      6.585      9.550     8.5463 0.0000e+00
      6.735      0.076     9.2235     78.925     38.903  26.100800     4.4261      6.657   372.0076 1.4165e+01     1.8624      6.604      9.578     8.5465 0.0000e+00
      6.756      0.078     9.2246     78.934     38.882  26.085927     4.4162      6.656   372.1212 1.3870e+01     1.8824      6.624      9.608     8.5461 0.0000e+00
      6.777      0.079     9.2256     78.943     38.882  26.085927     4.4663      6.656   372.4602 1.3584e+01     2.0409      6.646      9.639     8.5452 0.0000e+00
      6.799      0.079     9.2230     78.922     38.904  26.100802     4.4799      6.655   373.0086 1.3342e+01     2.0701      6.667      9.671     8.5440 0.0000e+00
      6.820      0.078     9.2225     78.920     38.959  26.138782     4.4890      6.653   372.7290 1.3156e+01     1.9608      6.689      9.702     8.5433 0.0000e+00
      6.839      0.076     9.2269     78.960     38.995  26.164178     4.5764      6.653   371.7470 1.2969e+01     1.9088      6.708      9.729     8.5429 0.0000e+00
      6.857      0.076     9.2300     78.989     38.978  26.153883     4.6631      6.652   371.3738 1.2740e+01     1.9913      6.724      9.753     8.5429 0.0000e+00
      6.875      0.076     9.2320     79.006     38.959  26.141290     4.7199      6.651   371.4868 1.2512e+01     2.1350      6.741      9.777     8.5435 0.0000e+00
      6.894      0.076     9.2350     79.031     38.956  26.138906     4.7581      6.649   371.7368 1.2293e+01     2.1206      6.761      9.804     8.5447 0.0000e+00
      6.914      0.077     9.2368     79.045     38.936  26.125053     4.7758      6.648   372.2452 1.2041e+01     1.9996      6.780      9.834     8.5465 0.0000e+00
      6.935      0.079     9.2358     79.036     38.901  26.100791     4.8043      6.646   372.6424 1.1784e+01     2.0452      6.801      9.865     8.5476 0.0000e+00
      6.956      0.081     9.2334     79.013     38.900  26.099541     4.8453      6.644   372.5824 1.1585e+01     2.1527      6.822      9.895     8.5475 0.0000e+00
      6.976      0.082     9.2282     78.966     38.917  26.109940     4.8776      6.642   372.1227 1.1412e+01     2.0788      6.841      9.922     8.5469 0.0000e+00
      6.996      0.082     9.2192     78.886     38.903  26.099532     4.8820      6.641   371.7298 1.1193e+01     1.8847      6.860      9.950     8.5465 0.0000e+00
      7.017      0.083     9.2117     78.821     38.905  26.100677     4.8798      6.640   371.7033 1.0967e+01     1.8804      6.882      9.982     8.5460 0.0000e+00
      7.039      0.085     9.2093     78.801     38.940  26.123783     4.9058      6.638   371.8892 1.0769e+01     2.0582      6.903     10.012     8.5451 0.0000e+00
      7.061      0.088     9.2090     78.798     38.942  26.124928     4.9115      6.636   372.1700 1.0577e+01     2.0814      6.925     10.043     8.5434 0.0000e+00
      7.083      0.093     9.2091     78.798     38.927  26.114520     4.8657      6.633   372.5167 1.0387e+01     1.9470      6.946     10.074     8.5420 0.0000e+00
      7.106      0.099     9.2111     78.814     38.943  26.124928     4.8305      6.628   372.9838 1.0203e+01     1.8681      6.969     10.107     8.5419 0.0000e+00
      7.131      0.104     9.2150     78.846     38.943  26.123784     4.8443      6.624   373.3438 1.0008e+01     1.9205      6.993     10.142     8.5416 0.0000e+00
      7.158      0.106     9.2169     78.862     38.908  26.100687     4.8579      6.622   373.1699 9.7539e+00     2.0003      7.016     10.176     8.5416 0.0000e+00
      7.190      0.105     9.2166     78.859     38.907  26.099637     4.8117      6.621   372.7734 9.4589e+00     1.9481      7.049     10.224     8.5411 0.0000e+00
      7.223      0.103     9.2196     78.884     38.924  26.111086     4.7447      6.620   372.5079 9.2326e+00     1.8699      7.087     10.278     8.5400 0.0000e+00
      7.249      0.099     9.2256     78.936     38.925  26.112126     4.7372      6.620   372.3690 9.0876e+00     1.9395      7.112     10.315     8.5396 0.0000e+00
      7.268      0.095     9.2306     78.979     38.925  26.112212     4.7852      6.621   372.3846 8.9379e+00     2.0873      7.127     10.337     8.5395 0.0000e+00
      7.288      0.092     9.2358     79.024     38.925  26.112125     4.8558      6.621   372.8691 8.7474e+00     2.1623      7.146     10.364     8.5395 0.0000e+00
      7.310      0.091     9.2425     79.082     38.923  26.111085     4.9194      6.620   373.5807 8.5414e+00     2.0826      7.169     10.398     8.5397 0.0000e+00
      7.334      0.093     9.2474     79.124     38.906  26.099636     4.9304      6.619   373.5894 8.3532e+00     1.9166      7.193     10.432     8.5398 0.0000e+00
      7.359      0.096     9.2501     79.147     38.907  26.100677     4.9421      6.617   373.2324 8.1703e+00     1.8954      7.216     10.466     8.5395 0.0000e+00
      7.385      0.096     9.2511     79.156     38.942  26.123670     5.0242      6.617   372.9635 7.9769e+00     1.9789      7.242     10.505     8.5395 0.0000e+00
      7.412      0.094     9.2490     79.138     38.942  26.123670     5.0962      6.618   372.6614 7.7934e+00     1.9497      7.270     10.545     8.5399 0.0000e+00
      7.437      0.092     9.2448     79.101     38.907  26.100667     5.0960      6.618   372.5049 7.6441e+00     1.9698      7.295     10.581     8.5402 0.0000e+00
      7.459      0.089     9.2391     79.052     38.906  26.099522     5.0865      6.618   372.7926 7.5252e+00     2.0390      7.315     10.610     8.5403 0.0000e+00
      7.479      0.084     9.2328     78.998     38.921  26.109827     5.0913      6.618   373.4716 7.4065e+00     2.0229      7.334     10.637     8.5400 0.0000e+00
      7.500      0.081     9.2285     78.961     38.904  26.098274     5.0904      6.618   373.8323 7.2740e+00     2.0194      7.354     10.666     8.5397 0.0000e+00
      7.521      0.081     9.2250     78.931     38.887  26.086824     5.0656      6.615   373.8838 7.1381e+00     1.9654      7.376     10.698     8.5397 0.0000e+00
      7.542      0.083     9.2224     78.909     38.905  26.098387     5.0214      6.613   374.0086 7.0268e+00     1.9502      7.397     10.729     8.5400 0.0000e+00
      7.560      0.088     9.2217     78.903     38.924  26.111087     4.9970      6.612   374.0511 6.9261e+00     2.0497      7.414     10.753     8.5399 0.0000e+00
      7.580      0.094     9.2207     78.895     38.927  26.113386     4.9725      6.611   373.9665 6.7837e+00     2.0388      7.431     10.778     8.5396 0.0000e+00
      7.605      0.099     9.2228     78.912     38.947  26.126179     4.9368      6.608   374.0180 6.6032e+00     1.9103      7.456     10.814     8.5392 0.0000e+00
      7.635      0.103     9.2302     78.973     38.967  26.138783     4.9242      6.607   374.3308 6.4236e+00     1.8388      7.487     10.859     8.5390 0.0000e+00
      7.665      0.105     9.2380     79.038     38.968  26.138784     4.9206      6.607   374.5646 6.2398e+00     1.8457      7.517     10.902     8.5393 0.0000e+00
      7.693      0.106     9.2452     79.099     38.949  26.126190     4.9575      6.607   374.6086 6.0440e+00     1.9331      7.545     10.943     8.5395 0.0000e+00
      7.719      0.103     9.2519     79.158     38.930  26.113500     5.0215      6.606   374.5176 5.8843e+00     2.0103      7.571     10.981     8.5391 0.0000e+00
      7.744      0.097     9.2555     79.189     38.928  26.112338     5.0238      6.606   374.2388 5.7687e+00     1.9544      7.594     11.015     8.5380 0.0000e+00
      7.769      0.091     9.2554     79.187     38.928  26.112138     5.0039      6.607   373.9048 5.6464e+00     1.8681      7.618     11.049     8.5370 0.0000e+00
      7.794      0.085     9.2522     79.161     38.926  26.111078     4.9457      6.608   373.6628 5.5183e+00     1.8820      7.644     11.086     8.5370 0.0000e+00
      7.815      0.080     9.2467     79.118     38.906  26.099524     4.8261      6.610   373.6355 5.4185e+00     2.0312      7.666     11.119     8.5375 0.0000e+00
      7.833      0.076     9.2405     79.071     38.902  26.099429     4.7339      6.610   373.8334 5.3381e+00     2.0851      7.681     11.142     8.5379 0.0000e+00
      7.849      0.074     9.2365     79.040     38.915  26.109933     4.6860      6.609   374.0766 5.2635e+00     1.9539      7.697     11.163     8.5376 0.0000e+00
      7.865      0.074     9.2355     79.031     38.900  26.099542     4.7615      6.608   374.2528 5.1905e+00     1.9405      7.714     11.188     8.5375 0.0000e+00
      7.883      0.076     9.2359     79.030     38.905  26.100782     4.9385      6.607   374.3303 5.1031e+00     2.0150      7.729     11.211     8.5393 0.0000e+00
      7.903      0.081     9.2381     79.043     38.944  26.124920     5.0254      6.607   374.2386 4.9988e+00     2.0301      7.750     11.240     8.5431 0.0000e+00
      7.926      0.086     9.2426     79.079     38.965  26.137410     5.0125      6.607   374.0904 4.8989e+00     2.0318      7.774     11.275     8.5463 0.0000e+00
      7.950      0.090     9.2452     79.099     38.947  26.124808     5.0029      6.606   374.0867 4.8103e+00     2.0046      7.797     11.308     8.5456 0.0000e+00
      7.973      0.093     9.2432     79.081     38.909  26.099534     5.0384      6.605   374.1938 4.7136e+00     2.0366      7.819     11.340     8.5421 0.0000e+00
      7.997      0.093     9.2413     79.066     38.889  26.085805     5.0735      6.604   374.3528 4.6057e+00     2.0526      7.841     11.373     8.5393 0.0000e+00
      8.022      0.092     9.2428     79.079     38.889  26.085795     5.0596      6.603   374.4606 4.4979e+00     1.9544      7.866     11.410     8.5379 0.0000e+00
      8.047      0.090     9.2468     79.114     38.909  26.099420     4.9909      6.603   374.4653 4.4022e+00     1.9471      7.893     11.447     8.5370 0.0000e+00
      8.070      0.088     9.2504     79.145     38.945  26.123558     4.9043      6.603   374.4095 4.3213e+00     2.0566      7.915     11.481     8.5364 0.0000e+00
      8.091      0.085     9.2504     79.144     38.945  26.123661     4.8663      6.602   374.3016 4.2494e+00     2.1191      7.935     11.509     8.5368 0.0000e+00
      8.111      0.084     9.2499     79.139     38.911  26.100667     4.8718      6.602   374.2792 4.1809e+00     2.0613      7.953     11.535     8.5372 0.0000e+00
      8.131      0.084     9.2510     79.147     38.910  26.099524     4.8610      6.601   374.3117 4.1116e+00     1.9378      7.973     11.564     8.5376 0.0000e+00
      8.152      0.085     9.2509     79.143     38.927  26.109829     4.9006      6.601   374.3502 4.0414e+00     1.9384      7.994     11.594     8.5380 0.0000e+00
      8.174      0.087     9.2482     79.119     38.911  26.098276     5.0293      6.600   374.4867 3.9688e+00     2.0679      8.015     11.625     8.5380 0.0000e+00
      8.197      0.089     9.2443     79.086     38.894  26.086827     5.0843      6.599   374.6705 3.8787e+00     2.0695      8.039     11.659     8.5371 0.0000e+00
      8.220      0.090     9.2420     79.065     38.911  26.098390     5.0605      6.599   374.6808 3.7665e+00     1.8965      8.062     11.692     8.5356 0.0000e+00
      8.244      0.089     9.2432     79.075     38.931  26.111090     5.0995      6.599   374.4389 3.6727e+00     1.8075      8.085     11.727     8.5347 0.0000e+00
      8.268      0.088     9.2472     79.107     38.935  26.113389     5.1971      6.599   374.2409 3.6153e+00     1.9393      8.108     11.760     8.5342 0.0000e+00
      8.290      0.087     9.2510     79.138     38.955  26.126192     5.2671      6.598   374.2645 3.5569e+00     2.1170      8.131     11.793     8.5341 0.0000e+00
      8.311      0.084     9.2525     79.149     38.975  26.138900     5.2647      6.598   374.2942 3.4879e+00     2.1248      8.150     11.820     8.5337 0.0000e+00
      8.332      0.080     9.2531     79.153     38.978  26.140046     5.1413      6.599   374.3426 3.4159e+00     2.0343      8.171     11.851     8.5332 0.0000e+00
      8.353      0.078     9.2534     79.155     38.978  26.140048     4.9697      6.599   374.5050 3.3485e+00     2.0595      8.193     11.883     8.5323 0.0000e+00
      8.373      0.078     9.2527     79.148     38.977  26.138926     4.9181      6.598   374.6240 3.3022e+00     2.1547      8.212     11.910     8.5311 0.0000e+00
      8.391      0.079     9.2486     79.112     38.959  26.126479     4.9403      6.598   374.6620 3.2604e+00     2.1790      8.229     11.935     8.5307 0.0000e+00
      8.409      0.081     9.2395     79.034     38.944  26.116537     4.9621      6.597   374.6201 3.2023e+00     2.1087      8.245     11.958     8.5298 0.0000e+00
      8.429      0.083     9.2298     78.951     38.988  26.145715     4.9978      6.596   374.5481 3.1304e+00     2.0376      8.265     11.987     8.5288 0.0000e+00
      8.452      0.085     9.2226     78.890     39.012  26.161792     5.0413      6.596   374.4791 3.0628e+00     2.0816      8.288     12.020     8.5284 0.0000e+00
      8.477      0.087     9.2177     78.850     38.949  26.120431     5.0832      6.595   374.3876 3.0083e+00     2.0614      8.313     12.057     8.5287 0.0000e+00
      8.500      0.087     9.2149     78.827     38.903  26.090090     5.0905      6.594   374.3036 2.9490e+00     1.9155      8.337     12.092     8.5287 0.0000e+00
      8.522      0.086     9.2159     78.835     38.936  26.112416     5.1020      6.593   374.5813 2.8950e+00     1.8737      8.357     12.121     8.5284 0.0000e+00
      8.542      0.086     9.2209     78.879     38.972  26.136391     5.1581      6.591   375.2499 2.8560e+00     1.9827      8.377     12.150     8.5288 0.0000e+00
      8.562      0.086     9.2269     78.930     38.957  26.125985     5.2186      6.590   375.5910 2.7963e+00     2.1052      8.397     12.178     8.5295 0.0000e+00
      8.583      0.087     9.2328     78.982     38.937  26.113590     5.2538      6.590   375.5216 2.7253e+00     2.0724      8.417     12.207     8.5300 0.0000e+00
      8.607      0.087     9.2388     79.034     38.937  26.113513     5.1980      6.591   375.2721 2.6743e+00     1.9519      8.439     12.240     8.5300 0.0000e+00
      8.632      0.087     9.2429     79.069     38.954  26.125058     5.0951      6.591   374.8981 2.6319e+00     1.9913      8.465     12.279     8.5295 0.0000e+00
      8.655      0.086     9.2450     79.087     38.956  26.126194     5.0762      6.590   374.6983 2.5890e+00     2.1526      8.489     12.312     8.5299 0.0000e+00
      8.676      0.084     9.2470     79.102     38.958  26.127243     5.1069      6.589   375.2653 2.5418e+00     2.2235      8.508     12.340     8.5309 0.0000e+00
      8.696      0.082     9.2494     79.122     38.974  26.137738     5.1083      6.589   376.5050 2.4869e+00     2.1161      8.527     12.369     8.5315 0.0000e+00
      8.716      0.081     9.2509     79.133     38.958  26.126097     5.0842      6.589   377.1260 2.4304e+00     1.9227      8.547     12.397     8.5316 0.0000e+00
      8.735      0.082     9.2514     79.136     38.939  26.113486     5.0908      6.589   376.8374 2.3779e+00     1.9300      8.566     12.424     8.5309 0.0000e+00
      8.755      0.083     9.2519     79.141     38.938  26.112246     5.1326      6.589   376.2845 2.3313e+00     2.1122      8.585     12.452     8.5304 0.0000e+00
      8.777      0.083     9.2533     79.152     38.936  26.111101     5.1022      6.588   375.9480 2.2856e+00     2.1117      8.607     12.483     8.5300 0.0000e+00
      8.800      0.083     9.2517     79.139     38.919  26.099641     4.9989      6.588   376.0372 2.2397e+00     2.0154      8.630     12.516     8.5290 0.0000e+00
      8.822      0.083     9.2465     79.094     38.920  26.100680     4.9494      6.588   376.5887 2.2100e+00     1.9857      8.652     12.549     8.5287 0.0000e+00
      8.843      0.082     9.2411     79.049     38.954  26.123665     4.9731      6.588   377.5404 2.1810e+00     1.9653      8.672     12.579     8.5288 0.0000e+00
      8.862      0.081     9.2324     78.975     38.954  26.123571     5.0013      6.588   378.1664 2.1310e+00     1.9832      8.691     12.605     8.5284 0.0000e+00
      8.882      0.078     9.2227     78.891     38.919  26.099539     4.9774      6.588   378.2205 2.0778e+00     1.9280      8.710     12.633     8.5283 0.0000e+00
      8.903      0.076     9.2169     78.841     38.900  26.087069     4.9321      6.588   377.9364 2.0223e+00     1.8775      8.731     12.663     8.5289 0.0000e+00
      8.923      0.074     9.2115     78.794     38.919  26.099791     4.9405      6.588   377.4848 1.9829e+00     1.9828      8.751     12.693     8.5293 0.0000e+00
      8.942      0.074     9.2080     78.764     38.959  26.126367     4.9690      6.588   377.3195 1.9749e+00     2.0413      8.770     12.720     8.5290 0.0000e+00
      8.959      0.075     9.2101     78.781     39.003  26.154417     5.0095      6.587   377.4871 1.9575e+00     1.9442      8.786     12.743     8.5287 0.0000e+00
      8.976      0.076     9.2146     78.816     39.050  26.184967     5.0814      6.587   377.8770 1.9186e+00     1.8763      8.802     12.766     8.5288 0.0000e+00
      8.995      0.078     9.2199     78.859     39.041  26.178259     5.1037      6.587   378.3340 1.8763e+00     1.9528      8.820     12.793     8.5287 0.0000e+00
      9.016      0.080     9.2266     78.915     38.980  26.136814     5.1037      6.585   378.6239 1.8345e+00     2.0764      8.842     12.824     8.5281 0.0000e+00
      9.039      0.083     9.2308     78.950     38.968  26.128324     5.1007      6.583   378.8875 1.7968e+00     2.0577      8.864     12.856     8.5271 0.0000e+00
      9.061      0.084     9.2305     78.947     38.984  26.139095     5.0479      6.583   379.1119 1.7671e+00     1.9107      8.886     12.887     8.5253 0.0000e+00
      9.082      0.083     9.2282     78.927     38.986  26.140065     5.0080      6.582   378.4120 1.7459e+00     1.8552      8.907     12.918     8.5238 0.0000e+00
      9.104      0.081     9.2250     78.900     38.985  26.140040     5.0035      6.582   376.9638 1.7180e+00     1.9666      8.928     12.949     8.5235 0.0000e+00
      9.125      0.078     9.2204     78.863     38.982  26.138798     5.0123      6.583   376.4008 1.6717e+00     2.1279      8.950     12.980     8.5235 0.0000e+00
      9.144      0.076     9.2133     78.804     38.961  26.125051     5.0045      6.583   376.5943 1.6381e+00     2.0957      8.969     13.008     8.5232 0.0000e+00
      9.163      0.074     9.2018     78.708     38.923  26.100808     4.9727      6.582   376.7227 1.6221e+00     1.9127      8.986     13.033     8.5229 0.0000e+00
      9.181      0.074     9.1880     78.592     38.920  26.099663     4.9871      6.582   377.2656 1.6029e+00     1.8994      9.004     13.059     8.5232 0.0000e+00
      9.198      0.075     9.1775     78.504     38.937  26.111208     5.1143      6.581   378.0818 1.5776e+00     1.9967      9.020     13.083     8.5244 0.0000e+00
      9.217      0.077     9.1725     78.459     38.941  26.113403     5.2878      6.580   377.1265 1.5380e+00     2.0519      9.037     13.107     8.5254 0.0000e+00
      9.237      0.079     9.1690     78.427     38.961  26.126211     5.3392      6.580   374.7491 1.5050e+00     2.0779      9.057     13.136     8.5263 0.0000e+00
      9.259      0.081     9.1655     78.395     38.982  26.139074     5.2854      6.580   373.7723 1.4844e+00     2.0055      9.080     13.170     8.5276 0.0000e+00
      9.281      0.083     9.1653     78.391     38.988  26.141939     5.2615      6.579   373.9208 1.4600e+00     2.0320      9.102     13.202     8.5286 0.0000e+00
      9.302      0.086     9.1697     78.426     39.017  26.160840     5.2803      6.578   374.5653 1.4255e+00     2.2153      9.122     13.232     8.5280 0.0000e+00
      9.323      0.089     9.1743     78.464     39.042  26.177116     5.2742      6.576   375.7136 1.3865e+00     2.2379      9.142     13.260     8.5263 0.0000e+00
      9.344      0.091     9.1771     78.488     38.999  26.148246     5.2239      6.575   376.1041 1.3571e+00     2.1824      9.163     13.289     8.5250 0.0000e+00
      9.368      0.093     9.1794     78.507     38.971  26.129260     5.1966      6.572   374.9843 1.3311e+00     2.2473      9.186     13.323     8.5238 0.0000e+00
      9.394      0.094     9.1827     78.536     38.984  26.138038     5.2293      6.571   372.9289 1.2999e+00     2.3203      9.212     13.362     8.5224 0.0000e+00
      9.420      0.094     9.1873     78.576     38.969  26.127387     5.2792      6.571   371.6449 1.2656e+00     2.2709      9.239     13.401     8.5218 0.0000e+00
      9.445      0.093     9.1886     78.587     38.969  26.127469     5.2756      6.570   371.5047 1.2362e+00     2.1385      9.262     13.436     8.5216 0.0000e+00
      9.468      0.090     9.1876     78.577     38.987  26.139030     5.2401      6.570   371.8358 1.2127e+00     2.1238      9.285     13.467     8.5215 0.0000e+00
      9.489      0.087     9.1873     78.573     38.989  26.140185     5.2641      6.570   372.2922 1.1902e+00     2.2145      9.306     13.496     8.5217 0.0000e+00
      9.510      0.084     9.1850     78.553     38.991  26.141425     5.3094      6.570   372.4631 1.1637e+00     2.1679      9.327     13.527     8.5218 0.0000e+00
      9.532      0.081     9.1817     78.526     39.009  26.154028     5.3094      6.569   372.5259 1.1355e+00     1.9865      9.349     13.559     8.5214 0.0000e+00
      9.554      0.078     9.1806     78.519     39.025  26.165573     5.2914      6.568   372.3633 1.1177e+00     1.8830      9.369     13.589     8.5210 0.0000e+00
      9.574      0.075     9.1795     78.511     39.006  26.154029     5.2668      6.567   371.6156 1.1040e+00     1.9550      9.389     13.619     8.5206 0.0000e+00
      9.593      0.070     9.1750     78.473     38.987  26.141435     5.2416      6.569   370.8847 1.0763e+00     2.0929      9.408     13.645     8.5205 0.0000e+00
      9.610      0.065     9.1713     78.441     38.986  26.140299     5.2067      6.571   370.6674 1.0465e+00     2.0859      9.424     13.668     8.5207 0.0000e+00
      9.625      0.059     9.1703     78.431     38.986  26.140291     5.1580      6.572   370.6221 1.0308e+00     1.9620      9.439     13.691     8.5221 0.0000e+00
      9.640      0.054     9.1684     78.415     38.988  26.141337     5.1309      6.572   370.5095 1.0227e+00     1.9689      9.454     13.713     8.5241 0.0000e+00
      9.653      0.050     9.1674     78.406     39.006  26.152942     5.1179      6.572   371.1129 1.0154e+00     2.1079      9.467     13.731     8.5243 0.0000e+00
      9.665      0.045     9.1679     78.409     39.007  26.153609     5.1013      6.571   372.1538 1.0009e+00     2.1775      9.478     13.746     8.5233 0.0000e+00
      9.676      0.039     9.1672     78.402     39.001  26.149412     5.0688      6.571   372.1673 9.9256e-01     2.1086      9.490     13.762     8.5228 0.0000e+00
      9.686      0.032     9.1635     78.371     39.026  26.165696     4.9809      6.572   371.7061 1.0026e+00     2.0990      9.500     13.778     8.5223 0.0000e+00
      9.694      0.026     9.1590     78.333     39.018  26.160005     4.9026      6.574   371.2240 1.0045e+00     2.2445      9.507     13.789     8.5220 0.0000e+00
      9.699      0.020     9.1543     78.294     38.993  26.144097     4.9134      6.574   370.4678 9.9007e-01     2.2806      9.513     13.797     8.5218 0.0000e+00
      9.702      0.015     9.1502     78.259     39.022  26.163827     4.9181      6.575   370.1348 9.8141e-01     2.1691      9.516     13.801     8.5212 0.0000e+00
      9.704      0.013     9.1506     78.264     39.087  26.208081     4.8683      6.575   371.2414 9.8448e-01     2.1172      9.517     13.803     8.5212 0.0000e+00
      9.705      0.013     9.1525     78.284     39.125  26.234711     4.7330      6.575   373.2645 9.8908e-01     2.1726      9.517     13.803     8.5216 0.0000e+00
      9.707      0.015     9.1532     78.297     39.116  26.231825     4.5417      6.576   374.0335 9.9308e-01     2.2586      9.519     13.806     8.5219 0.0000e+00
      9.711      0.018     9.1537     78.320     39.111  26.236680     4.4755      6.577   373.6559 9.9416e-01     2.2415      9.522     13.811     8.5225 0.0000e+00
      9.717      0.019     9.1556     78.362     39.086  26.229925     4.4928      6.576   372.9149 9.8381e-01     2.1489      9.528     13.819     8.5229 0.0000e+00
      9.725      0.019     9.1604     78.417     39.053  26.213659     4.6314      6.575   371.7851 9.6886e-01     2.1767      9.537     13.832     8.5247 0.0000e+00
      9.731      0.018     9.1649     78.452     39.080  26.230494     4.9304      6.575   371.0951 9.6585e-01     2.3028      9.544     13.843     8.5266 0.0000e+00
      9.736      0.015     9.1634     78.432     39.103  26.243003     5.1020      6.575   371.6276 9.6842e-01     2.3617      9.549     13.849     8.5359 0.0000e+00
      9.738      0.012     9.1537     78.347     39.097  26.237901     5.1078      6.575   372.9744 9.6970e-01     2.2778      9.550     13.851     8.5556 0.0000e+00
      9.738      0.010     9.1399     78.230     39.088  26.232296     4.9999      6.576   373.6988 9.7598e-01     2.0818      9.550     13.851     8.5642 0.0000e+00
      9.739      0.010     9.1255     78.110     39.095  26.238731     4.8094      6.577   373.5031 9.8351e-01     2.0063      9.550     13.852     8.5579 0.0000e+00
      9.742      0.011     9.1117     77.998     39.112  26.252209     4.7245      6.578   373.0171 9.8333e-01     2.1280      9.553     13.855     8.5523 0.0000e+00
      9.746      0.012     9.1000     77.903     39.132  26.268275     4.7082      6.578   372.6411 9.8054e-01     2.1487      9.557     13.861     8.5530 0.0000e+00
      9.750      0.013     9.0904     77.823     39.187  26.306000     4.6497      6.578   372.4837 9.7580e-01     2.0439      9.562     13.868     8.5536 0.0000e+00
      9.754      0.013     9.0833     77.763     39.219  26.327357     4.5955      6.577   372.1466 9.5758e-01     1.9901      9.567     13.874     8.5543 0.0000e+00
      9.758      0.012     9.0818     77.754     39.229  26.336019     4.6046      6.577   371.7493 9.4690e-01     1.9861      9.569     13.879     8.5586 0.0000e+00
      9.760      0.011     9.0829     77.766     39.244  26.347239     4.6304      6.577   371.6382 9.4825e-01     1.9959      9.572     13.882     8.5622 0.0000e+00
      9.762 -9.990e-29 -9.990e-29 -9.990e-29 -9.990e-29 -9.990e-29 -9.990e-29 -9.990e-29 -9.990e-29 9.3432e-01 -9.990e-29      9.574     13.885     8.5628 0.0000e+00
      9.764 -9.990e-29 -9.990e-29 -9.990e-29 -9.990e-29 -9.990e-29 -9.990e-29 -9.990e-29 -9.990e-29 9.2193e-01 -9.990e-29      9.575     13.888     8.5618 0.0000e+00
      9.765 -9.990e-29 -9.990e-29 -9.990e-29 -9.990e-29 -9.990e-29 -9.990e-29 -9.990e-29 -9.990e-29 9.3326e-01 -9.990e-29      9.576     13.889     8.5648 0.0000e+00
      9.765 -9.990e-29 -9.990e-29 -9.990e-29 -9.990e-29 -9.990e-29 -9.990e-29 -9.990e-29 -9.990e-29 9.4422e-01 -9.990e-29      9.576     13.889     8.5687 0.0000e+00
