* Sea-Bird SBE19plus  Data File:
* FileName = C:\DATA\050718_fcr_0001.hex
* Software version 2.6.3.104 SB_Terminal.dll
* Temperature SN = 7809
* Conductivity SN = 7809
* System UpLoad Time = May 07 2018 16:23:31
* <ApplicationData>
* <Seaterm232>
* <SoftwareVersion>2.6.3.104</SoftwareVersion>
* <BuildDate>30-Jun-2017</BuildDate>
* </Seaterm232>
* </ApplicationData>
* cast   1 07 May 2018 14:27:07 samples 1 to 764, avg = 1, stop = mag switch
# nquan = 15
# nvalues = 691                         
# units = specified
# name 0 = depFM: Depth [fresh water, m]
# name 1 = dz/dtM: Descent Rate [m/s]
# name 2 = sbeox0Mg/L: Oxygen, SBE 43 [mg/l]
# name 3 = sbeox0PS: Oxygen, SBE 43 [% saturation]
# name 4 = specc: Specific Conductance [uS/cm]
# name 5 = c0uS/cm: Conductivity [uS/cm]
# name 6 = flECO-AFL: Fluorescence, WET Labs ECO-AFL/FL [mg/m^3]
# name 7 = ph: pH
# name 8 = orp: Oxidation Reduction Potential [mV]
# name 9 = par/sat/log: PAR/Logarithmic, Satlantic
# name 10 = turbWETntu0: Turbidity, WET Labs ECO [NTU]
# name 11 = prdM: Pressure, Strain Gauge [db]
# name 12 = prdE: Pressure, Strain Gauge [psi]
# name 13 = tv290C: Temperature [ITS-90, deg C]
# name 14 = flag:  0.000e+00
# span 0 =     -0.560,      2.440       
# span 1 =     -0.131,      0.235       
# span 2 =     5.4449,    11.8667       
# span 3 =     58.761,    116.938       
# span 4 =      0.834,     37.057       
# span 5 =   0.763165,  32.115306       
# span 6 =    -2.1820,     2.9786       
# span 7 =      5.150,      7.576       
# span 8 =  -647.6872,  1152.8364       
# span 9 = 1.3284e+02, 2.0287e+03       
# span 10 =    -5.6564,     2.7374      
# span 11 =     -0.550,      2.393      
# span 12 =     -0.797,      3.471      
# span 13 =    14.6350,    20.7384      
# span 14 = 0.0000e+00, 0.0000e+00      
# interval = seconds: 0.25
# start_time = May 07 2018 14:27:07 [Instrument's time stamp, header]
# bad_flag = -9.990e-29
# <Sensors count="9" >
#   <sensor Channel="1" >
#     <!-- Count, Temperature -->
#     <TemperatureSensor SensorID="58" >
#       <SerialNumber>7809</SerialNumber>
#       <CalibrationDate>09-Mar-18</CalibrationDate>
#       <A0>1.21093245e-003</A0>
#       <A1>2.84356597e-004</A1>
#       <A2>-1.94507398e-006</A2>
#       <A3>2.12806664e-007</A3>
#       <Slope>1.00000000</Slope>
#       <Offset>0.0000</Offset>
#     </TemperatureSensor>
#   </sensor>
#   <sensor Channel="2" >
#     <!-- Frequency 0, Conductivity -->
#     <ConductivitySensor SensorID="3" >
#       <SerialNumber>7809</SerialNumber>
#       <CalibrationDate>09-Mar-18</CalibrationDate>
#       <UseG_J>1</UseG_J>
#       <!-- Cell const and series R are applicable only for wide range sensors. -->
#       <SeriesR>0.0000</SeriesR>
#       <CellConst>2000.0000</CellConst>
#       <ConductivityType>0</ConductivityType>
#       <Coefficients equation="0" >
#         <A>0.00000000e+000</A>
#         <B>0.00000000e+000</B>
#         <C>0.00000000e+000</C>
#         <D>0.00000000e+000</D>
#         <M>0.0</M>
#         <CPcor>-9.57000000e-008</CPcor>
#       </Coefficients>
#       <Coefficients equation="1" >
#         <G>-1.00672082e+000</G>
#         <H>1.26906489e-001</H>
#         <I>-1.40584351e-004</I>
#         <J>2.47837121e-005</J>
#         <CPcor>-9.57000000e-008</CPcor>
#         <CTcor>3.2500e-006</CTcor>
#         <!-- WBOTC not applicable unless ConductivityType = 1. -->
#         <WBOTC>0.00000000e+000</WBOTC>
#       </Coefficients>
#       <Slope>1.00000000</Slope>
#       <Offset>0.00000</Offset>
#     </ConductivitySensor>
#   </sensor>
#   <sensor Channel="3" >
#     <!-- Count, Pressure, Strain Gauge -->
#     <PressureSensor SensorID="46" >
#       <SerialNumber>7809</SerialNumber>
#       <CalibrationDate>07-Mar-18</CalibrationDate>
#       <PA0>-4.08176359e-002</PA0>
#       <PA1>4.85188419e-004</PA1>
#       <PA2>-3.51168169e-012</PA2>
#       <PTEMPA0>-5.37806900e+001</PTEMPA0>
#       <PTEMPA1>5.36620721e+001</PTEMPA1>
#       <PTEMPA2>4.87214332e-002</PTEMPA2>
#       <PTCA0>5.25213435e+005</PTCA0>
#       <PTCA1>1.79532409e+000</PTCA1>
#       <PTCA2>-2.84353509e-001</PTCA2>
#       <PTCB0>2.51668750e+001</PTCB0>
#       <PTCB1>3.75000000e-004</PTCB1>
#       <PTCB2>0.00000000e+000</PTCB2>
#       <Offset>0.000000</Offset>
#     </PressureSensor>
#   </sensor>
#   <sensor Channel="4" >
#     <!-- A/D voltage 0, pH -->
#     <pH_Sensor SensorID="43" >
#       <SerialNumber>0363</SerialNumber>
#       <CalibrationDate>16-Mar-18</CalibrationDate>
#       <Slope>4.6194</Slope>
#       <Offset>2.5947</Offset>
#     </pH_Sensor>
#   </sensor>
#   <sensor Channel="5" >
#     <!-- A/D voltage 1, Oxidation Reduction Potential -->
#     <OxidationReductionPotentialSensor SensorID="41" >
#       <SerialNumber>0363</SerialNumber>
#       <CalibrationDate>16-Mar-18</CalibrationDate>
#       <B>2.499480</B>
#       <M>-0.496195</M>
#       <Offset>0.0</Offset>
#     </OxidationReductionPotentialSensor>
#   </sensor>
#   <sensor Channel="6" >
#     <!-- A/D voltage 2, Oxygen, SBE 43 -->
#     <OxygenSensor SensorID="38" >
#       <SerialNumber>0434</SerialNumber>
#       <CalibrationDate>13-Mar-18</CalibrationDate>
#       <Use2007Equation>1</Use2007Equation>
#       <CalibrationCoefficients equation="0" >
#         <!-- Coefficients for Owens-Millard equation. -->
#         <Boc>0.0000</Boc>
#         <Soc>0.0000e+000</Soc>
#         <offset>0.0000</offset>
#         <Pcor>0.00e+000</Pcor>
#         <Tcor>0.0000</Tcor>
#         <Tau>0.0</Tau>
#       </CalibrationCoefficients>
#       <CalibrationCoefficients equation="1" >
#         <!-- Coefficients for Sea-Bird equation - SBE calibration in 2007 and later. -->
#         <Soc>4.5718e-001</Soc>
#         <offset>-0.6113</offset>
#         <A>-4.0649e-003</A>
#         <B> 2.0945e-004</B>
#         <C>-3.3182e-006</C>
#         <D0> 2.5826e+000</D0>
#         <D1> 1.92634e-004</D1>
#         <D2>-4.64803e-002</D2>
#         <E> 3.6000e-002</E>
#         <Tau20> 1.2200</Tau20>
#         <H1>-3.3000e-002</H1>
#         <H2> 5.0000e+003</H2>
#         <H3> 1.4500e+003</H3>
#       </CalibrationCoefficients>
#     </OxygenSensor>
#   </sensor>
#   <sensor Channel="7" >
#     <!-- A/D voltage 3, PAR/Logarithmic, Satlantic -->
#     <PARLog_SatlanticSensor SensorID="76" >
#       <SerialNumber>1122</SerialNumber>
#       <CalibrationDate>22-Jun-2017</CalibrationDate>
#       <a0>9.6090e-001</a0>
#       <a1>8.0780e-001</a1>
#       <Im>1.3589e+000</Im>
#       <Multiplier>1.0000e+000</Multiplier>
#     </PARLog_SatlanticSensor>
#   </sensor>
#   <sensor Channel="8" >
#     <!-- A/D voltage 4, Fluorometer, WET Labs ECO-AFL/FL -->
#     <FluoroWetlabECO_AFL_FL_Sensor SensorID="20" >
#       <SerialNumber>FLNTURT-2496</SerialNumber>
#       <CalibrationDate>25-Jan-2017</CalibrationDate>
#       <ScaleFactor>5.30000000e+001</ScaleFactor>
#       <!-- Dark output -->
#       <Vblank>0.0560</Vblank>
#     </FluoroWetlabECO_AFL_FL_Sensor>
#   </sensor>
#   <sensor Channel="9" >
#     <!-- A/D voltage 5, Turbidity Meter, WET Labs, ECO-NTU -->
#     <TurbidityMeter SensorID="67" >
#       <SerialNumber>FLNTURT-2496</SerialNumber>
#       <CalibrationDate>25-Jan-2017</CalibrationDate>
#       <ScaleFactor>176.000000</ScaleFactor>
#       <!-- Dark output -->
#       <DarkVoltage>0.072000</DarkVoltage>
#     </TurbidityMeter>
#   </sensor>
# </Sensors>
# datcnv_date = May 07 2018 16:36:04, 7.26.7.114 [datcnv_vars = 14]
# datcnv_in = C:\DATA\050718_fcr10.hex C:\DATA\SBE19plusV2_7809.xmlcon
# datcnv_skipover = 0
# datcnv_ox_hysteresis_correction = yes
# datcnv_ox_tau_correction = yes
# filter_date = May 07 2018 16:36:36, 7.26.7.114
# filter_in = C:\DATA\050718_fcr10.cnv
# filter_low_pass_tc_A = 0.030
# filter_low_pass_tc_B = 0.150
# filter_low_pass_A_vars = prdM prdE tv290C
# filter_low_pass_B_vars = depFM dz/dtM sbeox0Mg/L sbeox0PS specc c0uS/cm flECO-AFL ph orp par/sat/log turbWETntu0
# alignctd_date = May 07 2018 16:36:57, 7.26.7.114
# alignctd_in = C:\DATA\050718_fcr10.cnv
# alignctd_adv = dz/dtM 1.000, sbeox0Mg/L 1.000, sbeox0PS 1.000, specc 1.000, c0uS/cm 1.000, flECO-AFL 1.000, ph 1.000, orp 1.000, turbWETntu0 1.000                                                                                 
# file_type = ascii
*END*
     -0.560 2.4158e-18     8.7826     98.017      0.847   0.774570     0.0261      5.986  1037.0103 1.4543e+03     0.2597     -0.549     -0.796    20.7348 0.0000e+00
     -0.559 2.6574e-17     8.7812     98.003      0.834   0.763165     0.0276      6.049   839.4714 1.4371e+03     0.2629     -0.548     -0.796    20.7355 0.0000e+00
     -0.559 2.9231e-16     8.7812     98.002      0.847   0.774876     0.0316      6.152   577.3921 1.4052e+03     0.3307     -0.548     -0.795    20.7363 0.0000e+00
     -0.559 3.2154e-15     8.7822     98.012      0.863   0.789341     0.0097      6.195   324.9974 1.1348e+03     0.9281     -0.548     -0.795    20.7370 0.0000e+00
     -0.559 3.5370e-14     8.7812     97.997      0.887   0.811238    -0.0254      6.157    88.3920 6.8626e+02     2.0535     -0.548     -0.795    20.7378 0.0000e+00
     -0.559 3.8907e-13     8.7805     97.985      0.928   0.849390    -0.0346      6.104  -117.6033 6.1824e+02     2.7067     -0.548     -0.795    20.7384 0.0000e+00
     -0.560 4.2797e-12     8.7807     97.981      0.952   0.870154    -0.0367      6.072  -286.4912 7.9322e+02     2.7217     -0.549     -0.797    20.7383 0.0000e+00
     -0.560 4.7077e-11     8.7801     97.969      0.954   0.872062    -0.0790      6.042  -472.1064 7.6614e+02     2.0218     -0.549     -0.796    20.7374 0.0000e+00
     -0.560 5.1785e-10     8.7802     97.967      0.954   0.872453    -0.1420      5.990  -645.4635 7.7866e+02     0.7444     -0.549     -0.796    20.7360 0.0000e+00
     -0.560 5.6963e-09     8.7811     97.972      0.957   0.874883    -0.1644      5.957  -377.5651 9.2289e+02     0.0938     -0.549     -0.796    20.7336 0.0000e+00
     -0.560 6.2659e-08     8.7810     97.960      0.986   0.901435    -0.1569      5.967   433.2158 9.9058e+02     0.0457     -0.549     -0.796    20.7307 0.0000e+00
     -0.560 6.8925e-07     8.7810     97.940      1.028   0.939849    -0.1887      6.154   958.4221 1.0626e+03    -0.4473     -0.549     -0.796    20.7275 0.0000e+00
     -0.559      0.000     8.7828     97.935      1.049   0.958860    -0.2537      6.322   603.1221 1.0915e+03    -1.3504     -0.548     -0.795    20.7258 0.0000e+00
     -0.559      0.000     8.7845     97.930      1.100   1.004474    -0.2907      6.014  -163.8585 8.8122e+02    -1.8398     -0.548     -0.795    20.7239 0.0000e+00
     -0.559      0.001     8.7872     97.920      1.217   1.110876    -0.3420      5.575  -647.6872 7.9514e+02    -2.0008     -0.548     -0.795    20.7201 0.0000e+00
     -0.559      0.005     8.8018     97.916      1.774   1.611221    -0.8288      5.278  -370.2762 1.0268e+03    -2.9916     -0.548     -0.795    20.7071 0.0000e+00
     -0.559      0.016     8.8400     97.919      6.488   5.849233    -1.7099      5.150   578.7438 1.1618e+03    -4.7251     -0.548     -0.795    20.6952 0.0000e+00
     -0.559      0.033     8.8921     97.926     17.958  16.129403    -2.1820      5.369  1152.8364 1.1277e+03    -5.6564     -0.548     -0.795    20.6789 0.0000e+00
     -0.556      0.057     8.9371     97.931     29.503  26.414962    -2.1622      5.734   932.4461 1.0896e+03    -5.6455     -0.550     -0.797    20.6764 0.0000e+00
     -0.543      0.085     8.9692     97.936     34.670  30.944869    -1.4252      6.189   434.6293 1.1016e+03    -4.3801     -0.540     -0.783    20.6396 0.0000e+00
     -0.514      0.117     8.9922     97.936     35.500  31.600133    -0.0529      6.688   165.0088 1.2197e+03    -2.0144     -0.507     -0.735    20.3909 0.0000e+00
     -0.474      0.152     9.0103     97.934     35.373  31.416308     0.6999      7.043   146.9759 1.4252e+03    -0.7246     -0.465     -0.675    20.0331 0.0000e+00
     -0.430      0.185     9.0287     97.940     35.207  31.199062     0.7749      7.247   151.2905 1.6184e+03    -0.6253     -0.423     -0.613    19.7812 0.0000e+00
     -0.381      0.213     9.0508     97.980     35.141  31.069135     0.7909      7.347   159.6165 1.7583e+03    -0.5705     -0.378     -0.548    19.6166 0.0000e+00
     -0.324      0.230     9.0809     98.135     35.190  31.051943     0.8376      7.391   169.4353 1.8712e+03    -0.0616     -0.321     -0.465    19.4927 0.0000e+00
     -0.256      0.235     9.1225     98.462     35.314  31.118128     0.9255      7.395   178.1198 1.9427e+03     0.8284     -0.253     -0.367    19.4026 0.0000e+00
     -0.182      0.227     9.1730     98.924     35.479  31.234234     0.9805      7.360   185.2910 1.9691e+03     1.3088     -0.178     -0.259    19.3081 0.0000e+00
     -0.113      0.205     9.2298     99.484     35.589  31.312574     0.9888      7.301   189.2036 1.9786e+03     1.3525     -0.104     -0.150    19.1950 0.0000e+00
     -0.059      0.171     9.2899    100.098     35.592  31.303197     0.9793      7.245   190.1504 1.9587e+03     1.2956     -0.052     -0.074    19.1059 0.0000e+00
     -0.022      0.133     9.3428    100.645     35.538  31.247864     0.9670      7.205   191.6624 1.7753e+03     1.1710     -0.018     -0.027    19.0481 0.0000e+00
      0.002      0.098     9.3843    101.071     35.438  31.151609     0.9687      7.174   195.6975 1.5334e+03     1.0970      0.008      0.010    19.0075 0.0000e+00
      0.012      0.073     9.4161    101.388     35.308  31.028502     0.9728      7.138   201.0810 1.5103e+03     1.1016      0.014      0.020    18.9832 0.0000e+00
      0.017      0.055     9.4277    101.488     35.247  30.966027     0.9705      7.097   205.6467 1.4859e+03     1.1049      0.013      0.019    18.9682 0.0000e+00
      0.027      0.040     9.3941    101.103     35.258  30.967798     0.9678      7.054   207.7089 1.1926e+03     1.0768      0.025      0.036    18.9586 0.0000e+00
      0.044      0.022     9.3101    100.177     35.288  30.986403     0.9677      7.012   207.2592 9.4674e+02     1.0659      0.044      0.063    18.9491 0.0000e+00
      0.059      0.000     9.2008     98.987     35.310  31.000440     0.9788      6.975   206.7482 9.7143e+02     1.0954      0.062      0.090    18.9345 0.0000e+00
      0.064     -0.025     9.0647     97.525     35.320  31.010503     1.0005      6.948   207.2088 9.6659e+02     1.1286      0.070      0.101    18.9230 0.0000e+00
      0.052     -0.047     8.8866     95.633     35.420  31.108071     1.0186      6.931   207.8381 1.0119e+03     1.1315      0.057      0.082    18.9127 0.0000e+00
      0.024     -0.060     8.6822     93.470     35.613  31.291011     1.0327      6.917   208.7644 1.2869e+03     1.0996      0.028      0.039    18.8998 0.0000e+00
     -0.011     -0.061     8.4823     91.353     35.700  31.380676     1.0418      6.903   210.0631 1.4596e+03     1.0795     -0.015     -0.021    18.8915 0.0000e+00
     -0.038     -0.053     8.3073     89.493     35.673  31.366608     1.0555      6.891   211.1502 1.3767e+03     1.1317     -0.046     -0.065    18.8910 0.0000e+00
     -0.046     -0.038     8.1611     87.937     35.746  31.438481     1.0798      6.888   211.9285 1.1727e+03     1.2427     -0.050     -0.072    18.9054 0.0000e+00
     -0.040     -0.018     8.0382     86.631     35.937  31.614592     1.0962      6.891   213.0200 9.4744e+02     1.3235     -0.040     -0.056    18.9285 0.0000e+00
     -0.033      0.003     7.9314     85.498     36.046  31.717687     1.1063      6.894   214.3665 6.8872e+02     1.3450     -0.028     -0.040    18.9478 0.0000e+00
     -0.033      0.021     7.8410     84.537     35.984  31.668839     1.1103      6.895   215.3892 4.6622e+02     1.3205     -0.029     -0.042    18.9615 0.0000e+00
     -0.037      0.032     7.7664     83.738     35.898  31.595574     1.1171      6.892   216.3515 4.4411e+02     1.2404     -0.042     -0.060    18.9703 0.0000e+00
     -0.032      0.033     7.6967     82.987     35.968  31.657481     1.1421      6.884   217.3978 5.5429e+02     1.1703     -0.040     -0.058    18.9808 0.0000e+00
     -0.010      0.027     7.6252     82.218     36.181  31.845751     1.1647      6.880   218.4035 6.9859e+02     1.1750     -0.011     -0.016    18.9919 0.0000e+00
      0.014      0.017     7.5580     81.498     36.388  32.030129     1.1703      6.885   219.9934 7.4144e+02     1.2053      0.020      0.029    19.0002 0.0000e+00
      0.024      0.002     7.5020     80.898     36.476  32.108472     1.1545      6.896   222.1666 5.7243e+02     1.1711      0.031      0.044    19.0047 0.0000e+00
      0.015     -0.014     7.4585     80.427     36.461  32.094366     1.1213      6.909   224.1156 4.5280e+02     1.0971      0.021      0.029    19.0027 0.0000e+00
     -0.006     -0.027     7.4236     80.047     36.412  32.050110     1.0993      6.921   225.6631 4.3134e+02     1.0730     -0.005     -0.008    19.0025 0.0000e+00
     -0.027     -0.033     7.3933     79.719     36.377  32.017953     1.0994      6.926   226.1646 4.9064e+02     1.1234     -0.030     -0.044    19.0071 0.0000e+00
     -0.037     -0.029     7.3641     79.405     36.382  32.023107     1.1317      6.928   225.4471 7.9772e+02     1.2183     -0.041     -0.059    19.0107 0.0000e+00
     -0.037     -0.018     7.3325     79.063     36.411  32.048918     1.1862      6.931   225.1613 9.5886e+02     1.2748     -0.038     -0.055    19.0084 0.0000e+00
     -0.034     -0.001     7.3027     78.741     36.443  32.075986     1.2165      6.935   225.8071 6.8349e+02     1.2876     -0.031     -0.045    19.0042 0.0000e+00
     -0.034      0.019     7.2841     78.538     36.467  32.096344     1.2226      6.935   228.8671 5.2189e+02     1.3122     -0.031     -0.045    19.0045 0.0000e+00
     -0.035      0.040     7.2831     78.526     36.477  32.104521     1.2141      6.934   234.0242 5.6518e+02     1.3591     -0.038     -0.054    19.0057 0.0000e+00
     -0.030      0.062     7.2954     78.661     36.483  32.111342     1.1961      6.936   236.9681 5.2220e+02     1.3964     -0.034     -0.051    19.0052 0.0000e+00
     -0.011      0.082     7.3054     78.776     36.485  32.115306     1.1799      6.932   237.6169 7.4130e+02     1.3655     -0.015     -0.021    19.0035 0.0000e+00
      0.021      0.097     7.3024     78.746     36.453  32.088938     1.1657      6.922   237.9113 1.2457e+03     1.3223      0.019      0.028    19.0031 0.0000e+00
      0.059      0.103     7.2829     78.528     36.408  32.046579     1.1255      6.916   237.7748 1.3357e+03     1.2706      0.060      0.087    19.0013 0.0000e+00
      0.094      0.097     7.2448     78.101     36.346  31.984219     1.0429      6.918   237.2573 9.8693e+02     1.1672      0.095      0.138    19.0022 0.0000e+00
      0.122      0.081     7.1954     77.541     36.201  31.843017     0.9848      6.926   236.8161 8.2636e+02     1.1098      0.123      0.180    19.0086 0.0000e+00
      0.140      0.061     7.1487     77.001     36.027  31.673032     0.9739      6.937   235.7958 7.9884e+02     1.0954      0.141      0.204    19.0107 0.0000e+00
      0.147      0.041     7.1100     76.542     35.944  31.580205     0.9763      6.949   235.4181 8.3497e+02     1.0848      0.145      0.211    19.0072 0.0000e+00
      0.149      0.024     7.0785     76.164     35.925  31.546266     1.0219      6.963   237.0675 9.9107e+02     1.1035      0.146      0.211    18.9964 0.0000e+00
      0.150      0.012     7.0537     75.872     35.905  31.516700     1.1124      6.979   238.1865 9.9425e+02     1.1380      0.146      0.212    18.9788 0.0000e+00
      0.153      0.002     7.0301     75.604     35.868  31.476741     1.1692      6.995   238.2791 9.8801e+02     1.1668      0.150      0.218    18.9548 0.0000e+00
      0.155     -0.006     7.0076     75.350     35.765  31.380666     1.1761      7.006   238.6165 1.0344e+03     1.1463      0.154      0.223    18.9246 0.0000e+00
      0.154     -0.012     6.9948     75.199     35.616  31.244192     1.1486      7.011   239.1687 1.0184e+03     1.1039      0.153      0.221    18.8974 0.0000e+00
      0.149     -0.014     6.9936     75.175     35.527  31.160328     1.0950      7.005   238.4172 1.0575e+03     1.1119      0.147      0.214    18.8813 0.0000e+00
      0.140     -0.011     7.0048     75.290     35.494  31.128788     1.0525      6.995   236.0692 1.0175e+03     1.1211      0.136      0.199    18.8744 0.0000e+00
      0.130     -0.003     7.0318     75.579     35.480  31.116870     1.0296      6.995   234.6980 8.5843e+02     1.1235      0.125      0.181    18.8677 0.0000e+00
      0.128      0.007     7.0708     76.000     35.509  31.143249     0.9931      7.005   234.7440 9.0672e+02     1.1415      0.123      0.177    18.8579 0.0000e+00
      0.134      0.016     7.1120     76.446     35.565  31.193700     0.9408      7.017   235.0766 1.0333e+03     1.1247      0.130      0.188    18.8485 0.0000e+00
      0.147      0.023     7.1485     76.836     35.594  31.218791     0.9132      7.025   235.5357 9.0399e+02     1.1032      0.143      0.208    18.8456 0.0000e+00
      0.159      0.026     7.1755     77.121     35.568  31.192594     0.9073      7.027   235.9068 7.5552e+02     1.0956      0.158      0.229    18.8463 0.0000e+00
      0.167      0.026     7.1937     77.306     35.504  31.130991     0.9056      7.025   236.0358 7.4674e+02     1.0927      0.167      0.241    18.8483 0.0000e+00
      0.170      0.023     7.2120     77.488     35.486  31.109036     0.9114      7.023   236.2361 7.7799e+02     1.0996      0.168      0.243    18.8514 0.0000e+00
      0.172      0.020     7.2375     77.750     35.574  31.181157     0.9219      7.026   236.6070 8.8328e+02     1.1480      0.170      0.246    18.8499 0.0000e+00
      0.175      0.017     7.2757     78.150     35.647  31.240890     0.9319      7.032   236.9065 9.4047e+02     1.2195      0.171      0.247    18.8456 0.0000e+00
      0.180      0.013     7.3295     78.717     35.602  31.196163     1.0228      7.041   237.2764 8.5923e+02     1.2023      0.173      0.251    18.8390 0.0000e+00
      0.189      0.009     7.3973     79.440     35.550  31.148437     1.2024      7.051   237.8095 7.6307e+02     1.1537      0.187      0.271    18.8280 0.0000e+00
      0.194      0.003     7.4729     80.255     35.576  31.171902     1.3114      7.060   238.2761 1.0425e+03     1.1505      0.196      0.282    18.8207 0.0000e+00
      0.192     -0.010     7.5455     81.042     35.634  31.225841     1.3216      7.067   238.7883 1.5743e+03     1.1328      0.189      0.273    18.8154 0.0000e+00
      0.188     -0.030     7.6015     81.645     35.708  31.292536     1.3074      7.070   239.3566 1.5032e+03     1.0919      0.184      0.266    18.8070 0.0000e+00
      0.184     -0.056     7.6275     81.927     35.764  31.343224     1.3144      7.074   239.8992 1.2972e+03     1.0832      0.183      0.265    18.8018 0.0000e+00
      0.173     -0.083     7.6161     81.821     35.742  31.330633     1.3508      7.081   240.5301 1.7567e+03     1.1195      0.174      0.253    18.8039 0.0000e+00
      0.148     -0.105     7.5665     81.316     35.657  31.267332     1.3799      7.087   241.1338 2.0287e+03     1.1648      0.149      0.215    18.8120 0.0000e+00
      0.110     -0.122     7.4890     80.506     35.584  31.212959     1.3811      7.092   241.5198 1.6860e+03     1.1736      0.111      0.161    18.8138 0.0000e+00
      0.065     -0.131     7.3971     79.532     35.541  31.181302     1.3386      7.095   241.8419 1.5308e+03     1.1340      0.063      0.091    18.8095 0.0000e+00
      0.022     -0.127     7.3026     78.522     35.489  31.138617     1.2788      7.098   242.2756 1.5983e+03     1.1138      0.017      0.024    18.8203 0.0000e+00
     -0.012     -0.111     7.2176     77.606     35.420  31.077911     1.2553      7.101   242.8919 1.5673e+03     1.1432     -0.013     -0.019    18.8433 0.0000e+00
     -0.038     -0.087     7.1502     76.873     35.357  31.018896     1.2572      7.102   243.5286 1.5604e+03     1.1533     -0.039     -0.055    18.8568 0.0000e+00
     -0.057     -0.062     7.1023     76.353     35.334  30.996632     1.2828      7.102   243.8654 1.5575e+03     1.1438     -0.061     -0.087    18.8640 0.0000e+00
     -0.067     -0.039     7.0706     76.013     35.337  30.999241     1.3259      7.101   244.1249 1.5200e+03     1.1504     -0.069     -0.100    18.8689 0.0000e+00
     -0.068     -0.022     7.0479     75.771     35.322  30.986932     1.3555      7.099   244.6012 1.4668e+03     1.1414     -0.067     -0.097    18.8668 0.0000e+00
     -0.068     -0.009     7.0282     75.561     35.307  30.974834     1.3741      7.095   245.2359 1.4470e+03     1.1272     -0.065     -0.095    18.8597 0.0000e+00
     -0.068     -0.002     7.0109     75.377     35.311  30.979980     1.3767      7.087   245.8627 1.4956e+03     1.1924     -0.066     -0.096    18.8548 0.0000e+00
     -0.068      0.001     6.9973     75.237     35.315  30.985648     1.3683      7.077   246.3293 1.5397e+03     1.3195     -0.067     -0.097    18.8576 0.0000e+00
     -0.067      0.001     6.9898     75.163     35.306  30.979866     1.3652      7.070   246.5754 1.5456e+03     1.3820     -0.066     -0.094    18.8603 0.0000e+00
     -0.066      0.002     6.9895     75.163     35.296  30.973571     1.3658      7.070   246.7725 1.5463e+03     1.3688     -0.064     -0.093    18.8596 0.0000e+00
     -0.067      0.004     6.9961     75.237     35.294  30.973049     1.3665      7.077   246.9920 1.5532e+03     1.2815     -0.065     -0.095    18.8610 0.0000e+00
     -0.067      0.006     7.0098     75.387     35.293  30.973556     1.3655      7.087   247.1642 1.5491e+03     1.1497     -0.067     -0.096    18.8658 0.0000e+00
     -0.065      0.007     7.0258     75.565     35.296  30.979703     1.3627      7.097   247.3921 1.4497e+03     1.0879     -0.065     -0.094    18.8704 0.0000e+00
     -0.062      0.008     7.0384     75.710     35.297  30.983873     1.3593      7.103   247.5970 1.1057e+03     1.1139     -0.060     -0.088    18.8726 0.0000e+00
     -0.058      0.010     7.0442     75.778     35.267  30.960464     1.3613      7.107   247.7484 8.8300e+02     1.1291     -0.055     -0.081    18.8741 0.0000e+00
     -0.055      0.013     7.0399     75.737     35.254  30.950706     1.3590      7.108   247.9325 1.1625e+03     1.0887     -0.053     -0.078    18.8759 0.0000e+00
     -0.054      0.014     7.0253     75.584     35.299  30.992910     1.3499      7.103   248.1020 1.4552e+03     1.0824     -0.053     -0.077    18.8798 0.0000e+00
     -0.052      0.014     7.0022     75.341     35.334  31.026192     1.3526      7.097   248.4206 1.5022e+03     1.1140     -0.052     -0.076    18.8857 0.0000e+00
     -0.046      0.013     6.9703     75.006     35.340  31.035576     1.3640      7.096   248.8598 1.5058e+03     1.1352     -0.047     -0.067    18.8911 0.0000e+00
     -0.039      0.012     6.9310     74.590     35.345  31.042869     1.3870      7.098   249.1965 1.5090e+03     1.1555     -0.037     -0.052    18.8931 0.0000e+00
     -0.035      0.010     6.8880     74.133     35.351  31.050871     1.4195      7.103   249.5661 1.5038e+03     1.1462     -0.033     -0.048    18.8942 0.0000e+00
     -0.035      0.007     6.8419     73.642     35.369  31.068822     1.4355      7.108   249.9721 1.4430e+03     1.1140     -0.034     -0.050    18.8993 0.0000e+00
     -0.035      0.003     6.7914     73.103     35.367  31.069390     1.4326      7.113   250.4062 1.2084e+03     1.1324     -0.034     -0.050    18.9057 0.0000e+00
     -0.036      0.000     6.7378     72.530     35.352  31.057740     1.4304      7.115   250.8576 8.3403e+02     1.1548     -0.035     -0.051    18.9100 0.0000e+00
     -0.036     -0.001     6.6829     71.942     35.347  31.054978     1.4368      7.115   251.0422 5.4433e+02     1.1105     -0.036     -0.052    18.9133 0.0000e+00
     -0.036      0.000     6.6255     71.326     35.324  31.035997     1.4362      7.116   251.0887 4.2602e+02     1.0857     -0.035     -0.051    18.9161 0.0000e+00
     -0.036      0.002     6.5677     70.705     35.304  31.018773     1.4322      7.116   251.2486 4.7291e+02     1.1293     -0.035     -0.051    18.9188 0.0000e+00
     -0.037      0.005     6.5157     70.145     35.325  31.037247     1.4716      7.112   251.5123 6.9180e+02     1.2099     -0.034     -0.050    18.9219 0.0000e+00
     -0.037      0.007     6.4708     69.664     35.360  31.068838     1.5355      7.102   251.6963 9.2992e+02     1.2664     -0.038     -0.056    18.9243 0.0000e+00
     -0.035      0.007     6.4310     69.239     35.374  31.083194     1.5611      7.091   251.6661 1.0072e+03     1.2944     -0.037     -0.053    18.9261 0.0000e+00
     -0.029      0.006     6.3945     68.849     35.372  31.083818     1.5608      7.084   251.6631 9.8710e+02     1.3343     -0.027     -0.039    18.9272 0.0000e+00
     -0.024      0.004     6.3604     68.486     35.362  31.076380     1.5229      7.078   251.8327 1.1537e+03     1.2912     -0.021     -0.030    18.9258 0.0000e+00
     -0.024      0.003     6.3277     68.139     35.337  31.056771     1.4521      7.073   252.0822 1.5516e+03     1.2006     -0.023     -0.032    18.9272 0.0000e+00
     -0.028      0.001     6.2960     67.803     35.312  31.037257     1.4221      7.071   252.2699 1.8076e+03     1.1541     -0.029     -0.041    18.9316 0.0000e+00
     -0.030     -0.001     6.2651     67.474     35.302  31.030963     1.4258      7.074   252.4674 1.8407e+03     1.0956     -0.031     -0.045    18.9328 0.0000e+00
     -0.030     -0.002     6.2371     67.175     35.315  31.044184     1.4240      7.079   252.6642 1.8342e+03     1.0431     -0.030     -0.044    18.9346 0.0000e+00
     -0.029     -0.002     6.2121     66.910     35.343  31.070097     1.3811      7.085   252.7559 1.8250e+03     1.0379     -0.029     -0.042    18.9391 0.0000e+00
     -0.027     -0.003     6.1864     66.639     35.363  31.090245     1.2937      7.090   252.9744 1.8162e+03     1.0631     -0.026     -0.038    18.9435 0.0000e+00
     -0.027     -0.006     6.1593     66.351     35.368  31.097278     1.2397      7.095   253.3274 1.8059e+03     1.0736     -0.025     -0.036    18.9464 0.0000e+00
     -0.030     -0.008     6.1325     66.066     35.359  31.091619     1.2340      7.098   253.5824 1.7968e+03     1.0721     -0.027     -0.040    18.9483 0.0000e+00
     -0.035     -0.009     6.1067     65.792     35.350  31.085334     1.2431      7.095   253.6480 1.7897e+03     1.0758     -0.033     -0.048    18.9511 0.0000e+00
     -0.040     -0.009     6.0811     65.517     35.349  31.084804     1.2488      7.090   253.6910 1.7879e+03     1.0576     -0.041     -0.059    18.9552 0.0000e+00
     -0.042     -0.009     6.0554     65.242     35.348  31.085210     1.2385      7.088   253.8440 1.7962e+03     1.0356     -0.043     -0.063    18.9588 0.0000e+00
     -0.041     -0.008     6.0303     64.974     35.353  31.090244     1.2290      7.092   254.0346 1.8121e+03     1.0526     -0.039     -0.058    18.9619 0.0000e+00
     -0.040     -0.005     6.0046     64.696     35.343  31.082161     1.2167      7.098   254.2746 1.8221e+03     1.0810     -0.037     -0.055    18.9641 0.0000e+00
     -0.043     -0.003     5.9786     64.414     35.309  31.050985     1.2000      7.104   254.5089 1.7579e+03     1.1040     -0.041     -0.059    18.9642 0.0000e+00
     -0.047     -0.002     5.9568     64.176     35.288  31.030841     1.1919      7.110   254.6307 1.5992e+03     1.1476     -0.046     -0.068    18.9652 0.0000e+00
     -0.048     -0.002     5.9407     64.000     35.288  31.029129     1.1838      7.115   254.7147 1.4026e+03     1.1511     -0.048     -0.070    18.9676 0.0000e+00
     -0.047     -0.001     5.9296     63.879     35.290  31.030274     1.1576      7.117   254.8362 1.2745e+03     1.1151     -0.046     -0.066    18.9678 0.0000e+00
     -0.045      0.001     5.9229     63.807     35.307  31.044688     1.1227      7.115   254.9812 1.3403e+03     1.1092     -0.043     -0.063    18.9653 0.0000e+00
     -0.043      0.002     5.9198     63.777     35.341  31.076388     1.1113      7.113   255.1773 1.4796e+03     1.1110     -0.042     -0.062    18.9633 0.0000e+00
     -0.043      0.001     5.9190     63.772     35.361  31.096018     1.1112      7.115   255.4872 1.5414e+03     1.1058     -0.042     -0.061    18.9619 0.0000e+00
     -0.043      0.000     5.9169     63.752     35.354  31.091504     1.1212      7.119   255.8877 1.5214e+03     1.1069     -0.042     -0.061    18.9594 0.0000e+00
     -0.044     -0.001     5.9102     63.681     35.346  31.085324     1.1592      7.123   256.1487 1.3085e+03     1.0938     -0.043     -0.062    18.9583 0.0000e+00
     -0.044     -0.001     5.8967     63.538     35.344  31.084814     1.1846      7.124   256.2339 9.0658e+02     1.0703     -0.043     -0.062    18.9617 0.0000e+00
     -0.045     -0.002     5.8757     63.313     35.344  31.085336     1.1712      7.123   256.4009 5.8243e+02     1.0661     -0.044     -0.063    18.9659 0.0000e+00
     -0.045     -0.002     5.8487     63.024     35.349  31.091630     1.1536      7.123   256.6193 5.3182e+02     1.0740     -0.044     -0.064    18.9679 0.0000e+00
     -0.045     -0.001     5.8193     62.711     35.353  31.097413     1.1738      7.126   256.8102 7.0111e+02     1.0740     -0.044     -0.063    18.9687 0.0000e+00
     -0.046      0.000     5.7904     62.405     35.343  31.091743     1.2131      7.132   256.9877 9.1032e+02     1.0971     -0.044     -0.065    18.9698 0.0000e+00
     -0.046      0.001     5.7633     62.118     35.334  31.086595     1.2343      7.138   257.1307 1.0367e+03     1.1398     -0.046     -0.067    18.9710 0.0000e+00
     -0.045      0.001     5.7380     61.849     35.346  31.098682     1.2459      7.138   257.3356 1.0592e+03     1.1321     -0.045     -0.064    18.9723 0.0000e+00
     -0.044      0.001     5.7154     61.609     35.357  31.110864     1.2613      7.130   257.5721 1.0458e+03     1.0959     -0.043     -0.062    18.9761 0.0000e+00
     -0.044      0.001     5.6945     61.387     35.350  31.106869     1.2827      7.119   257.8386 1.0573e+03     1.0987     -0.042     -0.062    18.9809 0.0000e+00
     -0.044      0.001     5.6732     61.162     35.355  31.113891     1.3020      7.109   258.1488 1.1180e+03     1.1349     -0.043     -0.062    18.9847 0.0000e+00
     -0.045      0.001     5.6530     60.948     35.374  31.132271     1.3112      7.105   258.3114 1.2882e+03     1.1370     -0.044     -0.064    18.9879 0.0000e+00
     -0.045      0.000     5.6328     60.733     35.379  31.138580     1.2929      7.107   258.3424 1.5418e+03     1.0937     -0.044     -0.064    18.9906 0.0000e+00
     -0.044      0.000     5.6129     60.521     35.364  31.126660     1.2549      7.113   258.6086 1.7543e+03     1.0697     -0.043     -0.062    18.9933 0.0000e+00
     -0.044      0.000     5.5961     60.343     35.349  31.115174     1.2389      7.123   259.0352 1.8616e+03     1.0901     -0.042     -0.061    18.9965 0.0000e+00
     -0.044      0.001     5.5792     60.165     35.359  31.126718     1.2464      7.134   259.2852 1.8947e+03     1.1261     -0.043     -0.063    18.9995 0.0000e+00
     -0.045      0.001     5.5610     59.974     35.370  31.139220     1.2443      7.142   259.4799 1.9018e+03     1.1396     -0.044     -0.064    19.0017 0.0000e+00
     -0.045      0.000     5.5447     59.803     35.367  31.139324     1.2314      7.145   259.6681 1.9003e+03     1.1319     -0.044     -0.063    19.0037 0.0000e+00
     -0.044      0.000     5.5309     59.656     35.352  31.127976     1.2371      7.143   259.7533 1.8944e+03     1.1240     -0.043     -0.063    19.0068 0.0000e+00
     -0.043      0.001     5.5174     59.512     35.352  31.129035     1.2494      7.139   259.8223 1.8882e+03     1.1356     -0.041     -0.061    19.0107 0.0000e+00
     -0.043      0.002     5.5034     59.364     35.377  31.152130     1.2789      7.135   259.9862 1.8822e+03     1.1496     -0.042     -0.060    19.0149 0.0000e+00
     -0.044      0.002     5.4909     59.231     35.377  31.153180     1.3360      7.130   260.1860 1.8774e+03     1.1410     -0.043     -0.062    19.0187 0.0000e+00
     -0.044      0.001     5.4789     59.102     35.364  31.141729     1.3698      7.125   260.4314 1.8781e+03     1.1239     -0.044     -0.063    19.0210 0.0000e+00
     -0.043      0.000     5.4663     58.966     35.363  31.140697     1.3758      7.123   260.7173 1.8847e+03     1.1260     -0.042     -0.061    19.0222 0.0000e+00
     -0.042 -3.894e-07     5.4564     58.860     35.362  31.140707     1.3713      7.126   260.9750 1.8922e+03     1.1365     -0.039     -0.057    19.0238 0.0000e+00
     -0.042      0.000     5.4502     58.798     35.360  31.141852     1.3522      7.132   261.2238 1.8952e+03     1.1278     -0.040     -0.059    19.0260 0.0000e+00
     -0.043      0.000     5.4467     58.766     35.371  31.154545     1.3283      7.138   261.3165 1.8916e+03     1.1123     -0.043     -0.062    19.0262 0.0000e+00
     -0.044     -0.001     5.4462     58.766     35.381  31.167156     1.3124      7.144   261.4078 1.8855e+03     1.1020     -0.043     -0.063    19.0251 0.0000e+00
     -0.043     -0.001     5.4471     58.781     35.378  31.167326     1.3075      7.146   261.7251 1.8804e+03     1.0940     -0.042     -0.061    19.0260 0.0000e+00
     -0.043     -0.001     5.4469     58.783     35.363  31.156600     1.3065      7.145   262.0558 1.8759e+03     1.0772     -0.042     -0.061    19.0305 0.0000e+00
     -0.043      0.000     5.4449     58.765     35.225  31.037466     1.2994      7.141   262.3088 1.8737e+03     1.0813     -0.042     -0.061    19.0360 0.0000e+00
     -0.044 -2.015e-08     5.4453     58.761     34.968  30.806540     1.2957      7.136   262.5471 1.8759e+03     1.1134     -0.043     -0.062    19.0408 0.0000e+00
     -0.044 -2.217e-07     5.4703     58.985     34.821  30.650775     1.2984      7.132   262.7860 1.8815e+03     1.1301     -0.043     -0.063    19.0445 0.0000e+00
     -0.044 -2.217e-07     5.5888     60.174     34.837  30.614766     1.3040      7.131   262.9608 1.8864e+03     1.1308     -0.043     -0.063    19.0487 0.0000e+00
     -0.043 -2.013e-08     5.8932     63.359     34.906  30.625116     1.3089      7.131   263.0251 1.8868e+03     1.1214     -0.042     -0.063    19.0517 0.0000e+00
     -0.043 -1.527e-09     6.3958     68.698     34.971  30.648842     1.3015      7.131   263.1334 1.8803e+03     1.1074     -0.041     -0.061    19.0568 0.0000e+00
     -0.043 3.1923e-09     7.0110     75.270     34.989  30.647557     1.2980      7.131   263.3231 1.8593e+03     1.1153     -0.042     -0.060    19.0248 0.0000e+00
     -0.044 3.6932e-08     7.6461     82.072     34.954  30.609565     1.3130      7.134   263.4267 1.8104e+03     1.1244     -0.043     -0.062    18.9325 0.0000e+00
     -0.045 4.0642e-07     8.2354     88.389     34.913  30.570515     1.3351      7.139   263.4394 1.7274e+03     1.0954     -0.045     -0.064    18.8524 0.0000e+00
     -0.044      0.000     8.7300     93.686     34.902  30.556441     1.3546      7.148   263.5634 1.6250e+03     1.0702     -0.044     -0.063    18.8095 0.0000e+00
     -0.043      0.000     9.0961     97.601     34.920  30.566415     1.3644      7.158   263.8064 1.5598e+03     1.0946     -0.042     -0.061    18.7863 0.0000e+00
     -0.043      0.001     9.3091     99.876     34.921  30.564087     1.3525      7.167   263.9691 1.5718e+03     1.1156     -0.042     -0.061    18.7793 0.0000e+00
     -0.043      0.001     9.3714    100.536     34.883  30.528283     1.3304      7.173   264.0671 1.6078e+03     1.0797     -0.042     -0.061    18.7777 0.0000e+00
     -0.044      0.000     9.3295    100.076     34.872  30.514551     1.3177      7.177   264.2173 1.6292e+03     1.0572     -0.043     -0.063    18.7713 0.0000e+00
     -0.044 1.8474e-08     9.2397     99.104     34.888  30.525057     1.3094      7.183   264.4090 1.6541e+03     1.0881     -0.044     -0.063    18.7606 0.0000e+00
     -0.043 2.0321e-07     9.1360     97.988     34.893  30.528292     1.3032      7.189   264.5783 1.6507e+03     1.1171     -0.042     -0.060    18.7568 0.0000e+00
     -0.042 2.0321e-07     9.0371     96.928     34.921  30.553676     1.2888      7.193   264.7157 1.5818e+03     1.1333     -0.041     -0.059    18.7549 0.0000e+00
     -0.043 1.8486e-08     8.9532     96.031     34.948  30.577941     1.2640      7.195   264.8657 1.4697e+03     1.1309     -0.042     -0.061    18.7481 0.0000e+00
     -0.043 1.8218e-09     8.8841     95.295     34.933  30.567654     1.2514      7.195   265.0148 1.3507e+03     1.1194     -0.043     -0.062    18.7420 0.0000e+00
     -0.043 3.2455e-09     8.8282     94.703     34.917  30.556307     1.2466      7.195   265.1416 1.2476e+03     1.1163     -0.042     -0.061    18.7417 0.0000e+00
     -0.043 3.5700e-08     8.7848     94.242     34.929  30.567767     1.2336      7.194   265.2810 1.1574e+03     1.1241     -0.042     -0.061    18.7429 0.0000e+00
     -0.044 3.9270e-07     8.7463     93.829     34.942  30.579211     1.2227      7.190   265.4948 1.1087e+03     1.1225     -0.043     -0.062    18.7437 0.0000e+00
     -0.044      0.000     8.7049     93.385     34.928  30.567655     1.2250      7.185   265.7480 1.1582e+03     1.0967     -0.043     -0.063    18.7468 0.0000e+00
     -0.043      0.000     8.6630     92.938     34.913  30.555058     1.2348      7.180   265.9337 1.2713e+03     1.0860     -0.042     -0.061    18.7520 0.0000e+00
     -0.043      0.001     8.6272     92.556     34.911  30.553913     1.2574      7.175   266.0194 1.3685e+03     1.0853     -0.041     -0.060    18.7536 0.0000e+00
     -0.043      0.001     8.5985     92.248     34.911  30.553808     1.2872      7.172   266.0958 1.4313e+03     1.0888     -0.042     -0.061    18.7522 0.0000e+00
     -0.043      0.001     8.5792     92.039     34.912  30.553798     1.3021      7.172   266.2547 1.4860e+03     1.1276     -0.043     -0.062    18.7528 0.0000e+00
     -0.042      0.000     8.5704     91.941     34.913  30.553789     1.3082      7.176   266.4785 1.5282e+03     1.1581     -0.041     -0.060    18.7547 0.0000e+00
     -0.042      0.000     8.5646     91.877     34.914  30.553694     1.3145      7.179   266.6501 1.5143e+03     1.1217     -0.041     -0.059    18.7569 0.0000e+00
     -0.042     -0.001     8.5633     91.866     34.912  30.552653     1.3142      7.177   266.6954 1.4808e+03     1.0837     -0.041     -0.060    18.7565 0.0000e+00
     -0.043     -0.001     8.5700     91.941     34.897  30.541202     1.3046      7.169   266.6819 1.4810e+03     1.0648     -0.042     -0.061    18.7543 0.0000e+00
     -0.043     -0.001     8.5790     92.038     34.897  30.542262     1.2990      7.161   266.7451 1.4639e+03     1.0462     -0.042     -0.061    18.7517 0.0000e+00
     -0.044     -0.001     8.5862     92.114     34.924  30.565459     1.2922      7.158   267.0288 1.4116e+03     1.0723     -0.043     -0.064    18.7499 0.0000e+00
     -0.045      0.000     8.5886     92.142     34.926  30.567653     1.2695      7.161   267.2738 1.3984e+03     1.1065     -0.045     -0.065    18.7525 0.0000e+00
     -0.045      0.001     8.5845     92.098     34.927  30.568789     1.2540      7.165   267.2983 1.4428e+03     1.0931     -0.044     -0.063    18.7563 0.0000e+00
     -0.044      0.001     8.5784     92.032     34.939  30.579191     1.2520      7.169   267.4106 1.5214e+03     1.0625     -0.043     -0.062    18.7562 0.0000e+00
     -0.043      0.001     8.5733     91.980     34.924  30.566415     1.2450      7.174   267.5989 1.6525e+03     1.0715     -0.043     -0.062    18.7534 0.0000e+00
     -0.043      0.001     8.5677     91.930     34.891  30.541327     1.2527      7.179   267.7689 1.7805e+03     1.1111     -0.041     -0.060    18.7556 0.0000e+00
     -0.043      0.001     8.5647     91.907     34.875  30.529883     1.2799      7.183   267.9174 1.8230e+03     1.1441     -0.041     -0.060    18.7578 0.0000e+00
     -0.043      0.000     8.5667     91.934     34.901  30.555066     1.2979      7.184   267.9314 1.8105e+03     1.1351     -0.043     -0.063    18.7544 0.0000e+00
     -0.042     -0.000     8.5712     91.985     34.941  30.591797     1.3054      7.185   267.9374 1.7824e+03     1.0941     -0.042     -0.061    18.7554 0.0000e+00
     -0.042     -0.001     8.5773     92.055     34.941  30.592951     1.3239      7.187   268.0774 1.7142e+03     1.1067     -0.040     -0.059    18.7624 0.0000e+00
     -0.042     -0.002     8.5873     92.169     34.911  30.569016     1.3569      7.187   268.2473 1.6153e+03     1.1652     -0.041     -0.060    18.7681 0.0000e+00
     -0.043     -0.002     8.5983     92.293     34.894  30.556429     1.3825      7.186   268.4428 1.5573e+03     1.1912     -0.042     -0.061    18.7707 0.0000e+00
     -0.044     -0.002     8.6054     92.371     34.906  30.567788     1.3853      7.186   268.6341 1.5696e+03     1.1762     -0.043     -0.063    18.7719 0.0000e+00
     -0.046     -0.002     8.6089     92.404     34.921  30.579336     1.3540      7.186   268.6672 1.6266e+03     1.1369     -0.045     -0.065    18.7735 0.0000e+00
     -0.046     -0.001     8.6084     92.391     34.912  30.569038     1.3163      7.187   268.7569 1.7212e+03     1.1128     -0.045     -0.065    18.7769 0.0000e+00
     -0.045     -0.001     8.6050     92.346     34.917  30.570297     1.3073      7.189   269.0302 1.8259e+03     1.1284     -0.045     -0.065    18.7818 0.0000e+00
     -0.045      0.000     8.6032     92.323     34.947  30.594556     1.3093      7.189   269.3052 1.8849e+03     1.1421     -0.043     -0.063    18.7837 0.0000e+00
     -0.045      0.001     8.6046     92.338     34.962  30.608308     1.3228      7.189   269.4140 1.9022e+03     1.1561     -0.044     -0.064    18.7804 0.0000e+00
     -0.045      0.001     8.6066     92.363     34.962  30.609558     1.3504      7.189   269.4853 1.9007e+03     1.1766     -0.045     -0.065    18.7753 0.0000e+00
     -0.045      0.001     8.6089     92.395     34.959  30.609670     1.3671      7.187   269.6515 1.8762e+03     1.1760     -0.044     -0.064    18.7701 0.0000e+00
     -0.044      0.001     8.6127     92.447     34.954  30.609668     1.3680      7.184   269.7022 1.8492e+03     1.1492     -0.044     -0.064    18.7678 0.0000e+00
     -0.043      0.001     8.6172     92.508     34.949  30.609545     1.3797      7.182   269.6681 1.8442e+03     1.1272     -0.042     -0.062    18.7683 0.0000e+00
     -0.043      0.000     8.6192     92.537     34.944  30.608182     1.4075      7.182   269.6697 1.8409e+03     1.1227     -0.041     -0.060    18.7696 0.0000e+00
     -0.043     -0.000     8.6159     92.507     34.925  30.593190     1.4287      7.184   269.8076 1.8124e+03     1.1265     -0.041     -0.059    18.7731 0.0000e+00
     -0.044      0.000     8.6085     92.427     34.881  30.555295     1.4425      7.186   270.1310 1.7608e+03     1.1425     -0.043     -0.062    18.7807 0.0000e+00
     -0.045     -0.001     8.5980     92.309     34.856  30.531048     1.4365      7.188   270.3958 1.7042e+03     1.1332     -0.045     -0.065    18.7881 0.0000e+00
     -0.044     -0.001     8.5856     92.168     34.886  30.554046     1.4207      7.189   270.5135 1.6637e+03     1.1055     -0.044     -0.063    18.7916 0.0000e+00
     -0.043     -0.001     8.5752     92.048     34.918  30.579334     1.4261      7.190   270.5222 1.6609e+03     1.1126     -0.042     -0.061    18.7948 0.0000e+00
     -0.043     -0.001     8.5710     91.997     34.925  30.582769     1.4384      7.190   270.5008 1.7069e+03     1.1581     -0.042     -0.061    18.7950 0.0000e+00
     -0.044     -0.001     8.5738     92.024     34.940  30.595564     1.4404      7.190   270.6860 1.7853e+03     1.1675     -0.043     -0.063    18.7915 0.0000e+00
     -0.044     -0.001     8.5816     92.106     34.954  30.607025     1.4038      7.190   270.9537 1.8625e+03     1.1039     -0.043     -0.063    18.7870 0.0000e+00
     -0.045     -0.001     8.5918     92.214     34.941  30.594327     1.3363      7.188   271.0702 1.9047e+03     1.0911     -0.044     -0.064    18.7821 0.0000e+00
     -0.046     -0.001     8.6028     92.326     34.914  30.569048     1.3042      7.186   271.1495 1.9031e+03     1.1652     -0.045     -0.065    18.7785 0.0000e+00
     -0.046     -0.001     8.6120     92.419     34.901  30.555412     1.3100      7.184   271.3104 1.8671e+03     1.2059     -0.046     -0.066    18.7769 0.0000e+00
     -0.046     -0.001     8.6138     92.435     34.904  30.556453     1.3425      7.183   271.3800 1.7904e+03     1.1872     -0.045     -0.065    18.7769 0.0000e+00
     -0.045     -0.000     8.6071     92.366     34.932  30.581636     1.3938      7.182   271.3889 1.6858e+03     1.1523     -0.044     -0.064    18.7765 0.0000e+00
     -0.045 -1.864e-08     8.5966     92.259     34.957  30.605875     1.4155      7.181   271.5904 1.6109e+03     1.1493     -0.044     -0.064    18.7731 0.0000e+00
     -0.046 -2.050e-07     8.5851     92.142     34.942  30.595491     1.4200      7.181   271.8371 1.6116e+03     1.1821     -0.045     -0.065    18.7685 0.0000e+00
     -0.046 -2.050e-07     8.5753     92.042     34.926  30.583114     1.4309      7.181   272.0489 1.6651e+03     1.1529     -0.046     -0.066    18.7670 0.0000e+00
     -0.046 -1.864e-08     8.5696     91.988     34.923  30.583237     1.4374      7.180   272.2584 1.7271e+03     1.1009     -0.045     -0.066    18.7682 0.0000e+00
     -0.046 -1.695e-09     8.5698     92.000     34.934  30.596979     1.4428      7.179   272.3913 1.7953e+03     1.1334     -0.045     -0.066    18.7720 0.0000e+00
     -0.045 -1.541e-10     8.5754     92.074     34.957  30.622269     1.4405      7.179   272.4509 1.8527e+03     1.1794     -0.044     -0.064    18.7757 0.0000e+00
     -0.045 -1.400e-11     8.5849     92.191     34.965  30.634989     1.4380      7.180   272.4628 1.8751e+03     1.2293     -0.044     -0.064    18.7780 0.0000e+00
     -0.046 -1.273e-12     8.5956     92.319     34.947  30.623764     1.4399      7.180   272.5348 1.8770e+03     1.3098     -0.045     -0.066    18.7823 0.0000e+00
     -0.046 -1.147e-13     8.6026     92.402     34.932  30.613571     1.4355      7.180   272.7199 1.8664e+03     1.3293     -0.046     -0.067    18.7877 0.0000e+00
     -0.046 9.5015e-16     8.6036     92.417     34.959  30.638766     1.4313      7.179   272.9798 1.8379e+03     1.3125     -0.045     -0.066    18.7950 0.0000e+00
     -0.046 1.2522e-13     8.6002     92.382     34.999  30.674362     1.4254      7.178   273.2679 1.7970e+03     1.3204     -0.045     -0.065    18.8034 0.0000e+00
     -0.046 1.3878e-12     8.5952     92.329     34.985  30.662920     1.4374      7.177   273.5357 1.7591e+03     1.2710     -0.045     -0.065    18.8109 0.0000e+00
     -0.046 1.5267e-11     8.5896     92.269     34.945  30.627438     1.4753      7.177   273.7224 1.7505e+03     1.1744     -0.045     -0.065    18.8151 0.0000e+00
     -0.046 1.6794e-10     8.5832     92.204     34.942  30.626398     1.4977      7.177   273.8048 1.7625e+03     1.1288     -0.045     -0.066    18.8170 0.0000e+00
     -0.047 1.8473e-09     8.5795     92.172     34.966  30.650344     1.4976      7.178   273.9296 1.7535e+03     1.1154     -0.045     -0.066    18.8183 0.0000e+00
     -0.047 2.0320e-08     8.5801     92.194     34.974  30.662939     1.4647      7.179   274.0272 1.7344e+03     1.1049     -0.047     -0.068    18.8174 0.0000e+00
     -0.047 2.2352e-07     8.5826     92.239     34.954  30.651684     1.4034      7.180   274.0381 1.7346e+03     1.0932     -0.047     -0.068    18.8179 0.0000e+00
     -0.046      0.000     8.5869     92.299     34.936  30.641281     1.3717      7.180   274.2341 1.7506e+03     1.0953     -0.045     -0.064    18.8184 0.0000e+00
     -0.046      0.000     8.5921     92.366     34.958  30.664186     1.3664      7.179   274.5034 1.7727e+03     1.1311     -0.044     -0.063    18.8220 0.0000e+00
     -0.046      0.001     8.5941     92.395     34.966  30.674598     1.3205      7.177   274.6272 1.7865e+03     1.1595     -0.045     -0.065    18.8319 0.0000e+00
     -0.047      0.001     8.5904     92.362     34.923  30.640168     1.2302      7.174   274.6984 1.7785e+03     1.1340     -0.046     -0.066    18.8419 0.0000e+00
     -0.047      0.001     8.5841     92.302     34.907  30.628935     1.1759      7.172   274.7621 1.7478e+03     1.0968     -0.046     -0.066    18.8503 0.0000e+00
     -0.046      0.001     8.5783     92.245     34.946  30.665798     1.1784      7.171   274.7951 1.6939e+03     1.1063     -0.045     -0.065    18.8554 0.0000e+00
     -0.045      0.001     8.5752     92.218     34.988  30.704828     1.2044      7.169   274.8398 1.6240e+03     1.1269     -0.044     -0.064    18.8591 0.0000e+00
     -0.045      0.002     8.5757     92.231     35.003  30.719809     1.2334      7.167   274.9582 1.5668e+03     1.1321     -0.044     -0.064    18.8637 0.0000e+00
     -0.044      0.002     8.5759     92.242     34.999  30.719920     1.2440      7.166   275.1080 1.5427e+03     1.1083     -0.043     -0.063    18.8673 0.0000e+00
     -0.044      0.002     8.5746     92.237     34.979  30.706179     1.2408      7.166   275.2748 1.5301e+03     1.0833     -0.043     -0.062    18.8707 0.0000e+00
     -0.044      0.002     8.5721     92.217     34.947  30.680682     1.2131      7.166   275.4256 1.4800e+03     1.1045     -0.043     -0.062    18.8744 0.0000e+00
     -0.043      0.001     8.5662     92.152     34.931  30.665671     1.1576      7.165   275.5547 1.3785e+03     1.1206     -0.042     -0.061    18.8775 0.0000e+00
     -0.043      0.001     8.5559     92.027     34.922  30.651701     1.1211      7.163   275.7176 1.2645e+03     1.0956     -0.042     -0.061    18.8817 0.0000e+00
     -0.042      0.000     8.5422     91.855     34.917  30.638781     1.1119      7.163   275.8467 1.1619e+03     1.0762     -0.041     -0.060    18.8874 0.0000e+00
     -0.042      0.000     8.5285     91.683     34.925  30.636453     1.1018      7.163   275.9108 1.0639e+03     1.0992     -0.042     -0.060    18.8919 0.0000e+00
     -0.043      0.000     8.5174     91.542     34.920  30.623543     1.0818      7.162   275.9758 9.8332e+02     1.1300     -0.042     -0.061    18.8925 0.0000e+00
     -0.043     -0.001     8.5092     91.438     34.911  30.609688     1.0624      7.159   276.0306 9.6286e+02     1.1121     -0.042     -0.061    18.8848 0.0000e+00
     -0.043     -0.001     8.5053     91.383     34.901  30.595936     1.0522      7.155   276.0573 9.9928e+02     1.0665     -0.042     -0.060    18.8696 0.0000e+00
     -0.043     -0.001     8.5071     91.393     34.891  30.584284     1.0407      7.150   276.1269 1.0230e+03     1.0673     -0.042     -0.061    18.8543 0.0000e+00
     -0.043     -0.001     8.5132     91.456     34.905  30.595811     1.0427      7.145   276.1840 9.9445e+02     1.1209     -0.042     -0.061    18.8434 0.0000e+00
     -0.044     -0.001     8.5217     91.547     34.919  30.608293     1.0757      7.135   276.2317 9.2311e+02     1.1656     -0.043     -0.063    18.8356 0.0000e+00
     -0.044     -0.001     8.5349     91.686     34.921  30.608188     1.1093      7.117   276.3588 8.3359e+02     1.1501     -0.044     -0.063    18.8278 0.0000e+00
     -0.044      0.000     8.5540     91.876     34.912  30.594541     1.1176      7.093   276.5160 7.5351e+02     1.0869     -0.043     -0.063    18.8219 0.0000e+00
     -0.044 1.8629e-08     8.5734     92.061     34.895  30.570294     1.1120      7.073   276.5839 6.7799e+02     1.0722     -0.043     -0.062    18.8216 0.0000e+00
     -0.044 2.0492e-07     8.5883     92.196     34.903  30.569035     1.1064      7.060   276.5784 6.0444e+02     1.0938     -0.043     -0.063    18.8233 0.0000e+00
     -0.044      0.000     8.5985     92.290     34.921  30.579315     1.1040      7.055   276.6205 5.7065e+02     1.0741     -0.043     -0.063    18.8222 0.0000e+00
     -0.044      0.000     8.6047     92.351     34.911  30.567560     1.1015      7.056   276.6633 5.7527e+02     1.0785     -0.043     -0.062    18.8145 0.0000e+00
     -0.044      0.001     8.6090     92.392     34.897  30.553923     1.0954      7.061   276.7517 5.8602e+02     1.1164     -0.043     -0.062    18.7988 0.0000e+00
     -0.044      0.001     8.6137     92.433     34.887  30.541441     1.0937      7.065   276.8280 6.1239e+02     1.1356     -0.043     -0.062    18.7839 0.0000e+00
     -0.043      0.001     8.6182     92.474     34.893  30.543646     1.0993      7.069   276.7257 6.9258e+02     1.1268     -0.043     -0.062    18.7762 0.0000e+00
     -0.043      0.001     8.6213     92.512     34.933  30.580585     1.0998      7.073   276.7200 8.3185e+02     1.1018     -0.042     -0.061    18.7749 0.0000e+00
     -0.043      0.001     8.6228     92.545     34.956  30.607025     1.1173      7.075   276.9314 9.3903e+02     1.1076     -0.042     -0.060    18.7736 0.0000e+00
     -0.043      0.000     8.6233     92.566     34.952  30.609315     1.1544      7.079   277.0437 9.6520e+02     1.1364     -0.042     -0.061    18.7674 0.0000e+00
     -0.043 1.8488e-08     8.6243     92.581     34.949  30.608272     1.1724      7.085   277.0452 9.6444e+02     1.1444     -0.043     -0.062    18.7607 0.0000e+00
     -0.042 2.0337e-07     8.6249     92.583     34.935  30.594427     1.1776      7.091   277.0365 9.4217e+02     1.1443     -0.042     -0.060    18.7631 0.0000e+00
     -0.042 2.0339e-07     8.6234     92.562     34.908  30.568922     1.1806      7.095   277.0242 8.9895e+02     1.1344     -0.042     -0.060    18.7748 0.0000e+00
     -0.043 1.8795e-08     8.6193     92.514     34.893  30.553922     1.2095      7.100   277.1549 8.6720e+02     1.0865     -0.042     -0.061    18.7859 0.0000e+00
     -0.043 5.0675e-09     8.6116     92.423     34.880  30.540067     1.2695      7.106   277.4129 8.5978e+02     1.0535     -0.042     -0.061    18.7880 0.0000e+00
     -0.043 3.7408e-08     8.6004     92.291     34.872  30.528416     1.3003      7.115   277.5618 8.8594e+02     1.0704     -0.043     -0.062    18.7827 0.0000e+00
     -0.043 4.0982e-07     8.5874     92.136     34.892  30.540057     1.2966      7.125   277.5789 9.6783e+02     1.1080     -0.043     -0.062    18.7798 0.0000e+00
     -0.043      0.000     8.5742     91.988     34.911  30.553799     1.2613      7.132   277.6189 1.0976e+03     1.1411     -0.041     -0.060    18.7794 0.0000e+00
     -0.043      0.000     8.5633     91.875     34.924  30.567550     1.2045      7.137   277.7014 1.2433e+03     1.1359     -0.042     -0.060    18.7762 0.0000e+00
     -0.043      0.001     8.5548     91.791     34.934  30.579305     1.1794      7.139   277.8019 1.4080e+03     1.1056     -0.043     -0.062    18.7678 0.0000e+00
     -0.042      0.001     8.5458     91.705     34.918  30.568923     1.1784      7.137   277.8876 1.5545e+03     1.0802     -0.042     -0.061    18.7574 0.0000e+00
     -0.042      0.001     8.5367     91.617     34.914  30.569037     1.1754      7.135   277.9634 1.6325e+03     1.0736     -0.042     -0.060    18.7535 0.0000e+00
     -0.042      0.001     8.5299     91.551     34.924  30.580688     1.1793      7.135   278.0295 1.6812e+03     1.0865     -0.042     -0.060    18.7571 0.0000e+00
     -0.042      0.001     8.5246     91.493     34.927  30.582778     1.1887      7.138   278.0852 1.7277e+03     1.0831     -0.041     -0.060    18.7622 0.0000e+00
     -0.041      0.000     8.5165     91.400     34.943  30.594315     1.1962      7.142   278.1205 1.7397e+03     1.0933     -0.040     -0.058    18.7674 0.0000e+00
     -0.041     -0.001     8.5028     91.246     34.944  30.593170     1.2241      7.147   278.1129 1.7236e+03     1.1186     -0.041     -0.059    18.7738 0.0000e+00
     -0.042     -0.002     8.4836     91.035     34.919  30.568923     1.2686      7.152   278.0785 1.6924e+03     1.1141     -0.041     -0.060    18.7786 0.0000e+00
     -0.042     -0.002     8.4616     90.792     34.906  30.555173     1.2930      7.155   278.1347 1.6266e+03     1.1303     -0.041     -0.060    18.7776 0.0000e+00
     -0.043     -0.001     8.4422     90.579     34.907  30.553933     1.3079      7.157   278.2759 1.5478e+03     1.1627     -0.042     -0.061    18.7720 0.0000e+00
     -0.044      0.001     8.4320     90.468     34.908  30.553925     1.3385      7.159   278.3235 1.5014e+03     1.1393     -0.043     -0.063    18.7690 0.0000e+00
     -0.045      0.002     8.4329     90.481     34.908  30.555069     1.3691      7.160   278.2804 1.4734e+03     1.0913     -0.045     -0.066    18.7672 0.0000e+00
     -0.044      0.001     8.4464     90.633     34.919  30.567778     1.3754      7.159   278.1849 1.4444e+03     1.1013     -0.045     -0.064    18.7627 0.0000e+00
     -0.040      0.001     8.4661     90.849     34.932  30.580575     1.3680      7.159   278.2005 1.4472e+03     1.1383     -0.039     -0.056    18.7589 0.0000e+00
     -0.037      0.002     8.4775     90.973     34.933  30.582779     1.3622      7.159   278.3834 1.4950e+03     1.1422     -0.033     -0.048    18.7581 0.0000e+00
     -0.039      0.003     8.4832     91.037     34.946  30.594430     1.3325      7.155   278.5897 1.6015e+03     1.1179     -0.036     -0.053    18.7609 0.0000e+00
     -0.044      0.003     8.4861     91.070     34.945  30.594431     1.2759      7.150   278.7159 1.7490e+03     1.0887     -0.046     -0.068    18.7656 0.0000e+00
     -0.044      0.001     8.4787     90.991     34.931  30.582789     1.2474      7.149   278.7046 1.8441e+03     1.0940     -0.047     -0.067    18.7677 0.0000e+00
     -0.038     -0.001     8.4641     90.833     34.929  30.580689     1.2546      7.152   278.7116 1.8622e+03     1.1208     -0.037     -0.052    18.7684 0.0000e+00
     -0.034     -0.002     8.4487     90.664     34.918  30.569039     1.2893      7.155   278.7996 1.8301e+03     1.1386     -0.030     -0.043    18.7697 0.0000e+00
     -0.036     -0.002     8.4370     90.536     34.919  30.568935     1.3359      7.159   278.9086 1.7236e+03     1.1256     -0.033     -0.048    18.7712 0.0000e+00
     -0.042     -0.002     8.4320     90.481     34.932  30.579430     1.3497      7.161   279.0841 1.5210e+03     1.0864     -0.042     -0.061    18.7719 0.0000e+00
     -0.046     -0.002     8.4300     90.460     34.919  30.568923     1.3547      7.163   279.2862 1.2979e+03     1.0917     -0.047     -0.069    18.7707 0.0000e+00
     -0.046     -0.001     8.4237     90.392     34.919  30.568915     1.3977      7.165   279.3732 1.0902e+03     1.1278     -0.046     -0.066    18.7682 0.0000e+00
     -0.042      0.000     8.4124     90.268     34.932  30.579326     1.4646      7.167   279.3622 8.1322e+02     1.1264     -0.041     -0.060    18.7661 0.0000e+00
     -0.038      0.001     8.3968     90.099     34.920  30.567788     1.5013      7.168   279.3252 6.4997e+02     1.1064     -0.037     -0.054    18.7651 0.0000e+00
     -0.038      0.001     8.3753     89.871     34.906  30.556433     1.5012      7.167   279.3550 9.2704e+02     1.0987     -0.036     -0.052    18.7668 0.0000e+00
     -0.041     -0.000     8.3536     89.644     34.918  30.569038     1.4638      7.167   279.4652 1.4457e+03     1.0944     -0.040     -0.058    18.7672 0.0000e+00
     -0.044     -0.002     8.3350     89.447     34.945  30.593181     1.3983      7.167   279.5395 1.7607e+03     1.0852     -0.044     -0.064    18.7646 0.0000e+00
     -0.044     -0.002     8.3154     89.238     34.945  30.594316     1.3703      7.166   279.6508 1.8389e+03     1.0787     -0.044     -0.063    18.7631 0.0000e+00
     -0.043     -0.001     8.2962     89.035     34.930  30.582768     1.3743      7.164   279.7788 1.8448e+03     1.1070     -0.041     -0.060    18.7647 0.0000e+00
     -0.042      0.000     8.2830     88.898     34.926  30.580574     1.3732      7.159   279.7955 1.8387e+03     1.1532     -0.040     -0.058    18.7689 0.0000e+00
     -0.042      0.002     8.2767     88.833     34.910  30.567787     1.3753      7.155   279.8540 1.8347e+03     1.1491     -0.041     -0.059    18.7703 0.0000e+00
     -0.043      0.002     8.2763     88.833     34.894  30.555181     1.3809      7.152   280.0550 1.8328e+03     1.0872     -0.042     -0.061    18.7702 0.0000e+00
     -0.043      0.002     8.2825     88.904     34.892  30.555161     1.3858      7.150   280.1609 1.8291e+03     1.0161     -0.043     -0.062    18.7727 0.0000e+00
     -0.041      0.002     8.2943     89.035     34.904  30.567548     1.3981      7.150   280.1024 1.8248e+03     1.0209     -0.040     -0.058    18.7750 0.0000e+00
     -0.039      0.003     8.3079     89.183     34.915  30.577939     1.4193      7.152   280.1217 1.8230e+03     1.0849     -0.038     -0.056    18.7767 0.0000e+00
     -0.039      0.003     8.3199     89.307     34.890  30.553795     1.4309      7.154   280.3079 1.8227e+03     1.0879     -0.038     -0.055    18.7785 0.0000e+00
     -0.039      0.003     8.3293     89.392     34.869  30.529654     1.4287      7.155   280.5474 1.8245e+03     1.0572     -0.038     -0.055    18.7803 0.0000e+00
     -0.038      0.002     8.3320     89.402     34.889  30.540066     1.4286      7.156   280.6942 1.8300e+03     1.0792     -0.038     -0.055    18.7841 0.0000e+00
     -0.038      0.001     8.3226     89.287     34.909  30.552664     1.4206      7.156   280.7922 1.8363e+03     1.1409     -0.037     -0.054    18.7864 0.0000e+00
     -0.038      0.001     8.3021     89.062     34.914  30.554954     1.3965      7.156   280.8720 1.8403e+03     1.1933     -0.037     -0.054    18.7835 0.0000e+00
     -0.037      0.001     8.2783     88.807     34.929  30.567759     1.3757      7.157   280.7983 1.8408e+03     1.1931     -0.036     -0.052    18.7747 0.0000e+00
     -0.036      0.000     8.2607     88.620     34.943  30.580471     1.3617      7.157   280.7616 1.8393e+03     1.1390     -0.036     -0.052    18.7614 0.0000e+00
     -0.036      0.000     8.2504     88.512     34.943  30.581635     1.3572      7.157   280.9447 1.8362e+03     1.0885     -0.036     -0.052    18.7534 0.0000e+00
     -0.037     -0.001     8.2437     88.438     34.944  30.581834     1.3669      7.158   281.2050 1.8320e+03     1.0710     -0.036     -0.053    18.7518 0.0000e+00
     -0.038     -0.001     8.2400     88.392     34.949  30.582883     1.3776      7.159   281.3275 1.8308e+03     1.0794     -0.037     -0.054    18.7515 0.0000e+00
     -0.038     -0.001     8.2413     88.395     34.966  30.594316     1.3766      7.159   281.3075 1.8330e+03     1.0985     -0.037     -0.054    18.7538 0.0000e+00
     -0.038      0.000     8.2502     88.476     34.971  30.593048     1.3820      7.159   281.3939 1.8371e+03     1.0889     -0.038     -0.055    18.7559 0.0000e+00
     -0.038 -1.861e-08     8.2632     88.605     34.947  30.567542     1.4150      7.160   281.5123 1.8421e+03     1.0859     -0.037     -0.054    18.7544 0.0000e+00
     -0.037 -2.048e-07     8.2709     88.681     34.918  30.539946     1.4358      7.160   281.6201 1.8487e+03     1.1221     -0.036     -0.053    18.7506 0.0000e+00
     -0.037 -2.048e-07     8.2708     88.678     34.888  30.513406     1.4222      7.158   281.8370 1.8563e+03     1.1297     -0.037     -0.053    18.7448 0.0000e+00
     -0.038 -1.861e-08     8.2714     88.684     34.873  30.500686     1.3888      7.154   281.9828 1.8608e+03     1.1175     -0.037     -0.054    18.7360 0.0000e+00
     -0.038 -1.692e-09     8.2788     88.767     34.886  30.513157     1.3442      7.151   282.0070 1.8630e+03     1.1268     -0.037     -0.054    18.7284 0.0000e+00
     -0.038 -1.538e-10     8.2932     88.925     34.913  30.537184     1.3144      7.148   282.0430 1.8657e+03     1.1506     -0.037     -0.054    18.7258 0.0000e+00
     -0.038 -1.399e-11     8.3106     89.113     34.913  30.537174     1.3053      7.148   282.1596 1.8674e+03     1.1615     -0.037     -0.054    18.7253 0.0000e+00
     -0.038 -1.272e-12     8.3230     89.243     34.886  30.513030     1.3069      7.148   282.3846 1.8661e+03     1.1063     -0.037     -0.054    18.7248 0.0000e+00
     -0.038 -1.156e-13     8.3289     89.304     34.871  30.499290     1.2794      7.148   282.5273 1.8631e+03     1.0623     -0.037     -0.054    18.7269 0.0000e+00
     -0.038 -1.051e-14     8.3306     89.321     34.870  30.498051     1.2118      7.148   282.5083 1.8602e+03     1.1187     -0.038     -0.055    18.7300 0.0000e+00
     -0.038 -9.550e-16     8.3256     89.266     34.870  30.498041     1.1784      7.148   282.5845 1.8586e+03     1.1770     -0.037     -0.054    18.7300 0.0000e+00
     -0.038 -8.685e-17     8.3124     89.124     34.872  30.499177     1.1780      7.149   282.7606 1.8596e+03     1.1567     -0.037     -0.054    18.7284 0.0000e+00
     -0.038 -7.895e-18     8.2964     88.950     34.888  30.511783     1.1518      7.150   282.8316 1.8626e+03     1.1173     -0.038     -0.055    18.7273 0.0000e+00
     -0.038 -7.175e-19     8.2844     88.815     34.904  30.523444     1.1189      7.150   282.8401 1.8652e+03     1.1287     -0.038     -0.055    18.7258 0.0000e+00
     -0.038 -6.525e-20     8.2794     88.755     34.895  30.513157     1.1109      7.150   282.9487 1.8689e+03     1.1417     -0.037     -0.054    18.7253 0.0000e+00
     -0.038 -5.930e-21     8.2776     88.732     34.898  30.514416     1.1114      7.151   283.0258 1.8740e+03     1.0910     -0.038     -0.055    18.7264 0.0000e+00
     -0.039 -5.389e-22     8.2724     88.674     34.926  30.538665     1.1063      7.151   282.9984 1.8769e+03     1.0342     -0.038     -0.055    18.7244 0.0000e+00
     -0.039 -4.821e-23     8.2637     88.583     34.941  30.552311     1.1048      7.151   283.0488 1.8776e+03     1.0356     -0.038     -0.055    18.7204 0.0000e+00
     -0.038 4.3889e-24     8.2597     88.544     34.939  30.552406     1.1112      7.150   283.2041 1.8781e+03     1.0772     -0.038     -0.055    18.7167 0.0000e+00
     -0.038 9.6889e-23     8.2630     88.586     34.922  30.539809     1.1185      7.149   283.3278 1.8772e+03     1.1102     -0.038     -0.055    18.7138 0.0000e+00
     -0.038 1.0702e-21     8.2669     88.636     34.904  30.527023     1.1386      7.149   283.3398 1.8753e+03     1.1286     -0.038     -0.055    18.7135 0.0000e+00
     -0.038 1.1773e-20     8.2698     88.677     34.898  30.524828     1.1710      7.150   283.3496 1.8735e+03     1.1478     -0.037     -0.054    18.7148 0.0000e+00
     -0.038 1.2950e-19     8.2754     88.747     34.880  30.513281     1.1876      7.152   283.4458 1.8725e+03     1.1596     -0.038     -0.055    18.7168 0.0000e+00
     -0.038 1.4245e-18     8.2867     88.877     34.877  30.514426     1.1838      7.153   283.6429 1.8736e+03     1.1491     -0.038     -0.055    18.7208 0.0000e+00
     -0.038 1.5669e-17     8.3041     89.072     34.901  30.538673     1.1890      7.154   283.8396 1.8749e+03     1.1116     -0.037     -0.054    18.7255 0.0000e+00
     -0.038 1.7236e-16     8.3212     89.260     34.915  30.552424     1.2228      7.154   283.9308 1.8757e+03     1.0721     -0.038     -0.055    18.7304 0.0000e+00
     -0.038 1.8960e-15     8.3327     89.385     34.915  30.553675     1.2520      7.154   283.9722 1.8760e+03     1.0681     -0.038     -0.055    18.7361 0.0000e+00
     -0.038 2.0856e-14     8.3397     89.463     34.914  30.553798     1.2581      7.154   283.9955 1.8740e+03     1.0944     -0.038     -0.055    18.7417 0.0000e+00
     -0.038 2.2941e-13     8.3438     89.509     34.913  30.553922     1.2507      7.154   284.0399 1.8715e+03     1.1153     -0.038     -0.055    18.7464 0.0000e+00
     -0.038 2.5236e-12     8.3430     89.504     34.912  30.555172     1.2361      7.154   284.1651 1.8710e+03     1.1072     -0.038     -0.055    18.7491 0.0000e+00
     -0.038 2.7759e-11     8.3372     89.446     34.926  30.568914     1.2286      7.155   284.3049 1.8723e+03     1.0881     -0.037     -0.054    18.7497 0.0000e+00
     -0.038 3.0535e-10     8.3283     89.356     34.952  30.593058     1.2336      7.156   284.3535 1.8736e+03     1.0979     -0.038     -0.055    18.7505 0.0000e+00
     -0.038 3.3589e-09     8.3174     89.241     34.952  30.593067     1.2416      7.157   284.4085 1.8728e+03     1.1348     -0.038     -0.055    18.7522 0.0000e+00
     -0.038 3.6947e-08     8.3050     89.107     34.926  30.569028     1.2423      7.158   284.5403 1.8694e+03     1.1674     -0.038     -0.055    18.7545 0.0000e+00
     -0.038 4.0642e-07     8.2901     88.945     34.912  30.556432     1.2422      7.158   284.5700 1.8664e+03     1.1568     -0.038     -0.055    18.7572 0.0000e+00
     -0.038      0.000     8.2736     88.770     34.923  30.567780     1.2401      7.157   284.5962 1.8657e+03     1.0979     -0.038     -0.055    18.7599 0.0000e+00
     -0.038      0.000     8.2601     88.635     34.932  30.579224     1.2343      7.156   284.7708 1.8643e+03     1.0655     -0.037     -0.054    18.7609 0.0000e+00
     -0.038      0.001     8.2520     88.562     34.913  30.567790     1.2365      7.156   284.8733 1.8635e+03     1.1014     -0.037     -0.054    18.7592 0.0000e+00
     -0.038      0.001     8.2511     88.565     34.895  30.556555     1.2391      7.155   284.8891 1.8646e+03     1.1342     -0.037     -0.054    18.7572 0.0000e+00
     -0.038      0.000     8.2555     88.620     34.907  30.570411     1.2383      7.154   284.8766 1.8626e+03     1.1262     -0.038     -0.055    18.7580 0.0000e+00
     -0.037 1.8471e-08     8.2601     88.675     34.947  30.608306     1.2370      7.154   284.8943 1.8579e+03     1.1269     -0.037     -0.054    18.7644 0.0000e+00
     -0.037 2.0318e-07     8.2595     88.675     34.973  30.633699     1.2235      7.153   285.0165 1.8552e+03     1.1432     -0.036     -0.053    18.7733 0.0000e+00
     -0.037 2.0290e-07     8.2509     88.592     34.957  30.623410     1.1949      7.150   285.1493 1.8540e+03     1.1398     -0.036     -0.053    18.7805 0.0000e+00
     -0.038 1.5115e-08     8.2401     88.489     34.937  30.610928     1.1662      7.147   285.2961 1.8530e+03     1.1164     -0.037     -0.054    18.7848 0.0000e+00
     -0.038 -3.527e-08     8.2334     88.434     34.928  30.609803     1.1520      7.146   285.4146 1.8525e+03     1.0744     -0.037     -0.054    18.7871 0.0000e+00
     -0.037 -4.063e-07     8.2356     88.471     34.922  30.609814     1.1428      7.146   285.4637 1.8522e+03     1.0284     -0.036     -0.053    18.7909 0.0000e+00
     -0.037      0.000     8.2493     88.627     34.920  30.611064     1.1285      7.145   285.4596 1.8527e+03     1.0180     -0.037     -0.053    18.7961 0.0000e+00
     -0.037      0.000     8.2688     88.844     34.932  30.624928     1.1173      7.145   285.4512 1.8535e+03     1.0406     -0.037     -0.053    18.8034 0.0000e+00
     -0.037     -0.001     8.2874     89.059     34.955  30.650424     1.1082      7.145   285.5340 1.8529e+03     1.0573     -0.037     -0.053    18.8136 0.0000e+00
     -0.037     -0.001     8.3028     89.248     34.962  30.665320     1.0925      7.145   285.6855 1.8515e+03     1.0667     -0.037     -0.053    18.8224 0.0000e+00
     -0.038      0.000     8.3126     89.381     34.964  30.678030     1.0653      7.144   285.7345 1.8515e+03     1.0622     -0.037     -0.054    18.8265 0.0000e+00
     -0.038 -1.832e-08     8.3147     89.428     34.952  30.677103     1.0451      7.142   285.7829 1.8520e+03     1.0651     -0.038     -0.055    18.8282 0.0000e+00
     -0.038 -2.015e-07     8.3109     89.401     34.919  30.654114     1.0415      7.142   286.0124 1.8514e+03     1.1018     -0.038     -0.055    18.8354 0.0000e+00
     -0.038 -1.847e-07     8.3055     89.343     34.919  30.654105     1.0404      7.142   286.1859 1.8511e+03     1.1086     -0.037     -0.054    18.8507 0.0000e+00
     -0.038 1.3995e-10     8.3004     89.280     34.949  30.676999     1.0313      7.143   286.2468 1.8502e+03     1.0865     -0.037     -0.054    18.8668 0.0000e+00
     -0.038 1.5395e-09     8.2943     89.208     34.951  30.676886     1.0046      7.143   286.3186 1.8479e+03     1.0789     -0.037     -0.054    18.8818 0.0000e+00
     -0.038 1.6934e-08     8.2866     89.123     34.926  30.652731     0.9755      7.142   286.3649 1.8460e+03     1.0776     -0.037     -0.054    18.8910 0.0000e+00
     -0.037 1.8627e-07     8.2789     89.036     34.912  30.638979     0.9635      7.142   286.3769 1.8450e+03     1.1017     -0.036     -0.053    18.8894 0.0000e+00
     -0.037 1.8627e-07     8.2732     88.965     34.914  30.637625     0.9984      7.142   286.4627 1.8450e+03     1.1557     -0.037     -0.053    18.8830 0.0000e+00
     -0.038 1.6934e-08     8.2690     88.909     34.918  30.636358     1.0668      7.143   286.6289 1.8458e+03     1.1815     -0.038     -0.055    18.8788 0.0000e+00
     -0.038 1.5395e-09     8.2668     88.872     34.909  30.623647     1.1009      7.144   286.7524 1.8467e+03     1.1392     -0.037     -0.054    18.8788 0.0000e+00
     -0.037 1.3995e-10     8.2679     88.867     34.902  30.610945     1.1076      7.144   286.8366 1.8473e+03     1.0716     -0.037     -0.053    18.8775 0.0000e+00
     -0.037 1.2723e-11     8.2717     88.891     34.908  30.609792     1.1293      7.145   286.8720 1.8474e+03     1.0656     -0.037     -0.053    18.8717 0.0000e+00
     -0.038 1.1566e-12     8.2778     88.943     34.914  30.609697     1.1614      7.145   286.9234 1.8474e+03     1.0975     -0.037     -0.054    18.8650 0.0000e+00
     -0.038 1.0515e-13     8.2835     88.991     34.920  30.609793     1.1742      7.144   287.0279 1.8488e+03     1.0911     -0.037     -0.054    18.8584 0.0000e+00
     -0.038 9.5590e-15     8.2855     89.002     34.926  30.610939     1.1645      7.142   287.1033 1.8512e+03     1.0495     -0.038     -0.055    18.8473 0.0000e+00
     -0.037 8.6900e-16     8.2856     89.002     34.941  30.623545     1.1443      7.140   287.1457 1.8537e+03     1.0521     -0.037     -0.054    18.8378 0.0000e+00
     -0.037 7.9000e-17     8.2844     88.995     34.952  30.635196     1.1229      7.138   287.1101 1.8545e+03     1.1226     -0.037     -0.053    18.8324 0.0000e+00
     -0.038 7.1814e-18     8.2813     88.963     34.939  30.624805     1.1180      7.137   287.1041 1.8542e+03     1.1388     -0.037     -0.054    18.8226 0.0000e+00
     -0.038 6.5150e-19     8.2783     88.922     34.943  30.624920     1.1214      7.137   287.2449 1.8544e+03     1.0952     -0.037     -0.054    18.8148 0.0000e+00
     -0.038 4.3924e-20     8.2766     88.892     34.962  30.636582     1.1088      7.137   287.3496 1.8536e+03     1.0846     -0.037     -0.054    18.8161 0.0000e+00
     -0.037 -1.643e-19     8.2775     88.899     34.965  30.638787     1.0858      7.137   287.3381 1.8533e+03     1.1014     -0.036     -0.052    18.8214 0.0000e+00
     -0.037 -1.867e-18     8.2811     88.950     34.975  30.651583     1.0634      7.138   287.2774 1.8548e+03     1.0851     -0.037     -0.053    18.8240 0.0000e+00
     -0.038 -2.054e-17     8.2860     89.025     34.980  30.664292     1.0408      7.140   287.2184 1.8558e+03     1.0396     -0.037     -0.054    18.8179 0.0000e+00
     -0.038 -2.259e-16     8.2917     89.110     34.970  30.665447     1.0328      7.142   287.3127 1.8572e+03     1.0399     -0.037     -0.054    18.8080 0.0000e+00
     -0.038 -2.485e-15     8.2979     89.197     34.961  30.665552     1.0398      7.144   287.4710 1.8595e+03     1.1190     -0.037     -0.054    18.8050 0.0000e+00
     -0.037 -2.734e-14     8.3019     89.255     34.955  30.665570     1.0515      7.145   287.5834 1.8617e+03     1.2328     -0.037     -0.053    18.8126 0.0000e+00
     -0.037 -3.007e-13     8.3021     89.267     34.950  30.665684     1.0547      7.146   287.7250 1.8647e+03     1.2869     -0.037     -0.053    18.8271 0.0000e+00
     -0.037 -3.308e-12     8.2986     89.234     34.950  30.666933     1.0416      7.146   287.8068 1.8676e+03     1.2847     -0.037     -0.054    18.8418 0.0000e+00
     -0.037 -3.639e-11     8.2927     89.171     34.966  30.680675     1.0220      7.146   287.7985 1.8699e+03     1.2364     -0.036     -0.053    18.8528 0.0000e+00
     -0.038 -4.002e-10     8.2864     89.099     34.995  30.704819     1.0021      7.145   287.7966 1.8735e+03     1.1611     -0.037     -0.054    18.8608 0.0000e+00
     -0.038 -4.403e-09     8.2804     89.031     34.996  30.704820     0.9932      7.145   287.9554 1.8765e+03     1.1370     -0.037     -0.054    18.8670 0.0000e+00
     -0.038 -4.843e-08     8.2787     89.010     34.970  30.680685     0.9884      7.144   288.1695 1.8768e+03     1.1280     -0.037     -0.054    18.8701 0.0000e+00
     -0.038 -5.327e-07     8.2842     89.066     34.956  30.667039     0.9991      7.143   288.1493 1.8767e+03     1.1141     -0.037     -0.054    18.8692 0.0000e+00
     -0.037     -0.000     8.2950     89.181     34.956  30.666841     1.0396      7.142   288.0549 1.8772e+03     1.0908     -0.037     -0.053    18.8670 0.0000e+00
     -0.037     -0.000     8.3067     89.307     34.969  30.678282     1.0652      7.142   288.1461 1.8778e+03     1.0589     -0.037     -0.053    18.8642 0.0000e+00
     -0.037     -0.001     8.3154     89.402     34.968  30.678367     1.0605      7.142   288.2191 1.8797e+03     1.0651     -0.037     -0.053    18.8621 0.0000e+00
     -0.038     -0.003     8.3215     89.469     34.956  30.667869     1.0384      7.140   288.1641 1.8822e+03     1.1043     -0.037     -0.054    18.8613 0.0000e+00
     -0.038     -0.006     8.3239     89.497     34.967  30.678365     1.0089      7.137   288.0833 1.8834e+03     1.1360     -0.037     -0.054    18.8602 0.0000e+00
     -0.038     -0.009     8.3187     89.445     34.965  30.678270     0.9978      7.135   288.0163 1.8847e+03     1.1435     -0.037     -0.053    18.8600 0.0000e+00
     -0.041     -0.011     8.3070     89.323     34.950  30.666713     0.9958      7.134   288.0428 1.8857e+03     1.1340     -0.040     -0.056    18.8614 0.0000e+00
     -0.047     -0.012     8.2910     89.155     34.947  30.665653     0.9845      7.135   288.1456 1.8855e+03     1.1133     -0.046     -0.067    18.8627 0.0000e+00
     -0.052     -0.011     8.2709     88.939     34.947  30.665443     0.9724      7.135   288.2271 1.8854e+03     1.1059     -0.053     -0.076    18.8632 0.0000e+00
     -0.056     -0.010     8.2472     88.680     34.947  30.664175     0.9686      7.132   288.2536 1.8857e+03     1.1059     -0.056     -0.080    18.8647 0.0000e+00
     -0.057     -0.007     8.2237     88.419     34.936  30.650318     0.9751      7.125   288.3801 1.8886e+03     1.1129     -0.056     -0.082    18.8678 0.0000e+00
     -0.057     -0.003     8.2036     88.187     34.914  30.624915     0.9869      7.117   288.5519 1.8951e+03     1.0995     -0.056     -0.082    18.8704 0.0000e+00
     -0.057     -0.001     8.1861     87.973     34.909  30.611051     0.9910      7.109   288.6100 1.9007e+03     1.0351     -0.056     -0.081    18.8707 0.0000e+00
     -0.056     -0.000     8.1704     87.776     34.920  30.609689     0.9883      7.104   288.6525 1.9040e+03     1.0370     -0.055     -0.079    18.8679 0.0000e+00
     -0.056 2.4256e-08     8.1569     87.606     34.930  30.608430     0.9912      7.102   288.7210 1.9064e+03     1.1221     -0.055     -0.080    18.8631 0.0000e+00
     -0.057 2.6681e-07     8.1480     87.491     34.924  30.595824     0.9894      7.103   288.7500 1.9071e+03     1.1486     -0.056     -0.081    18.8555 0.0000e+00
     -0.057      0.000     8.1460     87.459     34.916  30.584278     0.9758      7.107   288.7447 1.9061e+03     1.1135     -0.057     -0.082    18.8413 0.0000e+00
     -0.057      0.000     8.1473     87.465     34.932  30.595835     0.9641      7.112   288.7438 1.9011e+03     1.0942     -0.056     -0.082    18.8232 0.0000e+00
     -0.056      0.001     8.1464     87.450     34.949  30.608536     0.9673      7.118   288.7393 1.8921e+03     1.0982     -0.056     -0.081    18.8081 0.0000e+00
     -0.056      0.002     8.1427     87.409     34.953  30.610825     0.9779      7.125   288.6894 1.8850e+03     1.1010     -0.054     -0.078    18.7976 0.0000e+00
     -0.056      0.005     8.1372     87.352     34.966  30.623514     1.0005      7.133   288.6568 1.8821e+03     1.0671     -0.055     -0.079    18.7917 0.0000e+00
     -0.056      0.008     8.1309     87.292     34.976  30.634946     1.0386      7.139   288.6895 1.8810e+03     1.0242     -0.056     -0.081    18.7881 0.0000e+00
     -0.055      0.013     8.1276     87.260     34.960  30.622036     1.0527      7.144   288.6548 1.8839e+03     1.0401     -0.055     -0.080    18.7845 0.0000e+00
     -0.050      0.018     8.1293     87.274     34.930  30.594438     1.0510      7.147   288.6683 1.8921e+03     1.0759     -0.051     -0.074    18.7826 0.0000e+00
     -0.044      0.023     8.1353     87.324     34.892  30.555284     1.0732      7.147   288.7660 1.9001e+03     1.0601     -0.042     -0.061    18.7848 0.0000e+00
     -0.037      0.027     8.1448     87.402     34.873  30.529665     1.0997      7.146   288.7173 1.9058e+03     1.0319     -0.036     -0.052    18.7904 0.0000e+00
     -0.029      0.029     8.1571     87.503     34.897  30.538685     1.1056      7.141   288.5957 1.9107e+03     1.0399     -0.029     -0.042    18.7934 0.0000e+00
     -0.021      0.030     8.1693     87.609     34.907  30.537322     1.1086      7.134   288.5858 1.9138e+03     1.0657     -0.020     -0.028    18.7914 0.0000e+00
     -0.014      0.030     8.1762     87.671     34.885  30.513169     1.1174      7.127   288.5977 1.9155e+03     1.1006     -0.014     -0.020    18.7842 0.0000e+00
     -0.006      0.029     8.1776     87.678     34.874  30.500677     1.1199      7.121   288.5675 1.9175e+03     1.1260     -0.006     -0.009    18.7698 0.0000e+00
      0.003      0.027     8.1817     87.718     34.890  30.513282     1.1204      7.116   288.6515 1.9183e+03     1.1275      0.004      0.005    18.7494 0.0000e+00
      0.010      0.025     8.1948     87.862     34.918  30.538571     1.1239      7.111   288.7526 1.9105e+03     1.1193      0.011      0.015    18.7326 0.0000e+00
      0.015      0.023     8.2190     88.128     34.931  30.552415     1.1253      7.108   288.7573 1.8093e+03     1.1188      0.015      0.021    18.7285 0.0000e+00
      0.020      0.022     8.2551     88.515     34.932  30.553664     1.1280      7.107   288.7938 1.5472e+03     1.1514      0.020      0.028    18.7254 0.0000e+00
      0.026      0.020     8.2989     88.977     34.936  30.553674     1.1289      7.107   288.7646 1.1827e+03     1.1469      0.025      0.037    18.7211 0.0000e+00
      0.031      0.020     8.3455     89.466     34.939  30.552530     1.1174      7.108   288.6626 7.8650e+02     1.0648      0.030      0.044    18.7241 0.0000e+00
      0.035      0.020     8.3921     89.956     34.929  30.539820     1.1089      7.110   288.6783 4.9644e+02     1.0434      0.034      0.050    18.7298 0.0000e+00
      0.040      0.020     8.4312     90.371     34.916  30.527014     1.1451      7.113   288.6960 4.6856e+02     1.1022      0.040      0.057    18.7300 0.0000e+00
      0.046      0.020     8.4568     90.646     34.913  30.524704     1.2153      7.118   288.7047 6.6524e+02     1.1350      0.045      0.065    18.7244 0.0000e+00
      0.051      0.020     8.4719     90.811     34.897  30.511883     1.2496      7.125   288.7842 9.2766e+02     1.1346      0.050      0.072    18.7175 0.0000e+00
      0.056      0.020     8.4780     90.881     34.880  30.499016     1.2480      7.130   288.6249 1.1495e+03     1.1284      0.055      0.080    18.7116 0.0000e+00
      0.061      0.021     8.4765     90.862     34.878  30.496142     1.2692      7.135   288.1546 1.2679e+03     1.1507      0.061      0.088    18.7101 0.0000e+00
      0.066      0.022     8.4720     90.792     34.866  30.477142     1.3036      7.140   287.7441 1.2695e+03     1.1911      0.064      0.094    18.7104 0.0000e+00
      0.071      0.023     8.4678     90.711     34.861  30.459799     1.3058      7.144   287.5336 1.2504e+03     1.1588      0.070      0.102    18.7114 0.0000e+00
      0.077      0.024     8.4636     90.634     34.895  30.476949     1.2966      7.145   287.4159 1.3094e+03     1.0954      0.076      0.110    18.7162 0.0000e+00
      0.084      0.026     8.4571     90.545     34.923  30.493956     1.3012      7.145   287.3535 1.3794e+03     1.1576      0.081      0.118    18.7183 0.0000e+00
      0.091      0.029     8.4509     90.473     34.903  30.474904     1.3064      7.147   287.3816 1.5148e+03     1.3006      0.090      0.130    18.7055 0.0000e+00
      0.098      0.031     8.4492     90.453     34.861  30.437113     1.3051      7.149   287.4985 1.6491e+03     1.3591      0.097      0.140    18.6820 0.0000e+00
      0.106      0.033     8.4522     90.473     34.844  30.418063     1.2947      7.151   287.5610 1.7580e+03     1.3165      0.104      0.151    18.6613 0.0000e+00
      0.115      0.035     8.4588     90.527     34.871  30.435084     1.2627      7.152   287.5360 1.8373e+03     1.2428      0.113      0.164    18.6513 0.0000e+00
      0.125      0.036     8.4655     90.583     34.898  30.452389     1.2124      7.152   287.5397 1.5008e+03     1.1698      0.123      0.178    18.6520 0.0000e+00
      0.135      0.037     8.4690     90.607     34.885  30.436771     1.1830      7.153   287.6062 1.1453e+03     1.1050      0.132      0.191    18.6526 0.0000e+00
      0.145      0.037     8.4694     90.601     34.890  30.436760     1.1826      7.154   287.6514 1.1346e+03     1.0695      0.142      0.206    18.6456 0.0000e+00
      0.154      0.038     8.4680     90.579     34.911  30.452249     1.1798      7.154   287.6562 1.1480e+03     1.0767      0.152      0.220    18.6344 0.0000e+00
      0.163      0.039     8.4645     90.537     34.891  30.433514     1.1586      7.153   287.6644 1.2468e+03     1.1017      0.159      0.231    18.6258 0.0000e+00
      0.172      0.042     8.4587     90.472     34.855  30.400754     1.1285      7.153   287.5780 1.4893e+03     1.0969      0.168      0.243    18.6195 0.0000e+00
      0.182      0.046     8.4515     90.389     34.827  30.373685     1.1103      7.150   287.5576 1.5137e+03     1.0795      0.178      0.258    18.6128 0.0000e+00
      0.194      0.050     8.4455     90.312     34.817  30.360257     1.1034      7.143   287.6768 1.2379e+03     1.0741      0.190      0.276    18.6086 0.0000e+00
      0.209      0.050     8.4446     90.279     34.834  30.365396     1.0912      7.133   287.7278 1.0872e+03     1.0623      0.205      0.297    18.6072 0.0000e+00
      0.224      0.047     8.4475     90.280     34.854  30.372303     1.0736      7.127   287.7441 1.1332e+03     1.0588      0.219      0.318    18.6060 0.0000e+00
      0.240      0.041     8.4523     90.306     34.874  30.380253     1.0656      7.125   287.7025 1.1778e+03     1.0609      0.236      0.342    18.6038 0.0000e+00
      0.253      0.036     8.4602     90.374     34.901  30.398000     1.0591      7.125   287.6543 1.2261e+03     1.0581      0.253      0.366    18.5977 0.0000e+00
      0.259      0.031     8.4689     90.457     34.904  30.396347     1.0404      7.126   287.7635 1.1566e+03     1.0859      0.256      0.371    18.5835 0.0000e+00
      0.259      0.029     8.4764     90.528     34.867  30.360260     1.0132      7.128   287.9046 1.1234e+03     1.1223      0.253      0.366    18.5649 0.0000e+00
      0.262      0.030     8.4811     90.564     34.852  30.342719     0.9878      7.131   287.9836 1.1914e+03     1.1322      0.254      0.369    18.5514 0.0000e+00
      0.269      0.035     8.4800     90.535     34.897  30.374766     0.9722      7.135   288.1172 1.0083e+03     1.1452      0.261      0.379    18.5424 0.0000e+00
      0.281      0.042     8.4729     90.444     34.968  30.430193     0.9354      7.140   288.2290 8.1454e+02     1.1267      0.276      0.399    18.5375 0.0000e+00
      0.295      0.048     8.4621     90.316     35.059  30.504827     0.8736      7.143   288.3892 8.7874e+02     1.0913      0.290      0.421    18.5350 0.0000e+00
      0.309      0.053     8.4501     90.174     35.149  30.578582     0.8402      7.143   288.8494 1.1715e+03     1.1136      0.303      0.440    18.5268 0.0000e+00
      0.324      0.055     8.4372     90.021     35.208  30.623372     0.8355      7.143   289.4044 1.3028e+03     1.1217      0.317      0.460    18.5145 0.0000e+00
      0.339      0.056     8.4241     89.867     35.263  30.665329     0.8260      7.141   289.8520 1.0421e+03     1.0986      0.332      0.482    18.5064 0.0000e+00
      0.353      0.057     8.4145     89.753     35.313  30.704824     0.8077      7.136   290.2178 9.2570e+02     1.1088      0.345      0.502    18.5021 0.0000e+00
      0.365      0.059     8.4129     89.723     35.336  30.719859     0.7989      7.131   290.5575 1.0578e+03     1.1229      0.357      0.518    18.4943 0.0000e+00
      0.379      0.061     8.4238     89.825     35.343  30.720091     0.8015      7.127   290.9475 1.1530e+03     1.1169      0.371      0.538    18.4840 0.0000e+00
      0.396      0.063     8.4504     90.095     35.335  30.707630     0.7931      7.125   291.3196 1.0495e+03     1.0963      0.388      0.563    18.4766 0.0000e+00
      0.413      0.064     8.4967     90.575     35.327  30.696199     0.7798      7.125   291.6154 8.4712e+02     1.0875      0.406      0.589    18.4704 0.0000e+00
      0.431      0.064     8.5653     91.295     35.347  30.708882     0.7793      7.126   291.8565 7.9978e+02     1.1025      0.422      0.612    18.4636 0.0000e+00
      0.449      0.063     8.6525     92.208     35.383  30.733961     0.7865      7.129   292.0836 8.3078e+02     1.1249      0.440      0.639    18.4563 0.0000e+00
      0.465      0.062     8.7464     93.186     35.406  30.745385     0.7936      7.131   292.3822 7.9067e+02     1.1147      0.457      0.663    18.4481 0.0000e+00
      0.479      0.061     8.8319     94.072     35.386  30.719983     0.7915      7.131   292.7144 8.9704e+02     1.0697      0.470      0.682    18.4414 0.0000e+00
      0.493      0.060     8.9014     94.790     35.351  30.680848     0.7804      7.128   293.0024 1.0153e+03     1.0696      0.482      0.700    18.4359 0.0000e+00
      0.508      0.058     8.9561     95.352     35.328  30.653236     0.7780      7.123   293.2837 8.1476e+02     1.1140      0.497      0.722    18.4266 0.0000e+00
      0.524      0.056     8.9998     95.796     35.322  30.640147     0.7805      7.121   293.5337 6.5614e+02     1.1171      0.515      0.747    18.4149 0.0000e+00
      0.540      0.055     9.0351     96.153     35.341  30.649602     0.7926      7.121   293.7029 6.7058e+02     1.0771      0.530      0.769    18.4018 0.0000e+00
      0.554      0.054     9.0615     96.421     35.336  30.640522     0.8230      7.122   293.8661 6.6500e+02     1.0577      0.543      0.787    18.3888 0.0000e+00
      0.566      0.052     9.0803     96.609     35.213  30.530363     0.8455      7.122   294.0444 6.3831e+02     1.0652      0.555      0.805    18.3787 0.0000e+00
      0.577      0.050     9.0963     96.756     34.922  30.270277     0.8525      7.122   294.1381 7.3565e+02     1.0763      0.565      0.820    18.3684 0.0000e+00
      0.590      0.050     9.1114     96.876     34.595  29.972584     0.8806      7.123   294.2244 8.8901e+02     1.1308      0.579      0.840    18.3565 0.0000e+00
      0.604      0.051     9.1262     96.979     34.405  29.788712     0.9366      7.126   294.3994 8.3314e+02     1.2358      0.592      0.859    18.3509 0.0000e+00
      0.617      0.053     9.1402     97.067     34.398  29.761708     0.9688      7.129   294.6191 7.4816e+02     1.2777      0.604      0.876    18.3495 0.0000e+00
      0.630      0.054     9.1502     97.107     34.511  29.836570     0.9768      7.131   294.8159 8.1958e+02     1.2714      0.618      0.896    18.3386 0.0000e+00
      0.644      0.054     9.1513     97.053     34.574  29.868275     0.9868      7.133   294.9728 8.4733e+02     1.2820      0.631      0.915    18.3163 0.0000e+00
      0.658      0.055     9.1376     96.843     34.553  29.827504     0.9885      7.134   295.1387 7.9411e+02     1.2835      0.645      0.936    18.2875 0.0000e+00
      0.672      0.055     9.1058     96.442     34.534  29.788114     0.9885      7.135   295.3595 8.0671e+02     1.3200      0.660      0.957    18.2571 0.0000e+00
      0.686      0.054     9.0547     95.848     34.539  29.772999     0.9956      7.137   295.6633 7.6197e+02     1.3569      0.672      0.975    18.2229 0.0000e+00
      0.701      0.053     8.9863     95.100     34.546  29.771747     1.0008      7.139   295.8868 6.8951e+02     1.3339      0.687      0.996    18.1882 0.0000e+00
      0.714      0.052     8.9113     94.317     34.543  29.772969     0.9959      7.139   295.9969 6.9223e+02     1.3462      0.701      1.016    18.1581 0.0000e+00
      0.726      0.052     8.8477     93.663     34.478  29.724272     0.9833      7.138   296.2201 6.4667e+02     1.4139      0.712      1.033    18.1235 0.0000e+00
      0.739      0.052     8.8099     93.262     34.367  29.627482     0.9771      7.138   296.5208 5.8155e+02     1.4512      0.725      1.052    18.0898 0.0000e+00
      0.751      0.053     8.8028     93.143     34.302  29.555259     0.9853      7.138   296.7076 5.8798e+02     1.4614      0.737      1.069    18.0787 0.0000e+00
      0.764      0.054     8.8208     93.258     34.252  29.486054     0.9902      7.138   296.8435 8.3578e+02     1.4154      0.749      1.086    18.0886 0.0000e+00
      0.779      0.056     8.8541     93.521     34.219  29.425739     0.9809      7.138   297.0459 1.0738e+03     1.3215      0.764      1.108    18.1051 0.0000e+00
      0.794      0.057     8.8962     93.847     34.236  29.397494     0.9740      7.138   297.1757 9.2816e+02     1.2724      0.779      1.129    18.1099 0.0000e+00
      0.810      0.059     8.9401     94.149     34.229  29.334999     0.9797      7.137   297.2085 7.9652e+02     1.2795      0.794      1.152    18.0834 0.0000e+00
      0.825      0.061     8.9774     94.365     34.192  29.241565     1.0319      7.137   297.2700 7.6137e+02     1.3765      0.809      1.174    18.0384 0.0000e+00
      0.840      0.062     9.0011     94.459     34.231  29.220263     1.1189      7.137   297.4892 6.6682e+02     1.4990      0.824      1.194    17.9974 0.0000e+00
      0.855      0.064     9.0126     94.460     34.336  29.267877     1.1664      7.137   297.7936 6.8361e+02     1.5407      0.838      1.215    17.9410 0.0000e+00
      0.872      0.064     9.0222     94.475     34.420  29.309174     1.1843      7.137   297.8536 6.8241e+02     1.5443      0.854      1.239    17.8491 0.0000e+00
      0.889      0.063     9.0433     94.636     34.480  29.338525     1.2707      7.139   297.8703 6.0976e+02     1.4819      0.872      1.265    17.7515 0.0000e+00
      0.906      0.061     9.0868     95.050     34.532  29.368727     1.4210      7.142   297.9956 5.8963e+02     1.3655      0.888      1.288    17.6701 0.0000e+00
      0.923      0.058     9.1529     95.714     34.529  29.356812     1.4950      7.146   297.9911 6.1767e+02     1.3275      0.907      1.316    17.6090 0.0000e+00
      0.937      0.056     9.2364     96.562     34.423  29.257950     1.4852      7.149   298.0746 6.6720e+02     1.3290      0.920      1.335    17.5676 0.0000e+00
      0.949      0.054     9.3318     97.529     34.280  29.125930     1.4404      7.152   298.3175 6.4584e+02     1.3220      0.931      1.349    17.5372 0.0000e+00
      0.960      0.053     9.4293     98.517     34.180  29.030612     1.3663      7.154   298.4315 5.7504e+02     1.3340      0.942      1.366    17.5165 0.0000e+00
      0.973      0.053     9.5181     99.411     34.150  28.994492     1.3158      7.157   298.5069 5.6238e+02     1.3209      0.952      1.381    17.5059 0.0000e+00
      0.988      0.054     9.5965    100.188     34.181  29.006711     1.2976      7.159   298.6264 5.9746e+02     1.2860      0.968      1.406    17.4955 0.0000e+00
      1.004      0.056     9.6655    100.868     34.250  29.051325     1.2933      7.161   298.7583 6.2431e+02     1.2781      0.986      1.429    17.4785 0.0000e+00
      1.018      0.057     9.7202    101.409     34.306  29.089383     1.3198      7.164   298.9834 6.2431e+02     1.3180      0.998      1.447    17.4635 0.0000e+00
      1.032      0.057     9.7561    101.760     34.310  29.085837     1.3603      7.166   299.1976 6.6838e+02     1.3406      1.011      1.466    17.4490 0.0000e+00
      1.047      0.056     9.7710    101.888     34.304  29.071942     1.3686      7.167   299.3691 6.8545e+02     1.3072      1.026      1.488    17.4271 0.0000e+00
      1.062      0.054     9.7698    101.844     34.289  29.048377     1.3742      7.168   299.5946 5.8722e+02     1.2801      1.042      1.511    17.4044 0.0000e+00
      1.076      0.051     9.7576    101.694     34.230  28.991407     1.4282      7.170   299.7728 5.3175e+02     1.2877      1.055      1.532    17.3913 0.0000e+00
      1.090      0.047     9.7385    101.478     34.119  28.891137     1.4989      7.172   299.8031 5.4908e+02     1.3068      1.069      1.551    17.3832 0.0000e+00
      1.101      0.043     9.7232    101.286     34.010  28.788538     1.5215      7.174   299.7886 5.5511e+02     1.2982      1.081      1.568    17.3707 0.0000e+00
      1.110      0.041     9.7126    101.130     34.002  28.766907     1.5075      7.177   299.8554 5.7054e+02     1.2748      1.089      1.579    17.3523 0.0000e+00
      1.118      0.040     9.7029    101.005     33.999  28.756590     1.5319      7.179   300.0091 5.4349e+02     1.2687      1.096      1.590    17.3406 0.0000e+00
      1.128      0.040     9.6944    100.914     33.890  28.663776     1.5958      7.180   300.0976 4.8196e+02     1.2856      1.105      1.603    17.3394 0.0000e+00
      1.138      0.040     9.6850    100.810     33.814  28.597222     1.6281      7.181   300.0654 4.9198e+02     1.2964      1.116      1.618    17.3241 0.0000e+00
      1.149      0.040     9.6680    100.620     33.881  28.650412     1.6277      7.183   300.0500 5.4879e+02     1.2767      1.127      1.635    17.2913 0.0000e+00
      1.161      0.041     9.6418    100.343     33.984  28.735367     1.6741      7.184   300.0833 5.5358e+02     1.2921      1.139      1.652    17.2805 0.0000e+00
      1.171      0.042     9.6119    100.015     34.065  28.798883     1.7670      7.184   300.1248 5.4132e+02     1.3290      1.150      1.668    17.2895 0.0000e+00
      1.179      0.043     9.5734     99.559     34.219  28.910368     1.8219      7.183   300.2067 5.6584e+02     1.3262      1.156      1.676    17.2830 0.0000e+00
      1.189      0.044     9.5286     99.000     34.366  29.003763     1.8322      7.181   300.3860 5.6069e+02     1.3194      1.164      1.689    17.2731 0.0000e+00
      1.202      0.047     9.4898     98.498     34.372  28.975537     1.8742      7.178   300.5720 5.0908e+02     1.3691      1.179      1.711    17.2752 0.0000e+00
      1.215      0.050     9.4592     98.103     34.448  29.013564     1.9613      7.176   300.6483 4.7538e+02     1.4690      1.192      1.728    17.2740 0.0000e+00
      1.227      0.052     9.4434     97.889     34.776  29.273008     2.0126      7.174   300.7063 4.9212e+02     1.5201      1.202      1.744    17.2468 0.0000e+00
      1.241      0.053     9.4560     97.975     35.151  29.572305     2.0171      7.173   300.8434 5.0763e+02     1.4986      1.216      1.765    17.1946 0.0000e+00
      1.257      0.052     9.4975     98.344     35.341  29.711155     2.0146      7.173   301.0159 4.8387e+02     1.4839      1.232      1.787    17.1411 0.0000e+00
      1.272      0.051     9.5594     98.909     35.336  29.681728     2.0476      7.174   301.0699 4.6187e+02     1.4643      1.248      1.810    17.1021 0.0000e+00
      1.285      0.048     9.6334     99.601     35.265  29.597495     2.1223      7.176   301.0663 4.4912e+02     1.3840      1.261      1.828    17.0823 0.0000e+00
      1.295      0.045     9.6980    100.211     35.270  29.581733     2.1552      7.178   301.1442 4.2716e+02     1.3065      1.270      1.842    17.0656 0.0000e+00
      1.306      0.041     9.7337    100.535     35.332  29.618143     2.1418      7.181   301.1512 4.0974e+02     1.2597      1.280      1.857    17.0336 0.0000e+00
      1.316      0.039     9.7372    100.523     35.320  29.593168     2.0885      7.183   301.1512 4.1477e+02     1.2456      1.291      1.872    16.9952 0.0000e+00
      1.325      0.037     9.7062    100.191     35.255  29.533765     1.9977      7.182   301.3164 4.4764e+02     1.2882      1.300      1.885    16.9563 0.0000e+00
      1.334      0.037     9.6545     99.702     35.238  29.534941     1.9545      7.178   301.5137 4.7431e+02     1.3175      1.308      1.897    16.9275 0.0000e+00
      1.342      0.037     9.6052     99.228     35.310  29.607416     1.9614      7.171   301.6440 4.7816e+02     1.3248      1.316      1.909    16.9143 0.0000e+00
      1.352      0.038     9.5682     98.801     35.453  29.711520     2.0439      7.164   301.6870 4.5253e+02     1.3454      1.326      1.923    16.8825 0.0000e+00
      1.362      0.040     9.5416     98.420     35.576  29.777554     2.1894      7.157   301.7761 4.0286e+02     1.3539      1.334      1.935    16.8650 0.0000e+00
      1.372      0.041     9.5177     98.094     35.677  29.834233     2.2674      7.152   302.0328 4.0025e+02     1.3351      1.345      1.952    16.9052 0.0000e+00
      1.384      0.043     9.4956     97.853     35.824  29.952247     2.2979      7.150   302.2962 4.3540e+02     1.3020      1.358      1.970    16.9384 0.0000e+00
      1.395      0.043     9.4808     97.710     35.950  30.061361     2.4756      7.148   302.4655 4.1600e+02     1.3499      1.368      1.984    16.9124 0.0000e+00
      1.406      0.042     9.4714     97.607     35.968  30.073934     2.7987      7.148   302.4441 3.6667e+02     1.4873      1.378      1.999    16.8405 0.0000e+00
      1.417      0.041     9.4606     97.483     35.933  30.040756     2.9786      7.149   302.3816 3.6709e+02     1.5603      1.390      2.016    16.7914 0.0000e+00
      1.428      0.039     9.4491     97.363     35.934  30.041235     2.9781      7.151   302.4851 4.1619e+02     1.5608      1.400      2.031    16.7993 0.0000e+00
      1.437      0.038     9.4394     97.265     35.979  30.079716     2.8207      7.154   302.5766 4.4970e+02     1.5534      1.410      2.045    16.8120 0.0000e+00
      1.446      0.038     9.4294     97.162     36.033  30.125006     2.5274      7.155   302.6272 4.2355e+02     1.5324      1.419      2.058    16.8036 0.0000e+00
      1.455      0.038     9.4177     97.036     36.135  30.207792     2.3634      7.155   302.7522 3.8335e+02     1.5209      1.426      2.069    16.7948 0.0000e+00
      1.463      0.039     9.4048     96.872     36.281  30.318593     2.3541      7.155   302.9698 3.6636e+02     1.5361      1.435      2.081    16.7946 0.0000e+00
      1.473      0.040     9.3904     96.657     36.313  30.321566     2.3505      7.154   303.1943 3.5226e+02     1.5336      1.444      2.095    16.7983 0.0000e+00
      1.484      0.042     9.3731     96.389     36.259  30.243715     2.2736      7.152   303.3151 3.4289e+02     1.5206      1.455      2.110    16.7974 0.0000e+00
      1.496      0.043     9.3529     96.081     36.329  30.266349     2.1426      7.149   303.3975 3.4998e+02     1.5315      1.468      2.127    16.7984 0.0000e+00
      1.508      0.045     9.3278     95.727     36.537  30.404664     2.0805      7.145   303.5026 3.4741e+02     1.5436      1.479      2.144    16.7880 0.0000e+00
      1.519      0.045     9.2948     95.309     36.709  30.518872     2.0921      7.139   303.6391 3.3032e+02     1.5448      1.489      2.159    16.7492 0.0000e+00
      1.530      0.045     9.2534     94.841     36.787  30.567576     2.1268      7.133   303.8434 3.3045e+02     1.5153      1.500      2.176    16.7035 0.0000e+00
      1.541      0.044     9.2065     94.354     36.843  30.612481     2.1778      7.126   303.9944 3.4008e+02     1.4928      1.511      2.192    16.6513 0.0000e+00
      1.553      0.044     9.1597     93.882     36.922  30.680768     2.2120      7.121   304.0877 3.3492e+02     1.5159      1.524      2.210    16.6019 0.0000e+00
      1.564      0.044     9.1195     93.468     37.016  30.758157     2.2099      7.116   304.3695 3.2283e+02     1.5506      1.534      2.225    16.5583 0.0000e+00
      1.574      0.043     9.0840     93.088     37.057  30.786092     2.1435      7.111   304.6484 3.1144e+02     1.6069      1.543      2.238    16.5338 0.0000e+00
      1.585      0.043     9.0466     92.685     37.041  30.764477     2.0254      7.109   304.6206 3.0058e+02     1.6780      1.554      2.254    16.5383 0.0000e+00
      1.597      0.043     9.0067     92.261     37.031  30.750832     1.9577      7.108   304.6355 2.9923e+02     1.7082      1.566      2.271    16.5447 0.0000e+00
      1.608      0.043     8.9671     91.834     37.038  30.748124     1.9496      7.108   304.8288 3.1427e+02     1.7280      1.577      2.287    16.5474 0.0000e+00
      1.620      0.042     8.9296     91.413     37.035  30.731719     1.9281      7.107   304.9795 3.2359e+02     1.7651      1.588      2.304    16.5348 0.0000e+00
      1.630      0.041     8.8938     90.997     36.995  30.679481     1.8900      7.106   305.0804 3.0962e+02     1.7606      1.599      2.318    16.5206 0.0000e+00
      1.641      0.039     8.8572     90.570     36.953  30.624565     1.8752      7.104   305.1020 3.1114e+02     1.7341      1.609      2.333    16.5184 0.0000e+00
      1.651      0.038     8.8207     90.147     36.918  30.575773     1.8783      7.103   305.1545 3.4527e+02     1.7498      1.620      2.349    16.5082 0.0000e+00
      1.659      0.037     8.7903     89.793     36.810  30.470563     1.8817      7.101   305.2852 3.5785e+02     1.7675      1.628      2.359    16.4889 0.0000e+00
      1.668      0.036     8.7697     89.542     36.630  30.305067     1.8887      7.101   305.3917 3.2528e+02     1.7346      1.635      2.371    16.4612 0.0000e+00
      1.678      0.036     8.7605     89.395     36.406  30.098920     1.8979      7.100   305.4953 2.9215e+02     1.7178      1.645      2.386    16.4312 0.0000e+00
      1.687      0.036     8.7624     89.339     36.180  29.883219     1.9011      7.098   305.5059 2.8060e+02     1.7483      1.655      2.400    16.4056 0.0000e+00
      1.696      0.037     8.7767     89.381     36.041  29.729198     1.8911      7.097   305.4337 2.7815e+02     1.7358      1.663      2.412    16.3822 0.0000e+00
      1.706      0.037     8.8083     89.580     35.982  29.633728     1.8963      7.097   305.4832 2.8435e+02     1.7506      1.673      2.425    16.3665 0.0000e+00
      1.715      0.037     8.8488     89.901     35.927  29.554395     1.9270      7.096   305.6742 2.8740e+02     1.8664      1.683      2.441    16.3383 0.0000e+00
      1.724      0.038     8.9005     90.377     35.923  29.532005     1.9503      7.094   305.8496 2.7770e+02     1.9450      1.690      2.452    16.2984 0.0000e+00
      1.734      0.040     8.9794     91.122     36.051  29.616995     1.9571      7.093   305.9696 2.7868e+02     1.9691      1.701      2.467    16.2487 0.0000e+00
      1.744      0.041     9.0790     92.070     36.250  29.756425     1.9357      7.093   306.0921 2.9148e+02     1.9736      1.711      2.482    16.1651 0.0000e+00
      1.755      0.043     9.1927     93.160     36.433  29.884223     1.8933      7.093   306.2121 2.9655e+02     1.9390      1.720      2.495    16.1139 0.0000e+00
      1.766      0.044     9.3176     94.364     36.548  29.955558     1.8763      7.094   306.3031 2.9652e+02     1.9172      1.732      2.512    16.1074 0.0000e+00
      1.778      0.045     9.4376     95.539     36.523  29.920345     1.8772      7.096   306.4179 2.9233e+02     1.9544      1.743      2.528    16.0738 0.0000e+00
      1.790      0.046     9.5405     96.589     36.343  29.775970     1.8587      7.098   306.6530 2.9278e+02     2.0529      1.756      2.546    16.0367 0.0000e+00
      1.802      0.047     9.6259     97.465     36.055  29.543543     1.8270      7.100   306.9089 2.9649e+02     2.1316      1.767      2.564    16.0106 0.0000e+00
      1.813      0.047     9.6874     98.037     35.819  29.332761     1.8065      7.100   307.0165 2.8672e+02     2.1428      1.778      2.579    15.9747 0.0000e+00
      1.824      0.046     9.7128     98.204     35.767  29.259533     1.8037      7.101   307.0077 2.7487e+02     2.1582      1.789      2.595    15.9448 0.0000e+00
      1.837      0.045     9.7021     98.039     35.754  29.229644     1.7652      7.102   306.9752 2.6567e+02     2.2259      1.801      2.612    15.9582 0.0000e+00
      1.850      0.045     9.6677     97.674     35.523  29.034856     1.6821      7.103   306.8816 2.5402e+02     2.2907      1.815      2.633    15.9833 0.0000e+00
      1.861      0.045     9.6337     97.279     35.112  28.682435     1.6350      7.105   306.7366 2.5007e+02     2.2998      1.825      2.648    15.9522 0.0000e+00
      1.871      0.045     9.6172     97.020     34.802  28.397647     1.6283      7.105   306.6842 2.5486e+02     2.3054      1.834      2.660    15.8897 0.0000e+00
      1.882      0.046     9.6163     96.926     34.667  28.258531     1.6562      7.104   306.6784 2.5538e+02     2.3585      1.845      2.676    15.8606 0.0000e+00
      1.894      0.046     9.6319     97.014     34.632  28.206881     1.7141      7.102   306.5800 2.4846e+02     2.4541      1.858      2.694    15.8741 0.0000e+00
      1.906      0.047     9.6724     97.360     34.592  28.154116     1.7492      7.102   306.5276 2.4481e+02     2.5153      1.869      2.711    15.8501 0.0000e+00
      1.919      0.047     9.7367     97.955     34.426  28.001524     1.7592      7.102   306.5603 2.4522e+02     2.4880      1.882      2.728    15.7877 0.0000e+00
      1.932      0.047     9.8163     98.694     34.231  27.822376     1.7800      7.102   306.5454 2.3808e+02     2.4600      1.896      2.749    15.7520 0.0000e+00
      1.944      0.046     9.9058     99.521     34.191  27.766016     1.9919      7.102   306.6054 2.2978e+02     2.4811      1.907      2.765    15.7182 0.0000e+00
      1.955      0.044     9.9982    100.391     34.368  27.891544     2.3724      7.103   306.7699 2.3003e+02     2.4995      1.916      2.779    15.6868 0.0000e+00
      1.966      0.042    10.0867    101.268     34.671  28.133605     2.5762      7.104   306.8992 2.2979e+02     2.4996      1.928      2.797    15.6685 0.0000e+00
      1.977      0.040    10.1749    102.194     34.835  28.279767     2.5995      7.104   306.9636 2.2571e+02     2.5129      1.939      2.812    15.6377 0.0000e+00
      1.987      0.039    10.2736    103.247     34.711  28.198296     2.6262      7.103   306.9467 2.2595e+02     2.5073      1.948      2.826    15.5994 0.0000e+00
      1.996      0.039    10.3827    104.381     34.421  27.974076     2.6611      7.101   306.8668 2.2816e+02     2.4316      1.957      2.840    15.5662 0.0000e+00
      2.005      0.039    10.4889    105.433     34.123  27.727746     2.6628      7.101   306.8580 2.2251e+02     2.3608      1.966      2.851    15.5577 0.0000e+00
      2.015      0.039    10.5764    106.243     33.875  27.505901     2.6471      7.101   307.0127 2.1423e+02     2.3528      1.975      2.864    15.5846 0.0000e+00
      2.025      0.040    10.6316    106.691     33.689  27.323681     2.6365      7.101   307.1882 2.1114e+02     2.4573      1.986      2.880    15.6208 0.0000e+00
      2.036      0.041    10.6505    106.761     33.629  27.238941     2.6167      7.101   307.1731 2.1245e+02     2.6481      1.998      2.896    15.6411 0.0000e+00
      2.046      0.042    10.6452    106.594     33.676  27.243248     2.6009      7.105   307.0890 2.1623e+02     2.7374      2.008      2.911    15.6344 0.0000e+00
      2.056      0.043    10.6353    106.400     33.717  27.248723     2.5928      7.111   307.0313 2.1528e+02     2.7123      2.016      2.925    15.6006 0.0000e+00
      2.067      0.044    10.6374    106.355     33.732  27.241613     2.5544      7.117   306.9922 2.0805e+02     2.6803      2.027      2.940    15.5504 0.0000e+00
      2.079      0.044    10.6655    106.596     33.722  27.220748     2.4956      7.122   307.1315 2.0279e+02     2.6860      2.039      2.957    15.4947 0.0000e+00
      2.091      0.045    10.7314    107.217     33.693  27.186927     2.4706      7.130   307.2531 1.9985e+02     2.7205      2.050      2.975    15.4423 0.0000e+00
      2.103      0.046    10.8336    108.193     33.663  27.150161     2.4630      7.140   307.1721 1.9831e+02     2.7308      2.061      2.991    15.3991 0.0000e+00
      2.114      0.046    10.9552    109.358     33.611  27.093681     2.4031      7.151   307.0129 2.0088e+02     2.6886      2.074      3.007    15.3701 0.0000e+00
      2.126      0.046    11.0796    110.542     33.530  27.011994     2.2982      7.162   306.7044 2.0043e+02     2.6074      2.084      3.024    15.3571 0.0000e+00
      2.137      0.046    11.1898    111.573     33.445  26.924434     2.2329      7.175   306.2818 1.9414e+02     2.5415      2.095      3.039    15.3441 0.0000e+00
      2.149      0.047    11.2682    112.277     33.392  26.860425     2.2109      7.187   306.0337 1.9053e+02     2.5334      2.108      3.057    15.3226 0.0000e+00
      2.162      0.047    11.3110    112.629     33.354  26.809507     2.1892      7.199   305.8548 1.8901e+02     2.5397      2.120      3.075    15.3018 0.0000e+00
      2.174      0.047    11.3273    112.730     33.306  26.753227     2.1079      7.210   305.5810 1.8751e+02     2.4658      2.132      3.092    15.2790 0.0000e+00
      2.186      0.047    11.3306    112.712     33.242  26.687897     1.9731      7.221   305.3045 1.8726e+02     2.3108      2.144      3.110    15.2501 0.0000e+00
      2.197      0.047    11.3321    112.678     33.137  26.591049     1.9011      7.232   305.0071 1.8445e+02     2.1913      2.155      3.126    15.2157 0.0000e+00
      2.208      0.047    11.3423    112.728     33.005  26.471159     1.8894      7.243   304.8237 1.7928e+02     2.1505      2.165      3.141    15.1824 0.0000e+00
      2.221      0.048    11.3664    112.903     32.914  26.381220     1.8677      7.255   304.8082 1.7662e+02     2.0921      2.178      3.159    15.1582 0.0000e+00
      2.233      0.049    11.3982    113.138     32.876  26.329023     1.8407      7.269   304.7338 1.7611e+02     2.0037      2.190      3.175    15.1381 0.0000e+00
      2.244      0.050    11.4312    113.377     32.851  26.284481     1.8305      7.287   304.5270 1.7488e+02     1.9668      2.200      3.190    15.1191 0.0000e+00
      2.258      0.050    11.4643    113.612     32.885  26.287097     1.8171      7.310   304.3735 1.7335e+02     1.9510      2.214      3.211    15.1001 0.0000e+00
      2.273      0.049    11.5003    113.842     33.020  26.360618     1.7434      7.339   304.3405 1.7084e+02     1.9050      2.229      3.234    15.0748 0.0000e+00
      2.286      0.049    11.5467    114.110     33.148  26.411453     1.6285      7.367   304.2998 1.6749e+02     1.8370      2.242      3.253    15.0400 0.0000e+00
      2.297      0.048    11.6042    114.459     33.200  26.393713     1.5684      7.392   304.2257 1.6480e+02     1.7700      2.251      3.265    15.0011 0.0000e+00
      2.308      0.047    11.6634    114.871     33.185  26.336539     1.5678      7.414   304.2178 1.6346e+02     1.7363      2.263      3.282    14.9686 0.0000e+00
      2.321      0.046    11.7199    115.349     33.154  26.291568     1.5838      7.433   304.2906 1.6316e+02     1.7338      2.276      3.301    14.9247 0.0000e+00
      2.333      0.045    11.7744    115.887     33.158  26.294406     1.6055      7.448   304.1592 1.6117e+02     1.7401      2.287      3.318    14.8412 0.0000e+00
      2.344      0.044    11.8214    116.385     33.163  26.307356     1.6199      7.461   303.9199 1.5822e+02     1.7513      2.299      3.334    14.7382 0.0000e+00
      2.355      0.041    11.8526    116.733     33.167  26.321167     1.6289      7.474   303.8921 1.5761e+02     1.7472      2.310      3.350    14.6618 0.0000e+00
      2.365      0.038    11.8666    116.906     33.172  26.334420     1.6495      7.489   303.9101 1.5694e+02     1.7822      2.320      3.365    14.6350 0.0000e+00
      2.375      0.036    11.8667    116.938     33.168  26.340620     1.6767      7.502   303.8786 1.5290e+02     1.9001      2.330      3.379    14.6430 0.0000e+00
      2.384      0.033    11.8570    116.872     33.148  26.332643     1.6908      7.513   303.7691 1.4798e+02     1.9828      2.338      3.392    14.6606 0.0000e+00
      2.392      0.030    11.8426    116.755     33.101  26.301482     1.6914      7.522   303.5332 1.4448e+02     1.9878      2.346      3.402    14.6783 0.0000e+00
      2.399      0.027    11.8271    116.621     33.070  26.281332     1.6835      7.529   303.3489 1.4240e+02     1.9612      2.352      3.411    14.6915 0.0000e+00
      2.405      0.024    11.8151    116.512     33.065  26.279505     1.6514      7.535   303.3482 1.4047e+02     1.9048      2.359      3.421    14.7038 0.0000e+00
      2.411      0.022    11.8106    116.465     33.065  26.279392     1.5973      7.541   303.4378 1.3777e+02     1.8248      2.364      3.429    14.7163 0.0000e+00
      2.416      0.020    11.8135    116.480     33.070  26.279961     1.5618      7.547   303.4002 1.3643e+02     1.7268      2.370      3.438    14.7258 0.0000e+00
      2.421      0.018    11.8209    116.538     33.083  26.286381     1.5531      7.555   303.1517 1.3735e+02     1.6658      2.375      3.445    14.7336 0.0000e+00
      2.426      0.016    11.8289    116.619     33.092  26.293516     1.5840      7.562   302.8420 1.3795e+02     1.6670      2.379      3.450    14.7378 0.0000e+00
      2.430      0.014    11.8345    116.691     33.098  26.302731     1.6510      7.569   302.6678 1.3710e+02     1.6801      2.383      3.456    14.7366 0.0000e+00
      2.433      0.012    11.8340    116.704     33.132  26.334315     1.7006      7.574   302.5941 1.3733e+02     1.7020      2.386      3.460    14.7302 0.0000e+00
      2.436      0.011    11.8317    116.689     33.159  26.357933     1.7154      7.576   302.5524 1.3743e+02     1.7190      2.389      3.465    14.7208 0.0000e+00
      2.438 -9.990e-29 -9.990e-29 -9.990e-29 -9.990e-29 -9.990e-29 -9.990e-29 -9.990e-29 -9.990e-29 1.3491e+02 -9.990e-29      2.391      3.468    14.7220 0.0000e+00
      2.439 -9.990e-29 -9.990e-29 -9.990e-29 -9.990e-29 -9.990e-29 -9.990e-29 -9.990e-29 -9.990e-29 1.3284e+02 -9.990e-29      2.392      3.470    14.7312 0.0000e+00
      2.440 -9.990e-29 -9.990e-29 -9.990e-29 -9.990e-29 -9.990e-29 -9.990e-29 -9.990e-29 -9.990e-29 1.3381e+02 -9.990e-29      2.393      3.471    14.7393 0.0000e+00
      2.440 -9.990e-29 -9.990e-29 -9.990e-29 -9.990e-29 -9.990e-29 -9.990e-29 -9.990e-29 -9.990e-29 1.3508e+02 -9.990e-29      2.393      3.471    14.7443 0.0000e+00
