* Sea-Bird SBE19plus  Data File:
* FileName = C:\DATA\051118_bvr_0003.hex
* Software version 2.6.3.104 SB_Terminal.dll
* Temperature SN = 7809
* Conductivity SN = 7809
* System UpLoad Time = May 11 2018 13:58:56
* <ApplicationData>
* <Seaterm232>
* <SoftwareVersion>2.6.3.104</SoftwareVersion>
* <BuildDate>30-Jun-2017</BuildDate>
* </Seaterm232>
* </ApplicationData>
* cast   3 11 May 2018 16:02:06 samples 2457 to 3373, avg = 1, stop = mag switch
# nquan = 15
# nvalues = 824                         
# units = specified
# name 0 = depFM: Depth [fresh water, m]
# name 1 = dz/dtM: Descent Rate [m/s]
# name 2 = sbeox0Mg/L: Oxygen, SBE 43 [mg/l]
# name 3 = sbeox0PS: Oxygen, SBE 43 [% saturation]
# name 4 = specc: Specific Conductance [uS/cm]
# name 5 = c0uS/cm: Conductivity [uS/cm]
# name 6 = flECO-AFL: Fluorescence, WET Labs ECO-AFL/FL [mg/m^3]
# name 7 = ph: pH
# name 8 = orp: Oxidation Reduction Potential [mV]
# name 9 = par/sat/log: PAR/Logarithmic, Satlantic
# name 10 = turbWETntu0: Turbidity, WET Labs ECO [NTU]
# name 11 = prdM: Pressure, Strain Gauge [db]
# name 12 = prdE: Pressure, Strain Gauge [psi]
# name 13 = tv290C: Temperature [ITS-90, deg C]
# name 14 = flag:  0.000e+00
# span 0 =     -0.560,      9.716       
# span 1 =     -0.164,      0.195       
# span 2 =     5.0513,     9.3297       
# span 3 =     58.000,     97.791       
# span 4 =      0.800,     39.478       
# span 5 =   0.797353,  34.100344       
# span 6 =    -0.3455,     2.4064       
# span 7 =     -2.499,      7.552       
# span 8 =   269.3193,  1215.7013       
# span 9 = 2.9979e+00, 2.0061e+03       
# span 10 =    -0.2078,    58.3985      
# span 11 =     -0.550,      9.529      
# span 12 =     -0.798,     13.821      
# span 13 =     9.1022,    24.9869      
# span 14 = 0.0000e+00, 0.0000e+00      
# interval = seconds: 0.25
# start_time = May 11 2018 16:02:06 [Instrument's time stamp, header]
# bad_flag = -9.990e-29
# <Sensors count="9" >
#   <sensor Channel="1" >
#     <!-- Count, Temperature -->
#     <TemperatureSensor SensorID="58" >
#       <SerialNumber>7809</SerialNumber>
#       <CalibrationDate>09-Mar-18</CalibrationDate>
#       <A0>1.21093245e-003</A0>
#       <A1>2.84356597e-004</A1>
#       <A2>-1.94507398e-006</A2>
#       <A3>2.12806664e-007</A3>
#       <Slope>1.00000000</Slope>
#       <Offset>0.0000</Offset>
#     </TemperatureSensor>
#   </sensor>
#   <sensor Channel="2" >
#     <!-- Frequency 0, Conductivity -->
#     <ConductivitySensor SensorID="3" >
#       <SerialNumber>7809</SerialNumber>
#       <CalibrationDate>09-Mar-18</CalibrationDate>
#       <UseG_J>1</UseG_J>
#       <!-- Cell const and series R are applicable only for wide range sensors. -->
#       <SeriesR>0.0000</SeriesR>
#       <CellConst>2000.0000</CellConst>
#       <ConductivityType>0</ConductivityType>
#       <Coefficients equation="0" >
#         <A>0.00000000e+000</A>
#         <B>0.00000000e+000</B>
#         <C>0.00000000e+000</C>
#         <D>0.00000000e+000</D>
#         <M>0.0</M>
#         <CPcor>-9.57000000e-008</CPcor>
#       </Coefficients>
#       <Coefficients equation="1" >
#         <G>-1.00672082e+000</G>
#         <H>1.26906489e-001</H>
#         <I>-1.40584351e-004</I>
#         <J>2.47837121e-005</J>
#         <CPcor>-9.57000000e-008</CPcor>
#         <CTcor>3.2500e-006</CTcor>
#         <!-- WBOTC not applicable unless ConductivityType = 1. -->
#         <WBOTC>0.00000000e+000</WBOTC>
#       </Coefficients>
#       <Slope>1.00000000</Slope>
#       <Offset>0.00000</Offset>
#     </ConductivitySensor>
#   </sensor>
#   <sensor Channel="3" >
#     <!-- Count, Pressure, Strain Gauge -->
#     <PressureSensor SensorID="46" >
#       <SerialNumber>7809</SerialNumber>
#       <CalibrationDate>07-Mar-18</CalibrationDate>
#       <PA0>-4.08176359e-002</PA0>
#       <PA1>4.85188419e-004</PA1>
#       <PA2>-3.51168169e-012</PA2>
#       <PTEMPA0>-5.37806900e+001</PTEMPA0>
#       <PTEMPA1>5.36620721e+001</PTEMPA1>
#       <PTEMPA2>4.87214332e-002</PTEMPA2>
#       <PTCA0>5.25213435e+005</PTCA0>
#       <PTCA1>1.79532409e+000</PTCA1>
#       <PTCA2>-2.84353509e-001</PTCA2>
#       <PTCB0>2.51668750e+001</PTCB0>
#       <PTCB1>3.75000000e-004</PTCB1>
#       <PTCB2>0.00000000e+000</PTCB2>
#       <Offset>0.000000</Offset>
#     </PressureSensor>
#   </sensor>
#   <sensor Channel="4" >
#     <!-- A/D voltage 0, pH -->
#     <pH_Sensor SensorID="43" >
#       <SerialNumber>0363</SerialNumber>
#       <CalibrationDate>16-Mar-18</CalibrationDate>
#       <Slope>4.6194</Slope>
#       <Offset>2.5947</Offset>
#     </pH_Sensor>
#   </sensor>
#   <sensor Channel="5" >
#     <!-- A/D voltage 1, Oxidation Reduction Potential -->
#     <OxidationReductionPotentialSensor SensorID="41" >
#       <SerialNumber>0363</SerialNumber>
#       <CalibrationDate>16-Mar-18</CalibrationDate>
#       <B>2.499480</B>
#       <M>-0.496195</M>
#       <Offset>0.0</Offset>
#     </OxidationReductionPotentialSensor>
#   </sensor>
#   <sensor Channel="6" >
#     <!-- A/D voltage 2, Oxygen, SBE 43 -->
#     <OxygenSensor SensorID="38" >
#       <SerialNumber>0434</SerialNumber>
#       <CalibrationDate>13-Mar-18</CalibrationDate>
#       <Use2007Equation>1</Use2007Equation>
#       <CalibrationCoefficients equation="0" >
#         <!-- Coefficients for Owens-Millard equation. -->
#         <Boc>0.0000</Boc>
#         <Soc>0.0000e+000</Soc>
#         <offset>0.0000</offset>
#         <Pcor>0.00e+000</Pcor>
#         <Tcor>0.0000</Tcor>
#         <Tau>0.0</Tau>
#       </CalibrationCoefficients>
#       <CalibrationCoefficients equation="1" >
#         <!-- Coefficients for Sea-Bird equation - SBE calibration in 2007 and later. -->
#         <Soc>4.5718e-001</Soc>
#         <offset>-0.6113</offset>
#         <A>-4.0649e-003</A>
#         <B> 2.0945e-004</B>
#         <C>-3.3182e-006</C>
#         <D0> 2.5826e+000</D0>
#         <D1> 1.92634e-004</D1>
#         <D2>-4.64803e-002</D2>
#         <E> 3.6000e-002</E>
#         <Tau20> 1.2200</Tau20>
#         <H1>-3.3000e-002</H1>
#         <H2> 5.0000e+003</H2>
#         <H3> 1.4500e+003</H3>
#       </CalibrationCoefficients>
#     </OxygenSensor>
#   </sensor>
#   <sensor Channel="7" >
#     <!-- A/D voltage 3, PAR/Logarithmic, Satlantic -->
#     <PARLog_SatlanticSensor SensorID="76" >
#       <SerialNumber>1122</SerialNumber>
#       <CalibrationDate>22-Jun-2017</CalibrationDate>
#       <a0>9.6090e-001</a0>
#       <a1>8.0780e-001</a1>
#       <Im>1.3589e+000</Im>
#       <Multiplier>1.0000e+000</Multiplier>
#     </PARLog_SatlanticSensor>
#   </sensor>
#   <sensor Channel="8" >
#     <!-- A/D voltage 4, Fluorometer, WET Labs ECO-AFL/FL -->
#     <FluoroWetlabECO_AFL_FL_Sensor SensorID="20" >
#       <SerialNumber>FLNTURT-2496</SerialNumber>
#       <CalibrationDate>25-Jan-2017</CalibrationDate>
#       <ScaleFactor>5.30000000e+001</ScaleFactor>
#       <!-- Dark output -->
#       <Vblank>0.0560</Vblank>
#     </FluoroWetlabECO_AFL_FL_Sensor>
#   </sensor>
#   <sensor Channel="9" >
#     <!-- A/D voltage 5, Turbidity Meter, WET Labs, ECO-NTU -->
#     <TurbidityMeter SensorID="67" >
#       <SerialNumber>FLNTURT-2496</SerialNumber>
#       <CalibrationDate>25-Jan-2017</CalibrationDate>
#       <ScaleFactor>176.000000</ScaleFactor>
#       <!-- Dark output -->
#       <DarkVoltage>0.072000</DarkVoltage>
#     </TurbidityMeter>
#   </sensor>
# </Sensors>
# datcnv_date = May 11 2018 14:00:57, 7.26.7.114 [datcnv_vars = 14]
# datcnv_in = C:\DATA\051118_fcr50.hex C:\DATA\SBE19plusV2_7809.xmlcon
# datcnv_skipover = 0
# datcnv_ox_hysteresis_correction = yes
# datcnv_ox_tau_correction = yes
# filter_date = May 11 2018 14:01:20, 7.26.7.114
# filter_in = C:\DATA\051118_fcr50.cnv
# filter_low_pass_tc_A = 0.030
# filter_low_pass_tc_B = 0.150
# filter_low_pass_A_vars = prdM prdE tv290C
# filter_low_pass_B_vars = depFM dz/dtM sbeox0Mg/L sbeox0PS specc c0uS/cm flECO-AFL ph orp par/sat/log turbWETntu0
# alignctd_date = May 11 2018 14:01:36, 7.26.7.114
# alignctd_in = C:\DATA\051118_fcr50.cnv
# alignctd_adv = dz/dtM 1.000, sbeox0Mg/L 1.000, sbeox0PS 1.000, specc 1.000, c0uS/cm 1.000, flECO-AFL 1.000, ph 1.000, orp 1.000, turbWETntu0 1.000                                                                                 
# file_type = ascii
*END*
     -0.560 1.4016e-13     8.1004     97.791      0.800   0.797353    -0.1604     -2.499   863.7329 2.0061e+03     0.1965     -0.549     -0.796    24.8479 0.0000e+00
     -0.560 1.5418e-12     8.0907     97.696      0.850   0.847947    -0.1493     -2.499   857.1692 1.0444e+03     0.2035     -0.549     -0.796    24.8474 0.0000e+00
     -0.560 1.6960e-11     8.0776     97.562      0.870   0.868140    -0.1534     -2.498   784.9421 3.7588e+02     0.2542     -0.549     -0.796    24.8462 0.0000e+00
     -0.560 1.8656e-10     8.0613     97.390      0.853   0.851265    -0.1649     -2.498   635.9934 2.0898e+02     0.1686     -0.549     -0.796    24.8511 0.0000e+00
     -0.560 2.0522e-09     8.0427     97.190      0.836   0.834151    -0.1686     -2.497   506.5208 1.6125e+02    -0.0682     -0.549     -0.797    24.8637 0.0000e+00
     -0.560 2.2574e-08     8.0222     96.965      0.852   0.851449    -0.1617     -2.497   427.1468 1.2593e+02    -0.1977     -0.549     -0.797    24.8770 0.0000e+00
     -0.559 2.4831e-07     8.0003     96.721      0.871   0.870181    -0.1551     -2.497   375.1872 1.1135e+02    -0.2078     -0.548     -0.796    24.8898 0.0000e+00
     -0.559      0.000     7.9804     96.500      0.871   0.870401    -0.1708     -2.496   338.6776 1.1087e+02    -0.1592     -0.549     -0.796    24.9032 0.0000e+00
     -0.559      0.000     7.9657     96.343      0.855   0.854111    -0.2042     -2.495   302.7669 1.1245e+02    -0.0369     -0.549     -0.796    24.9183 0.0000e+00
     -0.559      0.000     7.9575     96.258      0.864   0.863461    -0.2191     -2.488   269.3193 1.1440e+02     0.0492     -0.548     -0.795    24.9307 0.0000e+00
     -0.559      0.004     7.9577     96.245      1.176   1.173680    -0.2221     -2.408   474.9358 1.2097e+02     0.0577     -0.548     -0.796    24.9425 0.0000e+00
     -0.559      0.015     7.9789     96.289      3.431   3.400104    -0.2598     -1.534   943.0592 1.4063e+02     0.0971     -0.548     -0.797    24.9511 0.0000e+00
     -0.559      0.035     8.0385     96.362     10.783  10.595450    -0.3153      0.641  1211.2239 1.6294e+02     0.2203     -0.547     -0.795    24.9675 0.0000e+00
     -0.558      0.059     8.1262     96.454     22.371  21.811097    -0.3413      3.158  1215.7013 1.6964e+02     0.2967     -0.550     -0.798    24.9724 0.0000e+00
     -0.545      0.083     8.2095     96.545     31.362  30.359186    -0.3455      5.060   997.1951 1.7220e+02     0.2882     -0.544     -0.790    24.9869 0.0000e+00
     -0.512      0.104     8.2737     96.621     34.458  33.137125    -0.3018      6.233   590.7767 1.7685e+02     0.1773     -0.506     -0.734    24.9571 0.0000e+00
     -0.469      0.122     8.3221     96.679     34.823  33.300942    -0.2169      6.889   366.3980 1.7868e+02    -0.0365     -0.458     -0.664    24.5659 0.0000e+00
     -0.429      0.136     8.3591     96.706     34.907  33.228827    -0.1644      7.271   343.5155 1.7924e+02    -0.0393     -0.416     -0.604    23.9164 0.0000e+00
     -0.399      0.142     8.3901     96.697     34.974  33.154179    -0.1276      7.477   338.7132 1.7942e+02     1.2727     -0.391     -0.567    23.4081 0.0000e+00
     -0.368      0.142     8.4220     96.693     35.061  33.096839     0.0723      7.552   335.8663 1.8106e+02    15.8273     -0.366     -0.531    23.0552 0.0000e+00
     -0.329      0.137     8.4589     96.749     35.151  33.043457     0.4143      7.512   333.7863 1.8405e+02    42.5753     -0.322     -0.468    22.7882 0.0000e+00
     -0.289      0.128     8.5007     96.897     35.256  33.016660     0.5980      7.423   330.1707 1.8836e+02    57.1894     -0.282     -0.409    22.5863 0.0000e+00
     -0.253      0.112     8.5443     97.127     35.374  33.026722     0.6212      7.367   326.7382 1.9369e+02    58.3985     -0.248     -0.360    22.3966 0.0000e+00
     -0.219      0.088     8.5814     97.345     35.467  33.037946     0.6211      7.347   325.3227 1.9759e+02    57.1946     -0.212     -0.306    22.1933 0.0000e+00
     -0.195      0.058     8.6082     97.495     35.516  33.025241     0.6160      7.345   324.4128 1.9859e+02    42.7247     -0.185     -0.268    21.9890 0.0000e+00
     -0.186      0.030     8.6260     97.582     35.536  33.000048     0.6234      7.359   323.3079 1.9740e+02    16.1672     -0.178     -0.258    21.8060 0.0000e+00
     -0.191      0.008     8.6326     97.582     35.552  32.987339     0.6281      7.379   322.5471 1.9543e+02     1.6891     -0.186     -0.268    21.6648 0.0000e+00
     -0.202     -0.006     8.6279     97.484     35.582  32.998578     0.6265      7.393   322.2686 1.9384e+02     0.3942     -0.198     -0.288    21.5622 0.0000e+00
     -0.211     -0.009     8.6130     97.298     35.600  33.008881     0.6044      7.387   320.5432 1.9320e+02     0.3280     -0.209     -0.303    21.4794 0.0000e+00
     -0.215      0.001     8.5822     96.963     35.569  32.984872     0.5629      7.359   316.8277 1.9375e+02     0.3996     -0.213     -0.308    21.4205 0.0000e+00
     -0.214      0.021     8.5269     96.379     35.529  32.962352     0.5474      7.330   313.7397 1.9540e+02     0.4365     -0.211     -0.306    21.3817 0.0000e+00
     -0.209      0.047     8.4392     95.443     35.536  32.990672     0.5629      7.310   312.0299 1.9744e+02     0.4383     -0.206     -0.300    21.3607 0.0000e+00
     -0.197      0.076     8.3100     94.047     35.598  33.073252     0.5764      7.294   311.0396 1.9949e+02     0.3904     -0.198     -0.287    21.3492 0.0000e+00
     -0.175      0.102     8.1555     92.376     35.699  33.198677     0.5734      7.282   310.6289 2.0182e+02     0.2848     -0.176     -0.256    21.3553 0.0000e+00
     -0.141      0.119     8.0075     90.776     35.774  33.300451     0.5625      7.271   310.5056 2.0461e+02     0.2303     -0.140     -0.204    21.3821 0.0000e+00
     -0.098      0.124     7.8720     89.292     35.738  33.287593     0.5553      7.260   310.6676 2.0777e+02     0.2501     -0.098     -0.142    21.4127 0.0000e+00
     -0.053      0.116     7.7355     87.772     35.600  33.170271     0.5692      7.251   310.9519 2.0961e+02     0.2490     -0.049     -0.071    21.4453 0.0000e+00
     -0.017      0.095     7.5938     86.171     35.441  33.025200     0.6009      7.253   310.8455 2.0167e+02     0.2165     -0.010     -0.015    21.4898 0.0000e+00
      0.005      0.063     7.4577     84.577     35.295  32.867361     0.6181      7.264   310.7585 1.8359e+02     0.2242      0.008      0.012    21.5445 0.0000e+00
      0.015      0.028     7.3433     83.161     35.195  32.722652     0.6206      7.273   310.9330 1.7775e+02     0.2507      0.017      0.025    21.5717 0.0000e+00
      0.014     -0.006     7.2734     82.231     35.207  32.672755     0.6403      7.276   310.8035 1.8333e+02     0.3232      0.020      0.028    21.5823 0.0000e+00
      0.002     -0.034     7.2678     82.065     35.294  32.708563     0.6720      7.278   310.3109 1.7688e+02     0.4292      0.006      0.008    21.6002 0.0000e+00
     -0.017     -0.054     7.3209     82.608     35.392  32.774466     0.6820      7.282   310.2249 1.6701e+02     0.4645     -0.021     -0.029    21.5764 0.0000e+00
     -0.033     -0.064     7.4128     83.622     35.536  32.897935     0.6792      7.284   311.2273 1.6509e+02     0.4445     -0.032     -0.046    21.4858 0.0000e+00
     -0.051     -0.068     7.5248     84.887     35.709  33.058155     0.6837      7.281   312.7086 1.6480e+02     0.4009     -0.045     -0.067    21.3849 0.0000e+00
     -0.075     -0.069     7.6265     86.057     35.769  33.123828     0.6726      7.281   313.5938 1.6351e+02     0.4257     -0.076     -0.110    21.3214 0.0000e+00
     -0.095     -0.070     7.6897     86.822     35.673  33.056850     0.6369      7.285   313.8425 1.6149e+02     0.5604     -0.099     -0.142    21.2903 0.0000e+00
     -0.105     -0.069     7.7136     87.161     35.592  33.010526     0.6104      7.284   313.7371 1.6061e+02     0.6566     -0.101     -0.147    21.2775 0.0000e+00
     -0.117     -0.063     7.7036     87.098     35.635  33.071885     0.6096      7.274   313.6958 1.5942e+02     0.6741     -0.108     -0.156    21.2817 0.0000e+00
     -0.141     -0.053     7.6564     86.586     35.725  33.163625     0.6086      7.264   314.5478 1.5666e+02     0.5887     -0.139     -0.201    21.2883 0.0000e+00
     -0.164     -0.043     7.5789     85.732     35.786  33.230555     0.5889      7.255   315.9515 1.5568e+02     0.3871     -0.168     -0.244    21.3221 0.0000e+00
     -0.173     -0.033     7.4948     84.839     35.775  33.245990     0.5647      7.249   316.7286 1.5668e+02     0.2509     -0.173     -0.250    21.3760 0.0000e+00
     -0.173     -0.021     7.4251     84.131     35.712  33.223253     0.5546      7.248   316.7169 1.5643e+02     0.2233     -0.168     -0.244    21.4055 0.0000e+00
     -0.171     -0.008     7.3731     83.606     35.667  33.209762     0.5590      7.255   316.4116 1.5468e+02     0.2061     -0.168     -0.243    21.4118 0.0000e+00
     -0.171     -0.000     7.3287     83.134     35.652  33.209940     0.5627      7.269   316.1350 1.5397e+02     0.1951     -0.168     -0.244    21.4124 0.0000e+00
     -0.171      0.001     7.2776     82.563     35.666  33.225418     0.5631      7.286   316.2981 1.5452e+02     0.2123     -0.168     -0.243    21.4539 0.0000e+00
     -0.171      0.000     7.2131     81.831     35.713  33.269883     0.5637      7.301   317.2654 1.5475e+02     0.2310     -0.167     -0.243    21.5161 0.0000e+00
     -0.171 3.5796e-08     7.1391     80.993     35.748  33.302958     0.5699      7.313   318.1944 1.5508e+02     0.2389     -0.167     -0.242    21.5577 0.0000e+00
     -0.171 3.9376e-07     7.0607     80.104     35.753  33.307744     0.5917      7.322   318.3231 1.5625e+02     0.2461     -0.168     -0.243    21.5749 0.0000e+00
     -0.171 3.9376e-07     6.9784     79.168     35.776  33.327759     0.6159      7.327   318.1339 1.5712e+02     0.2267     -0.166     -0.242    21.5743 0.0000e+00
     -0.171 3.5800e-08     6.8909     78.173     35.806  33.354407     0.6233      7.329   317.7989 1.5776e+02     0.2173     -0.167     -0.243    21.5736 0.0000e+00
     -0.171 3.2828e-09     6.8019     77.165     35.828  33.375889     0.6080      7.329   317.5424 1.5826e+02     0.2863     -0.168     -0.244    21.5750 0.0000e+00
     -0.171 6.0356e-10     6.7193     76.237     35.846  33.396950     0.5783      7.329   317.7862 1.5833e+02     0.3883     -0.167     -0.243    21.5758 0.0000e+00
     -0.170 3.4112e-09     6.6477     75.437     35.862  33.418505     0.5675      7.330   317.9933 1.5868e+02     0.4433     -0.167     -0.242    21.5737 0.0000e+00
     -0.170 3.7230e-08     6.5828     74.716     35.883  33.445973     0.5781      7.333   317.8958 1.5889e+02     0.4640     -0.167     -0.242    21.5703 0.0000e+00
     -0.170 4.0950e-07     6.5211     74.030     35.907  33.475010     0.5785      7.337   317.8978 1.5895e+02     0.4863     -0.167     -0.242    21.5710 0.0000e+00
     -0.170      0.000     6.4637     73.391     35.943  33.515539     0.5716      7.340   317.5010 1.5932e+02     0.4991     -0.167     -0.243    21.5779 0.0000e+00
     -0.170      0.000     6.4076     72.767     35.978  33.554927     0.5684      7.341   316.7117 1.5948e+02     0.4964     -0.166     -0.242    21.5882 0.0000e+00
     -0.170      0.001     6.3526     72.155     35.988  33.570159     0.5674      7.342   316.5274 1.5937e+02     0.4840     -0.167     -0.242    21.5990 0.0000e+00
     -0.170      0.001     6.3012     71.585     35.983  33.572689     0.5688      7.345   316.8216 1.5923e+02     0.4717     -0.167     -0.243    21.6085 0.0000e+00
     -0.170      0.001     6.2522     71.042     35.990  33.585526     0.5755      7.350   317.3439 1.5897e+02     0.4087     -0.166     -0.241    21.6170 0.0000e+00
     -0.169      0.000     6.2036     70.502     35.997  33.598345     0.6025      7.355   317.9392 1.5894e+02     0.3023     -0.166     -0.241    21.6260 0.0000e+00
     -0.169 1.8614e-08     6.1551     69.962     35.992  33.600655     0.6289      7.359   317.3938 1.5956e+02     0.2842     -0.166     -0.241    21.6358 0.0000e+00
     -0.169 2.0475e-07     6.1068     69.424     35.999  33.613462     0.6279      7.363   315.9119 1.6021e+02     0.3110     -0.166     -0.241    21.6454 0.0000e+00
     -0.169 2.0475e-07     6.0616     68.921     36.006  33.626175     0.6182      7.366   315.1644 1.6051e+02     0.3213     -0.166     -0.241    21.6546 0.0000e+00
     -0.169 1.8614e-08     6.0233     68.496     36.001  33.627341     0.6130      7.367   315.0665 1.6077e+02     0.3780     -0.167     -0.242    21.6637 0.0000e+00
     -0.169 1.6921e-09     5.9893     68.121     35.995  33.627569     0.6196      7.363   315.2441 1.6091e+02     0.4465     -0.166     -0.241    21.6723 0.0000e+00
     -0.169 1.5383e-10     5.9555     67.748     35.990  33.628942     0.6349      7.355   315.8493 1.6117e+02     0.4781     -0.166     -0.240    21.6809 0.0000e+00
     -0.169 1.3985e-11     5.9212     67.369     35.999  33.643956     0.6416      7.350   315.6732 1.6149e+02     0.4256     -0.166     -0.240    21.6894 0.0000e+00
     -0.169 1.2713e-12     5.8889     67.013     36.033  33.682075     0.6360      7.350   314.4913 1.6171e+02     0.2991     -0.166     -0.241    21.6977 0.0000e+00
     -0.169 1.1558e-13     5.8600     66.694     36.055  33.708742     0.6225      7.352   313.7769 1.6202e+02     0.2314     -0.166     -0.241    21.7061 0.0000e+00
     -0.169 1.0507e-14     5.8323     66.390     36.053  33.712329     0.6164      7.354   314.0046 1.6203e+02     0.2172     -0.166     -0.241    21.7149 0.0000e+00
     -0.169 9.5515e-16     5.8048     66.087     36.061  33.725459     0.6081      7.357   314.4914 1.6194e+02     0.2500     -0.166     -0.241    21.7233 0.0000e+00
     -0.169 8.6829e-17     5.7763     65.775     36.070  33.740474     0.5775      7.359   314.6726 1.6206e+02     0.3529     -0.166     -0.240    21.7316 0.0000e+00
     -0.169 7.8256e-18     5.7483     65.465     36.092  33.766842     0.5486      7.361   314.7331 1.6174e+02     0.4227     -0.166     -0.240    21.7401 0.0000e+00
     -0.169 -3.502e-20     5.7228     65.186     36.111  33.790215     0.5441      7.361   314.6204 1.6147e+02     0.4227     -0.166     -0.241    21.7480 0.0000e+00
     -0.169 -8.214e-18     5.6993     64.928     36.082  33.769017     0.5598      7.361   314.2559 1.6169e+02     0.3842     -0.166     -0.241    21.7562 0.0000e+00
     -0.169 -9.107e-17     5.6767     64.681     36.071  33.764612     0.5915      7.361   314.1119 1.6161e+02     0.3227     -0.167     -0.242    21.7650 0.0000e+00
     -0.169 -1.002e-15     5.6536     64.428     36.103  33.800483     0.6236      7.359   314.2568 1.6175e+02     0.2593     -0.166     -0.241    21.7734 0.0000e+00
     -0.169 -1.102e-14     5.6298     64.166     36.119  33.821633     0.6356      7.356   314.3720 1.6204e+02     0.2589     -0.166     -0.241    21.7815 0.0000e+00
     -0.169 -1.212e-13     5.6069     63.915     36.122  33.829803     0.6270      7.356   314.6449 1.6204e+02     0.2865     -0.166     -0.240    21.7895 0.0000e+00
     -0.169 -1.333e-12     5.5850     63.676     36.122  33.835757     0.6207      7.357   314.8885 1.6215e+02     0.2889     -0.165     -0.239    21.7976 0.0000e+00
     -0.169 -1.467e-11     5.5640     63.446     36.110  33.830113     0.6231      7.358   314.3934 1.6223e+02     0.3487     -0.165     -0.240    21.8060 0.0000e+00
     -0.169 -1.613e-10     5.5445     63.233     36.098  33.825079     0.6192      7.360   313.9059 1.6224e+02     0.4289     -0.165     -0.240    21.8139 0.0000e+00
     -0.169 -1.775e-09     5.5251     63.022     36.106  33.838415     0.6205      7.361   313.8126 1.6213e+02     0.4659     -0.166     -0.241    21.8218 0.0000e+00
     -0.169 -1.952e-08     5.5051     62.803     36.128  33.864341     0.6285      7.360   313.6950 1.6189e+02     0.4904     -0.165     -0.240    21.8302 0.0000e+00
     -0.169 -2.147e-07     5.4850     62.583     36.144  33.884494     0.6337      7.359   314.5492 1.6224e+02     0.4813     -0.165     -0.240    21.8382 0.0000e+00
     -0.169 -3.937e-07     5.4650     62.364     36.145  33.891538     0.6284      7.359   316.1401 1.6247e+02     0.4477     -0.165     -0.240    21.8463 0.0000e+00
     -0.169 -2.147e-07     5.4468     62.165     36.133  33.885991     0.6109      7.361   316.7541 1.6217e+02     0.4197     -0.165     -0.240    21.8544 0.0000e+00
     -0.169 -1.952e-08     5.4310     61.994     36.122  33.880956     0.6050      7.363   316.6388 1.6209e+02     0.3558     -0.166     -0.240    21.8621 0.0000e+00
     -0.169 -1.775e-09     5.4155     61.827     36.131  33.894189     0.6125      7.364   316.1231 1.6172e+02     0.2548     -0.165     -0.240    21.8692 0.0000e+00
     -0.169 -1.613e-10     5.3999     61.657     36.151  33.918961     0.6184      7.365   315.3365 1.6186e+02     0.2058     -0.165     -0.240    21.8765 0.0000e+00
     -0.169 -1.467e-11     5.3848     61.493     36.154  33.926409     0.6212      7.369   315.9038 1.6215e+02     0.2221     -0.166     -0.240    21.8843 0.0000e+00
     -0.169 -1.333e-12     5.3708     61.342     36.142  33.920739     0.6192      7.373   317.5618 1.6170e+02     0.2378     -0.165     -0.240    21.8923 0.0000e+00
     -0.169 -1.212e-13     5.3585     61.211     36.129  33.913924     0.6215      7.375   318.2622 1.6160e+02     0.2432     -0.165     -0.240    21.9000 0.0000e+00
     -0.168 -1.102e-14     5.3451     61.066     36.116  33.907534     0.6307      7.375   317.6613 1.6171e+02     0.2569     -0.165     -0.239    21.9072 0.0000e+00
     -0.168 -1.002e-15     5.3319     60.924     36.111  33.907005     0.6292      7.375   316.7487 1.6186e+02     0.2506     -0.165     -0.239    21.9144 0.0000e+00
     -0.169 -9.105e-17     5.3224     60.823     36.106  33.907534     0.6221      7.375   316.3482 1.6188e+02     0.2278     -0.165     -0.240    21.9217 0.0000e+00
     -0.169 -8.280e-18     5.3135     60.730     36.107  33.913932     0.6188      7.375   316.6903 1.6173e+02     0.2865     -0.165     -0.240    21.9293 0.0000e+00
     -0.169 -7.525e-19     5.3034     60.624     36.108  33.920860     0.6168      7.374   317.4440 1.6148e+02     0.4114     -0.166     -0.240    21.9369 0.0000e+00
     -0.169 -6.840e-20     5.2938     60.522     36.111  33.927790     0.6163      7.373   317.9756 1.6106e+02     0.4559     -0.166     -0.241    21.9442 0.0000e+00
     -0.169 -6.220e-21     5.2860     60.440     36.113  33.934209     0.6122      7.371   318.1271 1.6089e+02     0.4278     -0.165     -0.240    21.9513 0.0000e+00
     -0.168 -5.655e-22     5.2796     60.374     36.108  33.934956     0.6137      7.371   318.1573 1.6078e+02     0.3765     -0.165     -0.239    21.9585 0.0000e+00
     -0.168 -5.140e-23     5.2738     60.316     36.105  33.936831     0.6252      7.371   318.1685 1.6056e+02     0.2936     -0.164     -0.238    21.9661 0.0000e+00
     -0.168 -4.673e-24     5.2673     60.250     36.121  33.956889     0.6312      7.370   317.8333 1.6036e+02     0.2500     -0.165     -0.239    21.9728 0.0000e+00
     -0.168 -4.248e-25     5.2602     60.176     36.147  33.986924     0.6310      7.370   317.4597 1.6020e+02     0.2452     -0.165     -0.239    21.9789 0.0000e+00
     -0.169 -3.862e-26     5.2534     60.106     36.137  33.982413     0.6412      7.369   317.7807 1.6026e+02     0.2367     -0.165     -0.240    21.9853 0.0000e+00
     -0.169 -3.511e-27     5.2473     60.043     36.115  33.965877     0.6633      7.368   318.1871 1.6040e+02     0.2383     -0.165     -0.240    21.9923 0.0000e+00
     -0.169 -3.192e-28     5.2423     59.994     36.122  33.977540     0.6776      7.367   318.3298 1.6040e+02     0.2344     -0.165     -0.240    21.9994 0.0000e+00
     -0.168 -2.902e-29     5.2384     59.958     36.137  33.996395     0.6845      7.365   317.9576 1.6049e+02     0.2196     -0.165     -0.239    22.0065 0.0000e+00
     -0.168 -2.638e-30     5.2347     59.924     36.139  34.003310     0.6825      7.364   316.9565 1.6063e+02     0.2726     -0.165     -0.239    22.0133 0.0000e+00
     -0.168 -2.398e-31     5.2309     59.888     36.127  33.997639     0.6724      7.364   316.4639 1.6079e+02     0.3874     -0.165     -0.239    22.0195 0.0000e+00
     -0.168 -2.180e-32     5.2268     59.848     36.116  33.991354     0.6818      7.365   316.6476 1.6093e+02     0.4475     -0.165     -0.240    22.0259 0.0000e+00
     -0.168 -1.982e-33     5.2224     59.806     36.111  33.990843     0.6958      7.365   317.1983 1.6097e+02     0.4509     -0.164     -0.239    22.0330 0.0000e+00
     -0.168 -1.802e-34     5.2188     59.771     36.107  33.991468     0.6938      7.365   317.8744 1.6097e+02     0.3977     -0.165     -0.239    22.0399 0.0000e+00
     -0.168 -1.638e-35     5.2166     59.752     36.110  33.998918     0.6856      7.366   317.3373 1.6102e+02     0.2925     -0.165     -0.240    22.0466 0.0000e+00
     -0.168 -1.489e-36     5.2141     59.730     36.125  34.017404     0.6789      7.367   315.7800 1.6100e+02     0.2167     -0.165     -0.239    22.0531 0.0000e+00
     -0.168 -1.354e-37     5.2105     59.697     36.128  34.024438     0.6868      7.367   315.1355 1.6070e+02     0.1830     -0.165     -0.240    22.0593 0.0000e+00
     -0.168 -1.232e-38     5.2089     59.686     36.119  34.020453     0.6976      7.367   315.3949 1.6097e+02     0.1896     -0.165     -0.239    22.0650 0.0000e+00
     -0.168 -1.311e-39     5.2093     59.697     36.127  34.032740     0.6901      7.367   315.9053 1.6166e+02     0.2049     -0.166     -0.240    22.0710 0.0000e+00
     -0.168 -2.219e-39     5.2090     59.700     36.137  34.045972     0.6796      7.367   316.5735 1.6122e+02     0.2149     -0.165     -0.239    22.0776 0.0000e+00
     -0.168 -2.330e-38     5.2079     59.694     36.141  34.053422     0.6807      7.367   316.3331 1.6061e+02     0.2499     -0.165     -0.239    22.0839 0.0000e+00
     -0.169 -2.562e-37     5.2071     59.692     36.142  34.059301     0.6847      7.367   315.2365 1.6084e+02     0.2615     -0.165     -0.240    22.0898 0.0000e+00
     -0.169 -2.818e-36     5.2064     59.691     36.131  34.053536     0.6723      7.369   314.4995 1.6108e+02     0.2943     -0.166     -0.240    22.0954 0.0000e+00
     -0.168 -3.100e-35     5.2051     59.683     36.120  34.047241     0.6415      7.371   314.2188 1.6114e+02     0.3720     -0.165     -0.239    22.1009 0.0000e+00
     -0.168 -3.410e-34     5.2038     59.674     36.115  34.046720     0.6254      7.374   314.3383 1.6085e+02     0.4384     -0.164     -0.238    22.1070 0.0000e+00
     -0.168 -3.751e-33     5.2021     59.660     36.111  34.047240     0.6246      7.377   314.8254 1.6096e+02     0.5179     -0.165     -0.239    22.1137 0.0000e+00
     -0.169 -4.126e-32     5.2009     59.653     36.114  34.053534     0.6307      7.379   315.2896 1.6153e+02     0.5387     -0.165     -0.240    22.1196 0.0000e+00
     -0.169 -4.539e-31     5.2014     59.665     36.115  34.059307     0.6533      7.381   315.3914 1.6168e+02     0.4761     -0.165     -0.240    22.1249 0.0000e+00
     -0.168 -4.993e-30     5.2011     59.669     36.105  34.053533     0.6685      7.383   315.1094 1.6171e+02     0.4336     -0.165     -0.239    22.1306 0.0000e+00
     -0.168 -5.492e-29     5.2011     59.675     36.095  34.047239     0.6671      7.386   314.8058 1.6164e+02     0.4207     -0.165     -0.239    22.1365 0.0000e+00
     -0.169 -6.041e-28     5.2025     59.696     36.091  34.046727     0.6824      7.387   314.5590 1.6149e+02     0.4122     -0.165     -0.240    22.1422 0.0000e+00
     -0.169 -6.645e-27     5.2035     59.713     36.087  34.047352     0.7071      7.386   314.5355 1.6148e+02     0.4220     -0.165     -0.240    22.1477 0.0000e+00
     -0.168 -7.310e-26     5.2054     59.740     36.092  34.054801     0.7180      7.386   315.4675 1.6151e+02     0.4478     -0.165     -0.239    22.1530 0.0000e+00
     -0.168 -8.041e-25     5.2081     59.777     36.107  34.073277     0.7225      7.386   316.7085 1.6136e+02     0.4489     -0.165     -0.239    22.1579 0.0000e+00
     -0.168 -8.845e-24     5.2100     59.806     36.111  34.080197     0.7144      7.387   316.8057 1.6123e+02     0.4351     -0.165     -0.239    22.1628 0.0000e+00
     -0.168 -9.729e-23     5.2117     59.831     36.101  34.074961     0.7024      7.388   316.3846 1.6146e+02     0.4332     -0.165     -0.239    22.1677 0.0000e+00
     -0.168 -1.070e-21     5.2137     59.860     36.095  34.073495     0.6974      7.390   315.9186 1.6164e+02     0.4269     -0.164     -0.238    22.1727 0.0000e+00
     -0.168 -1.177e-20     5.2157     59.888     36.080  34.062467     0.6906      7.392   315.3018 1.6175e+02     0.4204     -0.165     -0.239    22.1780 0.0000e+00
     -0.169 -1.295e-19     5.2166     59.904     36.082  34.068666     0.6846      7.393   315.9816 1.6205e+02     0.4146     -0.165     -0.240    22.1833 0.0000e+00
     -0.169 -1.424e-18     5.2160     59.903     36.096  34.084938     0.6890      7.394   317.7710 1.6195e+02     0.4176     -0.165     -0.240    22.1887 0.0000e+00
     -0.169 -1.567e-17     5.2149     59.896     36.076  34.068655     0.6975      7.395   318.5254 1.6173e+02     0.4270     -0.165     -0.239    22.1936 0.0000e+00
     -0.169 -1.724e-16     5.2151     59.903     36.066  34.062351     0.6962      7.394   318.3059 1.6183e+02     0.4370     -0.165     -0.240    22.1987 0.0000e+00
     -0.169 -1.896e-15     5.2163     59.923     36.072  34.072233     0.6920      7.392   317.7842 1.6184e+02     0.4470     -0.165     -0.239    22.2038 0.0000e+00
     -0.169 -2.086e-14     5.2169     59.934     36.057  34.061109     0.7009      7.387   316.9500 1.6190e+02     0.4558     -0.165     -0.240    22.2087 0.0000e+00
     -0.168 -2.294e-13     5.2175     59.946     36.047  34.054900     0.7213      7.382   317.0810 1.6204e+02     0.4831     -0.165     -0.239    22.2135 0.0000e+00
     -0.168 -2.524e-12     5.2187     59.965     36.050  34.060682     0.7365      7.377   318.3351 1.6209e+02     0.5014     -0.165     -0.239    22.2178 0.0000e+00
     -0.168 -2.776e-11     5.2186     59.969     36.054  34.067506     0.7376      7.374   319.1218 1.6211e+02     0.4629     -0.165     -0.239    22.2224 0.0000e+00
     -0.168 -3.054e-10     5.2186     59.974     36.057  34.073896     0.7256      7.372   319.0220 1.6224e+02     0.3535     -0.165     -0.239    22.2271 0.0000e+00
     -0.168 -3.359e-09     5.2199     59.993     36.054  34.074424     0.7111      7.371   318.5906 1.6241e+02     0.2474     -0.165     -0.239    22.2312 0.0000e+00
     -0.168 -3.695e-08     5.2198     59.997     36.051  34.073895     0.7004      7.369   318.3808 1.6219e+02     0.2184     -0.165     -0.239    22.2355 0.0000e+00
     -0.168 -4.064e-07     5.2186     59.989     36.041  34.067505     0.6882      7.368   318.4639 1.6209e+02     0.2155     -0.164     -0.238    22.2402 0.0000e+00
     -0.168     -0.000     5.2176     59.983     36.031  34.060681     0.6826      7.365   318.6484 1.6221e+02     0.2430     -0.165     -0.239    22.2447 0.0000e+00
     -0.168     -0.000     5.2169     59.981     36.021  34.054901     0.6884      7.360   318.8917 1.6223e+02     0.3380     -0.165     -0.239    22.2490 0.0000e+00
     -0.169     -0.001     5.2158     59.972     36.024  34.061146     0.6929      7.355   319.0818 1.6233e+02     0.4184     -0.165     -0.240    22.2530 0.0000e+00
     -0.169     -0.001     5.2143     59.960     36.034  34.072686     0.6920      7.351   319.2262 1.6235e+02     0.4214     -0.165     -0.240    22.2572 0.0000e+00
     -0.169     -0.000     5.2138     59.957     36.025  34.067393     0.6862      7.347   318.6585 1.6235e+02     0.4044     -0.165     -0.239    22.2617 0.0000e+00
     -0.169 -1.847e-08     5.2128     59.950     36.015  34.060678     0.6781      7.343   317.5530 1.6239e+02     0.3965     -0.165     -0.240    22.2663 0.0000e+00
     -0.169 -2.032e-07     5.2109     59.934     36.006  34.055017     0.6861      7.339   317.3024 1.6241e+02     0.3869     -0.166     -0.240    22.2703 0.0000e+00
     -0.169 -2.032e-07     5.2092     59.919     36.011  34.062466     0.7089      7.337   317.8654 1.6245e+02     0.4101     -0.165     -0.240    22.2739 0.0000e+00
     -0.169 -1.847e-08     5.2070     59.897     36.034  34.087228     0.7158      7.335   318.5098 1.6246e+02     0.4635     -0.165     -0.240    22.2777 0.0000e+00
     -0.168 -1.680e-09     5.2048     59.876     36.045  34.100344     0.7052      7.334   318.8133 1.6226e+02     0.5131     -0.165     -0.239    22.2819 0.0000e+00
     -0.168 -1.527e-10     5.2034     59.864     36.036  34.094023     0.6899      7.334   318.0064 1.6177e+02     0.5217     -0.165     -0.239    22.2860 0.0000e+00
     -0.169 -1.388e-11     5.2015     59.848     36.012  34.074320     0.6788      7.334   316.5836 1.6149e+02     0.5063     -0.165     -0.240    22.2898 0.0000e+00
     -0.169 -1.262e-12     5.1994     59.828     35.986  34.052675     0.6810      7.333   316.1506 1.6154e+02     0.4788     -0.166     -0.240    22.2933 0.0000e+00
     -0.169 -1.147e-13     5.1971     59.804     35.952  34.022869     0.6802      7.331   316.3852 1.6147e+02     0.3728     -0.165     -0.240    22.2969 0.0000e+00
     -0.168 -1.043e-14     5.1941     59.769     35.693  33.777456     0.6781      7.328   316.9244 1.6130e+02     0.2322     -0.165     -0.239    22.3005 0.0000e+00
     -0.168 -9.480e-16     5.1954     59.744     35.156  33.244949     0.6831      7.325   317.8524 1.6128e+02     0.1830     -0.165     -0.239    22.3049 0.0000e+00
     -0.168 -8.620e-17     5.2525     60.234     34.848  32.856110     0.6846      7.321   317.6252 1.6134e+02     0.2046     -0.165     -0.240    22.3082 0.0000e+00
     -0.168 -7.835e-18     5.4774     62.507     34.998  32.823275     0.6971      7.320   316.2427 1.6135e+02     0.2188     -0.165     -0.239    22.3125 0.0000e+00
     -0.168 -7.120e-19     5.9294     67.349     35.272  32.911220     0.7143      7.320   315.4185 1.6130e+02     0.2324     -0.165     -0.239    22.3145 0.0000e+00
     -0.168 -6.475e-20     6.5299     73.961     35.446  32.966490     0.7179      7.322   315.3170 1.6139e+02     0.2472     -0.165     -0.239    22.3181 0.0000e+00
     -0.168 -5.885e-21     7.1426     80.792     35.520  32.983285     0.7229      7.324   315.5324 1.6143e+02     0.2453     -0.165     -0.240    22.1925 0.0000e+00
     -0.168 -5.350e-22     7.6729     86.742     35.548  32.987200     0.7100      7.327   315.9578 1.6135e+02     0.2401     -0.166     -0.240    21.8784 0.0000e+00
     -0.168 -4.865e-23     8.0734     91.257     35.582  33.013795     0.6721      7.330   316.1583 1.6128e+02     0.2455     -0.165     -0.239    21.6087 0.0000e+00
     -0.168 -4.423e-24     8.3129     93.986     35.613  33.050779     0.6605      7.333   315.8919 1.6121e+02     0.2489     -0.165     -0.240    21.4713 0.0000e+00
     -0.168 -4.020e-25     8.3753     94.732     35.598  33.053298     0.6799      7.337   315.4899 1.6128e+02     0.2511     -0.165     -0.239    21.4101 0.0000e+00
     -0.168 -3.655e-26     8.2771     93.670     35.568  33.044278     0.6949      7.339   315.3424 1.6137e+02     0.3022     -0.165     -0.239    21.3884 0.0000e+00
     -0.168 -3.323e-27     8.0754     91.440     35.572  33.068773     0.6945      7.339   315.3127 1.6137e+02     0.4095     -0.165     -0.239    21.3781 0.0000e+00
     -0.168 -3.021e-28     7.8443     88.876     35.577  33.095438     0.6844      7.339   315.3026 1.6134e+02     0.4800     -0.165     -0.239    21.3930 0.0000e+00
     -0.168 -2.746e-29     7.6349     86.550     35.574  33.112654     0.6736      7.339   315.9088 1.6135e+02     0.4831     -0.165     -0.239    21.4200 0.0000e+00
     -0.168 -2.496e-30     7.4615     84.630     35.593  33.149919     0.6844      7.338   317.0491 1.6137e+02     0.4774     -0.165     -0.239    21.4449 0.0000e+00
     -0.168 -2.269e-31     7.3203     83.076     35.587  33.164950     0.7230      7.336   317.5612 1.6134e+02     0.4720     -0.165     -0.240    21.4756 0.0000e+00
     -0.168 -2.063e-32     7.2075     81.836     35.569  33.167392     0.7454      7.336   317.1959 1.6129e+02     0.4490     -0.165     -0.239    21.5100 0.0000e+00
     -0.168 -1.875e-33     7.1190     80.870     35.564  33.179481     0.7339      7.336   316.5042 1.6125e+02     0.4440     -0.165     -0.240    21.5347 0.0000e+00
     -0.168 -1.705e-34     7.0455     80.077     35.549  33.184108     0.7306      7.338   316.0814 1.6100e+02     0.4724     -0.165     -0.239    21.5602 0.0000e+00
     -0.168 -1.550e-35     6.9789     79.360     35.570  33.223362     0.7332      7.340   316.9016 1.6115e+02     0.4874     -0.165     -0.240    21.5949 0.0000e+00
     -0.168 -1.409e-36     6.9170     78.693     35.605  33.273025     0.7195      7.340   318.5911 1.6189e+02     0.4723     -0.165     -0.239    21.6194 0.0000e+00
     -0.168 -1.260e-37     6.8625     78.108     35.591  33.276489     0.7127      7.342   319.3874 1.6209e+02     0.4418     -0.165     -0.239    21.6388 0.0000e+00
     -0.168 1.1841e-38     6.8165     77.615     35.564  33.265273     0.7067      7.346   318.9582 1.6185e+02     0.4243     -0.165     -0.239    21.6697 0.0000e+00
     -0.168 2.5728e-37     6.7734     77.149     35.551  33.264460     0.6927      7.349   318.1338 1.6156e+02     0.4437     -0.165     -0.239    21.6975 0.0000e+00
     -0.168 2.8417e-36     6.7272     76.644     35.542  33.266671     0.6900      7.349   317.7660 1.6144e+02     0.4623     -0.165     -0.239    21.7191 0.0000e+00
     -0.168 3.1259e-35     6.6754     76.074     35.558  33.292029     0.6921      7.349   318.3828 1.6130e+02     0.4361     -0.165     -0.239    21.7436 0.0000e+00
     -0.168 3.4385e-34     6.6192     75.453     35.574  33.317013     0.6908      7.348   319.3964 1.6115e+02     0.4017     -0.165     -0.239    21.7654 0.0000e+00
     -0.168 3.7824e-33     6.5627     74.830     35.561  33.314702     0.6927      7.347   319.8686 1.6141e+02     0.4118     -0.165     -0.239    21.7803 0.0000e+00
     -0.168 4.1606e-32     6.5083     74.231     35.564  33.327618     0.6965      7.346   319.9625 1.6156e+02     0.4678     -0.165     -0.240    21.7941 0.0000e+00
     -0.168 4.5767e-31     6.4588     73.692     35.571  33.346166     0.6902      7.345   319.7580 1.6161e+02     0.4981     -0.165     -0.239    21.8087 0.0000e+00
     -0.168 5.0343e-30     6.4207     73.282     35.559  33.348428     0.6807      7.344   319.2017 1.6170e+02     0.4734     -0.165     -0.239    21.8218 0.0000e+00
     -0.168 5.5378e-29     6.3967     73.039     35.550  33.354993     0.6923      7.344   319.0868 1.6176e+02     0.4132     -0.165     -0.239    21.8346 0.0000e+00
     -0.168 6.0915e-28     6.3886     72.976     35.541  33.362038     0.7206      7.345   319.4876 1.6191e+02     0.3189     -0.164     -0.238    21.8503 0.0000e+00
     -0.168 6.7007e-27     6.3956     73.081     35.536  33.370121     0.7378      7.347   319.7461 1.6187e+02     0.2499     -0.165     -0.239    21.8673 0.0000e+00
     -0.168 7.3708e-26     6.4091     73.258     35.544  33.389232     0.7344      7.349   319.6309 1.6184e+02     0.2199     -0.165     -0.240    21.8851 0.0000e+00
     -0.168 8.1078e-25     6.4209     73.415     35.547  33.402578     0.7259      7.351   319.4716 1.6177e+02     0.2608     -0.164     -0.238    21.9075 0.0000e+00
     -0.168 8.9186e-24     6.4260     73.491     35.539  33.404471     0.7266      7.352   319.4548 1.6152e+02     0.3782     -0.165     -0.239    21.9309 0.0000e+00
     -0.168 9.8105e-23     6.4203     73.441     35.540  33.412130     0.7339      7.352   318.9109 1.6164e+02     0.4489     -0.165     -0.240    21.9473 0.0000e+00
     -0.168 1.0792e-21     6.4023     73.246     35.554  33.431667     0.7411      7.351   318.0583 1.6174e+02     0.4451     -0.164     -0.239    21.9626 0.0000e+00
     -0.168 1.1871e-20     6.3726     72.915     35.569  33.450154     0.7401      7.350   317.9218 1.6149e+02     0.4232     -0.165     -0.239    21.9802 0.0000e+00
     -0.168 1.3058e-19     6.3366     72.513     35.559  33.445119     0.7306      7.348   318.1208 1.6135e+02     0.4288     -0.164     -0.239    21.9922 0.0000e+00
     -0.168 1.4364e-18     6.2990     72.091     35.543  33.434309     0.7273      7.347   318.4852 1.6153e+02     0.4510     -0.165     -0.239    22.0016 0.0000e+00
     -0.168 1.5800e-17     6.2594     71.647     35.551  33.446492     0.7273      7.344   319.0581 1.6192e+02     0.4480     -0.164     -0.239    22.0103 0.0000e+00
     -0.168 1.7380e-16     6.2183     71.186     35.565  33.465394     0.7308      7.342   318.4230 1.6203e+02     0.4226     -0.164     -0.239    22.0166 0.0000e+00
     -0.168 1.9118e-15     6.1785     70.741     35.566  33.472313     0.7509      7.341   316.7438 1.6189e+02     0.3878     -0.164     -0.239    22.0218 0.0000e+00
     -0.168 2.1030e-14     6.1387     70.296     35.554  33.466642     0.7778      7.342   316.0485 1.6182e+02     0.3934     -0.165     -0.239    22.0282 0.0000e+00
     -0.168 2.3133e-13     6.0951     69.806     35.543  33.460356     0.7983      7.342   316.6413 1.6192e+02     0.4298     -0.165     -0.239    22.0352 0.0000e+00
     -0.168 2.5446e-12     6.0518     69.320     35.537  33.459836     0.8065      7.343   317.6299 1.6218e+02     0.4310     -0.164     -0.239    22.0416 0.0000e+00
     -0.167 2.7990e-11     6.0098     68.850     35.532  33.460357     0.7941      7.343   318.1934 1.6215e+02     0.3777     -0.164     -0.238    22.0504 0.0000e+00
     -0.167 3.0789e-10     5.9648     68.345     35.532  33.466660     0.7775      7.342   317.6904 1.6185e+02     0.2735     -0.164     -0.238    22.0593 0.0000e+00
     -0.167 3.3868e-09     5.9188     67.827     35.533  33.472538     0.7801      7.342   316.5380 1.6170e+02     0.2088     -0.164     -0.238    22.0648 0.0000e+00
     -0.167 3.7255e-08     5.8763     67.347     35.523  33.467919     0.7889      7.342   315.8748 1.6163e+02     0.2366     -0.164     -0.239    22.0713 0.0000e+00
     -0.167 4.0981e-07     5.8352     66.883     35.527  33.474337     0.7734      7.342   315.9529 1.6153e+02     0.3045     -0.164     -0.238    22.0808 0.0000e+00
     -0.167      0.000     5.7939     66.414     35.537  33.486624     0.7400      7.342   316.2779 1.6161e+02     0.3885     -0.164     -0.238    22.0888 0.0000e+00
     -0.167      0.000     5.7562     65.987     35.537  33.489463     0.7255      7.342   316.4489 1.6201e+02     0.4580     -0.164     -0.238    22.0955 0.0000e+00
     -0.167      0.001     5.7211     65.590     35.555  33.508661     0.7266      7.342   316.6438 1.6208e+02     0.4738     -0.164     -0.238    22.1019 0.0000e+00
     -0.167      0.001     5.6855     65.185     35.574  33.528198     0.7259      7.341   316.8276 1.6192e+02     0.4573     -0.164     -0.238    22.1063 0.0000e+00
     -0.167      0.001     5.6502     64.785     35.579  33.535137     0.7249      7.338   316.5197 1.6207e+02     0.4414     -0.163     -0.237    22.1102 0.0000e+00
     -0.167      0.001     5.6185     64.425     35.569  33.529042     0.7243      7.335   316.1904 1.6200e+02     0.4341     -0.163     -0.237    22.1145 0.0000e+00
     -0.166      0.001     5.5920     64.126     35.554  33.518032     0.7282      7.331   316.0298 1.6187e+02     0.4309     -0.162     -0.236    22.1177 0.0000e+00
     -0.166      0.001     5.5693     63.871     35.563  33.529051     0.7343      7.328   315.8691 1.6172e+02     0.4329     -0.162     -0.235    22.1201 0.0000e+00
     -0.166      0.001     5.5483     63.634     35.566  33.535250     0.7347      7.326   316.4846 1.6179e+02     0.4280     -0.162     -0.236    22.1231 0.0000e+00
     -0.166      0.000     5.5273     63.398     35.558  33.529466     0.7233      7.324   317.5346 1.6210e+02     0.4024     -0.162     -0.235    22.1272 0.0000e+00
     -0.166 1.8628e-08     5.5078     63.178     35.549  33.522642     0.7162      7.322   317.7232 1.6220e+02     0.4274     -0.162     -0.236    22.1312 0.0000e+00
     -0.165 2.0490e-07     5.4906     62.985     35.540  33.516257     0.7222      7.319   317.4752 1.6198e+02     0.4874     -0.161     -0.235    22.1352 0.0000e+00
     -0.165 2.0490e-07     5.4735     62.791     35.536  33.515779     0.7128      7.315   317.2022 1.6146e+02     0.4250     -0.162     -0.234    22.1393 0.0000e+00
     -0.165 1.8627e-08     5.4552     62.585     35.536  33.516872     0.6861      7.314   316.8314 1.6140e+02     0.2840     -0.162     -0.236    22.1422 0.0000e+00
     -0.165 1.6934e-09     5.4367     62.377     35.548  33.529475     0.6754      7.313   317.5529 1.6141e+02     0.2164     -0.162     -0.235    22.1451 0.0000e+00
     -0.165 1.5395e-10     5.4182     62.167     35.558  33.541128     0.6839      7.311   319.1289 1.6130e+02     0.2188     -0.162     -0.236    22.1484 0.0000e+00
     -0.165 1.3995e-11     5.4021     61.984     35.545  33.530734     0.6784      7.308   319.7969 1.6172e+02     0.2514     -0.162     -0.235    22.1516 0.0000e+00
     -0.165 1.2723e-12     5.3902     61.850     35.544  33.530843     0.6546      7.305   319.4346 1.6167e+02     0.2746     -0.161     -0.234    22.1543 0.0000e+00
     -0.165 1.1566e-13     5.3775     61.706     35.555  33.542443     0.6352      7.301   318.7921 1.6092e+02     0.2552     -0.162     -0.235    22.1565 0.0000e+00
     -0.165 1.0515e-14     5.3625     61.536     35.556  33.543962     0.6279      7.299   318.4821 1.6113e+02     0.2312     -0.162     -0.235    22.1589 0.0000e+00
     -0.165 9.5590e-16     5.3484     61.376     35.560  33.549211     0.6487      7.296   319.1275 1.6212e+02     0.2897     -0.162     -0.236    22.1612 0.0000e+00
     -0.165 8.6900e-17     5.3351     61.226     35.550  33.542396     0.6845      7.292   320.4009 1.6166e+02     0.4124     -0.162     -0.235    22.1634 0.0000e+00
     -0.165 7.9054e-18     5.3214     61.072     35.530  33.525074     0.6940      7.289   321.1441 1.6140e+02     0.4634     -0.162     -0.235    22.1648 0.0000e+00
     -0.166 7.7755e-19     5.3087     60.929     35.534  33.530322     0.6896      7.284   321.0584 1.6135e+02     0.4498     -0.162     -0.236    22.1659 0.0000e+00
     -0.166 7.1817e-19     5.2959     60.784     35.545  33.542337     0.6956      7.280   320.6558 1.6015e+02     0.3999     -0.162     -0.236    22.1675 0.0000e+00
     -0.165 7.1877e-18     5.2800     60.604     35.544  33.543325     0.7022      7.277   320.3194 1.6103e+02     0.3177     -0.162     -0.235    22.1700 0.0000e+00
     -0.165 7.8999e-17     5.2640     60.425     35.541  33.542271     0.7051      7.273   320.0889 1.6218e+02     0.2798     -0.162     -0.235    22.1729 0.0000e+00
     -0.165 8.6899e-16     5.2505     60.272     35.526  33.529587     0.7022      7.270   320.1922 1.6180e+02     0.2463     -0.162     -0.235    22.1754 0.0000e+00
     -0.165 9.5589e-15     5.2365     60.114     35.510  33.516997     0.6950      7.269   320.7077 1.6203e+02     0.2187     -0.163     -0.236    22.1776 0.0000e+00
     -0.165 1.0515e-13     5.2207     59.936     35.508  33.517082     0.7191      7.267   321.0729 1.6205e+02     0.2202     -0.162     -0.235    22.1800 0.0000e+00
     -0.165 1.1566e-12     5.2056     59.765     35.521  33.530626     0.7733      7.264   321.0807 1.6179e+02     0.2037     -0.162     -0.235    22.1826 0.0000e+00
     -0.165 1.2723e-11     5.1905     59.594     35.544  33.553722     0.7996      7.263   320.3719 1.6182e+02     0.2017     -0.162     -0.235    22.1852 0.0000e+00
     -0.165 1.3995e-10     5.1748     59.416     35.530  33.542268     0.7889      7.263   319.3854 1.6186e+02     0.2267     -0.162     -0.235    22.1876 0.0000e+00
     -0.165 1.5395e-09     5.1619     59.271     35.504  33.519172     0.7727      7.263   319.3928 1.6198e+02     0.2930     -0.162     -0.235    22.1902 0.0000e+00
     -0.165 1.6934e-08     5.1516     59.155     35.512  33.528534     0.7695      7.262   319.8589 1.6206e+02     0.3925     -0.161     -0.234    22.1928 0.0000e+00
     -0.165 1.8628e-07     5.1427     59.054     35.511  33.528438     0.7771      7.261   320.2886 1.6197e+02     0.4530     -0.162     -0.235    22.1953 0.0000e+00
     -0.165 1.8628e-07     5.1361     58.977     35.501  33.518017     0.7822      7.260   320.8886 1.6212e+02     0.4448     -0.161     -0.234    22.1976 0.0000e+00
     -0.165 1.6957e-08     5.1311     58.920     35.514  33.529564     0.7937      7.258   320.4022 1.6234e+02     0.3538     -0.161     -0.234    22.1990 0.0000e+00
     -0.165 1.7976e-09     5.1260     58.861     35.526  33.541017     0.8243      7.256   318.8815 1.6177e+02     0.2387     -0.162     -0.235    22.2013 0.0000e+00
     -0.165 2.9800e-09     5.1202     58.795     35.514  33.529461     0.8494      7.254   318.2470 1.6142e+02     0.2129     -0.161     -0.234    22.2033 0.0000e+00
     -0.165 3.1254e-08     5.1135     58.719     35.500  33.516872     0.8496      7.252   318.4086 1.6178e+02     0.2549     -0.161     -0.234    22.2015 0.0000e+00
     -0.165 3.4365e-07     5.1054     58.627     35.498  33.515838     0.8170      7.252   318.8571 1.6115e+02     0.3200     -0.161     -0.234    22.2006 0.0000e+00
     -0.165      0.000     5.0959     58.519     35.498  33.516956     0.7679      7.251   319.6263 1.6107e+02     0.4195     -0.161     -0.234    22.2015 0.0000e+00
     -0.165      0.000     5.0849     58.394     35.511  33.530387     0.7428      7.249   319.3636 1.6225e+02     0.4819     -0.161     -0.234    22.2009 0.0000e+00
     -0.165      0.000     5.0721     58.250     35.532  33.551204     0.7342      7.248   317.8321 1.6248e+02     0.4635     -0.161     -0.234    22.2018 0.0000e+00
     -0.164      0.005     5.0599     58.110     35.492  33.514597     0.7556      7.255   314.7023 1.6222e+02     0.3802     -0.161     -0.234    22.2032 0.0000e+00
     -0.164      0.025     5.0513     58.000     35.318  33.341842     0.8171      7.292   309.5704 1.6241e+02     0.2688     -0.161     -0.232    22.2051 0.0000e+00
     -0.164      0.069     5.0698     58.131     35.197  33.177333     0.8533      7.362   305.4281 1.6281e+02     0.2153     -0.161     -0.235    22.2045 0.0000e+00
     -0.162      0.122     5.1858     59.281     35.312  33.176842     0.8528      7.420   303.5927 1.6273e+02     0.2214     -0.159     -0.231    22.2089 0.0000e+00
     -0.147      0.164     5.4808     62.469     35.392  33.145203     0.8477      7.435   302.5218 1.6236e+02     0.2207     -0.163     -0.235    22.2079 0.0000e+00
     -0.082      0.188     5.9610     67.799     35.370  33.048695     0.8282      7.419   301.6867 1.5588e+02     0.2072     -0.108     -0.157    22.2153 0.0000e+00
      0.026      0.192     6.5395     74.199     35.440  33.026102     0.8015      7.399   301.1529 1.4493e+02     0.2095      0.043      0.061    22.1760 0.0000e+00
      0.111      0.176     7.1172     80.535     35.518  32.998944     0.7915      7.385   300.8861 1.4279e+02     0.2186      0.134      0.194    21.9655 0.0000e+00
      0.141      0.141     7.6273     86.128     35.577  32.974241     0.7995      7.379   300.6986 1.5324e+02     0.2261      0.143      0.207    21.7861 0.0000e+00
      0.148      0.090     8.0253     90.493     35.642  32.981372     0.8248      7.379   300.6918 2.1347e+02     0.2394      0.146      0.212    21.7345 0.0000e+00
      0.149      0.041     8.2774     93.240     35.658  32.958068     0.8489      7.382   301.5785 3.3429e+02     0.2256      0.146      0.212    21.5998 0.0000e+00
      0.149      0.011     8.3651     94.156     35.677  32.946474     0.8509      7.387   303.1600 8.1821e+02     0.2121      0.147      0.212    21.4299 0.0000e+00
      0.149      0.001     8.3019     93.397     35.721  32.968189     0.8499      7.391   303.8959 1.4359e+03     0.2286      0.146      0.212    21.3261 0.0000e+00
      0.149 9.0405e-10     8.1373     91.514     35.732  32.966539     0.8557      7.396   303.7650 1.2635e+03     0.2733      0.146      0.212    21.2574 0.0000e+00
      0.148 9.9445e-09     7.9294     89.150     35.700  32.926504     0.8563      7.401   303.8150 7.3119e+02     0.3550      0.145      0.211    21.2046 0.0000e+00
      0.148 1.0939e-07     7.7129     86.692     35.645  32.865191     0.8576      7.406   303.8115 7.8755e+02     0.4225      0.145      0.211    21.1637 0.0000e+00
      0.149 1.0029e-07     7.5020     84.296     35.582  32.796828     0.8618      7.411   304.3247 1.3299e+03     0.4797      0.146      0.212    21.1395 0.0000e+00
      0.149 1.3995e-10     7.3065     82.072     35.529  32.735056     0.8435      7.415   305.7185 1.5390e+03     0.4972      0.146      0.212    21.1251 0.0000e+00
      0.149 1.5395e-09     7.1355     80.127     35.491  32.689908     0.8105      7.417   306.5530 1.1348e+03     0.4512      0.147      0.213    21.1105 0.0000e+00
      0.149 1.6934e-08     6.9927     78.509     35.436  32.632017     0.7930      7.418   306.7572 7.6987e+02     0.4119      0.147      0.213    21.0965 0.0000e+00
      0.149 1.8628e-07     6.8779     77.212     35.343  32.543190     0.7880      7.418   306.6385 6.0392e+02     0.4179      0.146      0.212    21.0830 0.0000e+00
      0.149 1.8628e-07     6.7897     76.223     35.301  32.505082     0.7875      7.418   306.3229 4.4250e+02     0.4636      0.146      0.212    21.0627 0.0000e+00
      0.149 1.6961e-08     6.7276     75.544     35.343  32.552338     0.7866      7.420   307.0714 2.9068e+02     0.4761      0.146      0.212    21.0447 0.0000e+00
      0.149 1.8307e-09     6.6912     75.168     35.385  32.606466     0.7863      7.421   308.7189 1.9157e+02     0.4473      0.146      0.212    21.0388 0.0000e+00
      0.149 3.3430e-09     6.6751     75.023     35.415  32.651452     0.7838      7.421   309.7236 2.0777e+02     0.4208      0.146      0.212    21.0327 0.0000e+00
      0.149 3.5247e-08     6.6706     75.008     35.466  32.715202     0.7750      7.422   310.0127 3.4277e+02     0.3994      0.146      0.211    21.0295 0.0000e+00
      0.149 3.8757e-07     6.6761     75.099     35.480  32.742166     0.7715      7.423   309.9773 4.9031e+02     0.4020      0.146      0.212    21.0423 0.0000e+00
      0.149      0.000     6.6921     75.297     35.450  32.723435     0.7783      7.423   309.6398 5.6110e+02     0.4214      0.146      0.212    21.0695 0.0000e+00
      0.149      0.000     6.7161     75.580     35.464  32.742799     0.7839      7.422   309.6316 6.8537e+02     0.4205      0.146      0.212    21.0942 0.0000e+00
      0.149      0.001     6.7463     75.936     35.502  32.785755     0.7928      7.421   310.1358 9.3327e+02     0.4212      0.146      0.212    21.1182 0.0000e+00
      0.149      0.001     6.7784     76.311     35.508  32.798228     0.8215      7.419   310.6599 1.1608e+03     0.4606      0.146      0.212    21.1425 0.0000e+00
      0.149     -0.003     6.8049     76.619     35.538  32.830104     0.8464      7.420   310.9791 1.1036e+03     0.4999      0.146      0.211    21.1510 0.0000e+00
      0.150     -0.013     6.8233     76.839     35.626  32.917124     0.8454      7.421   311.3271 1.0316e+03     0.5000      0.146      0.212    21.1564 0.0000e+00
      0.150     -0.037     6.8363     77.020     35.655  32.961189     0.8376      7.418   311.9426 1.0714e+03     0.4935      0.149      0.216    21.1712 0.0000e+00
      0.148     -0.075     6.8524     77.268     35.575  32.918329     0.8252      7.413   312.2259 6.9789e+02     0.4811      0.148      0.215    21.1817 0.0000e+00
      0.138     -0.117     6.8914     77.773     35.530  32.907055     0.8057      7.408   312.2579 2.6271e+02     0.4425      0.142      0.205    21.1849 0.0000e+00
      0.106     -0.149     6.9640     78.623     35.563  32.951945     0.7955      7.400   312.9312 1.6260e+02     0.4232      0.118      0.171    21.1883 0.0000e+00
      0.043     -0.164     7.0607     79.742     35.551  32.952996     0.7939      7.390   313.9992 1.5526e+02     0.4308      0.050      0.073    21.2069 0.0000e+00
     -0.035     -0.162     7.1692     81.034     35.483  32.919779     0.7675      7.382   314.9322 1.5765e+02     0.4425     -0.045     -0.065    21.2591 0.0000e+00
     -0.094     -0.143     7.2841     82.410     35.458  32.931444     0.7148      7.377   315.4364 1.5942e+02     0.4735     -0.107     -0.154    21.3181 0.0000e+00
     -0.119     -0.109     7.3955     83.711     35.477  32.967059     0.6893      7.375   314.8473 1.5997e+02     0.5001     -0.122     -0.177    21.3265 0.0000e+00
     -0.125     -0.067     7.4864     84.756     35.472  32.969341     0.6897      7.375   313.4884 1.5965e+02     0.4896     -0.124     -0.179    21.3248 0.0000e+00
     -0.127     -0.031     7.5444     85.432     35.451  32.959041     0.7103      7.377   313.2022 1.5968e+02     0.4687     -0.125     -0.181    21.3808 0.0000e+00
     -0.127     -0.010     7.5669     85.712     35.451  32.969565     0.7638      7.380   314.0541 1.6032e+02     0.4607     -0.124     -0.180    21.4442 0.0000e+00
     -0.127     -0.002     7.5551     85.598     35.442  32.969575     0.7943      7.382   314.5821 1.6095e+02     0.4539     -0.124     -0.180    21.4647 0.0000e+00
     -0.127 -1.094e-09     7.5078     85.075     35.425  32.959172     0.7851      7.383   314.9405 1.6103e+02     0.4482     -0.124     -0.180    21.4628 0.0000e+00
     -0.126 -1.203e-08     7.4268     84.165     35.435  32.970824     0.7813      7.384   314.9457 1.6043e+02     0.4530     -0.124     -0.180    21.4773 0.0000e+00
     -0.126 -1.323e-07     7.3214     82.976     35.446  32.983431     0.7766      7.385   314.0434 1.6060e+02     0.4501     -0.124     -0.180    21.4967 0.0000e+00
     -0.126 -1.323e-07     7.2021     81.628     35.445  32.984576     0.7554      7.386   313.4946 1.6067e+02     0.4436     -0.123     -0.179    21.5074 0.0000e+00
     -0.127 -1.203e-08     7.0787     80.235     35.442  32.984680     0.7372      7.386   313.6456 1.6069e+02     0.4363     -0.124     -0.180    21.5157 0.0000e+00
     -0.127 -1.093e-09     6.9614     78.910     35.440  32.984690     0.7309      7.385   313.9760 1.6084e+02     0.4227     -0.124     -0.181    21.5187 0.0000e+00
     -0.126 -9.940e-11     6.8561     77.721     35.437  32.984700     0.7342      7.385   314.5633 1.6049e+02     0.4314     -0.124     -0.180    21.5212 0.0000e+00
     -0.126 -9.040e-12     6.7629     76.670     35.435  32.984805     0.7311      7.386   314.8966 1.6029e+02     0.4497     -0.124     -0.180    21.5244 0.0000e+00
     -0.126 -8.215e-13     6.6810     75.746     35.434  32.985960     0.7293      7.387   314.6499 1.6052e+02     0.4608     -0.123     -0.179    21.5278 0.0000e+00
     -0.126 -7.470e-14     6.6132     74.980     35.446  32.998662     0.7401      7.389   314.2481 1.6071e+02     0.4743     -0.123     -0.179    21.5311 0.0000e+00
     -0.126 -6.789e-15     6.5578     74.355     35.458  33.011365     0.7699      7.389   314.0825 1.6052e+02     0.4595     -0.124     -0.180    21.5347 0.0000e+00
     -0.126 -6.017e-16     6.5096     73.815     35.455  33.012530     0.8238      7.389   314.1096 1.6037e+02     0.4351     -0.124     -0.180    21.5380 0.0000e+00
     -0.126 1.1757e-16     6.4648     73.318     35.450  33.012739     0.8588      7.389   314.2314 1.6101e+02     0.4537     -0.123     -0.179    21.5414 0.0000e+00
     -0.126 1.9052e-15     6.4205     72.830     35.443  33.013902     0.8610      7.388   314.9535 1.6126e+02     0.4707     -0.123     -0.179    21.5423 0.0000e+00
     -0.126 2.1013e-14     6.3756     72.334     35.449  33.026606     0.8233      7.388   315.9565 1.6081e+02     0.4583     -0.124     -0.180    21.5445 0.0000e+00
     -0.126 2.3115e-13     6.3322     71.854     35.457  33.039317     0.7518      7.389   316.1205 1.6109e+02     0.4560     -0.124     -0.180    21.5490 0.0000e+00
     -0.126 2.5427e-12     6.2902     71.389     35.452  33.040576     0.7141      7.390   315.9044 1.6154e+02     0.4737     -0.124     -0.180    21.5560 0.0000e+00
     -0.126 2.7969e-11     6.2474     70.914     35.447  33.041835     0.7167      7.391   315.6659 1.6185e+02     0.4891     -0.123     -0.179    21.5683 0.0000e+00
     -0.126 3.0766e-10     6.2058     70.452     35.454  33.054546     0.7182      7.391   315.3021 1.6190e+02     0.4293     -0.123     -0.179    21.5782 0.0000e+00
     -0.126 3.3843e-09     6.1668     70.019     35.463  33.067249     0.7144      7.390   316.1526 1.6161e+02     0.2993     -0.124     -0.180    21.5858 0.0000e+00
     -0.126 3.7227e-08     6.1273     69.578     35.460  33.068403     0.7159      7.390   317.8602 1.6219e+02     0.2298     -0.124     -0.180    21.5944 0.0000e+00
     -0.126 4.0950e-07     6.0885     69.144     35.456  33.068499     0.7184      7.390   318.4831 1.6295e+02     0.2289     -0.124     -0.180    21.6023 0.0000e+00
     -0.127      0.000     6.0559     68.779     35.454  33.068413     0.7174      7.390   318.0049 1.6283e+02     0.2284     -0.124     -0.180    21.6104 0.0000e+00
     -0.127      0.000     6.0260     68.445     35.450  33.067373     0.7315      7.389   317.2409 1.6199e+02     0.2839     -0.124     -0.180    21.6173 0.0000e+00
     -0.127      0.001     5.9955     68.103     35.435  33.055919     0.7604      7.389   317.0761 1.6150e+02     0.4117     -0.124     -0.181    21.6230 0.0000e+00
     -0.126      0.001     5.9651     67.763     35.433  33.056959     0.7819      7.388   317.9911 1.6203e+02     0.4924     -0.124     -0.180    21.6279 0.0000e+00
     -0.126      0.001     5.9360     67.438     35.454  33.079950     0.7975      7.387   319.1835 1.6228e+02     0.4970     -0.123     -0.179    21.6314 0.0000e+00
     -0.126      0.000     5.9135     67.187     35.450  33.079855     0.7925      7.387   319.7060 1.6123e+02     0.4666     -0.123     -0.179    21.6347 0.0000e+00
     -0.125 1.8614e-08     5.8965     66.999     35.421  33.055814     0.7590      7.386   319.7489 1.6062e+02     0.4304     -0.123     -0.178    21.6380 0.0000e+00
     -0.125 2.0475e-07     5.8794     66.809     35.406  33.043329     0.7325      7.385   319.5304 1.6172e+02     0.4258     -0.123     -0.178    21.6420 0.0000e+00
     -0.126 2.0475e-07     5.8616     66.613     35.416  33.055936     0.7304      7.384   319.0427 1.6210e+02     0.4716     -0.124     -0.180    21.6468 0.0000e+00
     -0.126 1.8614e-08     5.8447     66.426     35.440  33.081218     0.7516      7.384   319.0142 1.6148e+02     0.5261     -0.124     -0.180    21.6517 0.0000e+00
     -0.126 1.6921e-09     5.8274     66.236     35.450  33.094960     0.7768      7.384   319.6166 1.6162e+02     0.5061     -0.123     -0.179    21.6556 0.0000e+00
     -0.126 1.5383e-10     5.8089     66.033     35.446  33.095065     0.7777      7.384   320.2168 1.6152e+02     0.4732     -0.124     -0.180    21.6590 0.0000e+00
     -0.126 1.3985e-11     5.7929     65.857     35.429  33.082485     0.7717      7.383   320.5069 1.6154e+02     0.4952     -0.124     -0.180    21.6629 0.0000e+00
     -0.126 1.2713e-12     5.7790     65.705     35.413  33.069895     0.7596      7.382   320.6285 1.6262e+02     0.4966     -0.124     -0.180    21.6669 0.0000e+00
     -0.126 1.1558e-13     5.7655     65.557     35.409  33.069877     0.7321      7.381   320.6553 1.6261e+02     0.4601     -0.124     -0.180    21.6721 0.0000e+00
     -0.126 1.0507e-14     5.7540     65.432     35.419  33.082265     0.7248      7.379   320.0562 1.6180e+02     0.4195     -0.123     -0.179    21.6778 0.0000e+00
     -0.126 9.5515e-16     5.7425     65.308     35.426  33.092658     0.7358      7.377   319.1501 1.6227e+02     0.4020     -0.124     -0.179    21.6829 0.0000e+00
     -0.126 8.6835e-17     5.7299     65.172     35.396  33.068511     0.7540      7.377   319.0772 1.6231e+02     0.4327     -0.123     -0.179    21.6868 0.0000e+00
     -0.126 7.8940e-18     5.7221     65.091     35.366  33.044366     0.7795      7.377   319.5195 1.6176e+02     0.4552     -0.124     -0.179    21.6912 0.0000e+00
     -0.126 7.1765e-19     5.7222     65.099     35.373  33.054787     0.7967      7.377   320.0232 1.6263e+02     0.4593     -0.123     -0.179    21.6963 0.0000e+00
     -0.126 6.5240e-20     5.7255     65.142     35.383  33.067489     0.8056      7.377   320.5221 1.6288e+02     0.4827     -0.123     -0.179    21.7000 0.0000e+00
     -0.126 5.9311e-21     5.7277     65.171     35.385  33.070924     0.8039      7.376   319.8721 1.6205e+02     0.4937     -0.124     -0.179    21.7058 0.0000e+00
     -0.126 5.4011e-22     5.7292     65.190     35.410  33.096327     0.7940      7.374   318.3592 1.6197e+02     0.5017     -0.124     -0.179    21.7139 0.0000e+00
     -0.126 5.9609e-23     5.7293     65.193     35.435  33.120578     0.7879      7.374   317.7167 1.6198e+02     0.5179     -0.124     -0.179    21.7196 0.0000e+00
     -0.126 1.2098e-22     5.7257     65.154     35.423  33.110081     0.7848      7.374   318.1268 1.6158e+02     0.5059     -0.124     -0.180    21.7232 0.0000e+00
     -0.126 1.2822e-21     5.7187     65.076     35.407  33.096433     0.7843      7.374   319.0154 1.6114e+02     0.4794     -0.123     -0.179    21.7261 0.0000e+00
     -0.125 1.4100e-20     5.7089     64.966     35.391  33.082595     0.7905      7.374   319.5988 1.6118e+02     0.4715     -0.123     -0.178    21.7276 0.0000e+00
     -0.125 1.5510e-19     5.6959     64.821     35.376  33.069799     0.7957      7.374   318.9859 1.6147e+02     0.4721     -0.123     -0.178    21.7288 0.0000e+00
     -0.125 1.7060e-18     5.6817     64.662     35.373  33.068739     0.7929      7.374   317.6272 1.6149e+02     0.4562     -0.123     -0.178    21.7301 0.0000e+00
     -0.126 1.8767e-17     5.6697     64.530     35.372  33.069787     0.7928      7.374   316.9378 1.6172e+02     0.4315     -0.123     -0.179    21.7310 0.0000e+00
     -0.126 2.0643e-16     5.6581     64.402     35.383  33.082479     0.7945      7.373   317.1896 1.6188e+02     0.4482     -0.123     -0.179    21.7327 0.0000e+00
     -0.126 2.2707e-15     5.6440     64.247     35.393  33.095172     0.7855      7.372   317.6595 1.6153e+02     0.5049     -0.123     -0.178    21.7345 0.0000e+00
     -0.126 2.4978e-14     5.6292     64.084     35.391  33.096222     0.7769      7.372   317.8867 1.6172e+02     0.5078     -0.124     -0.180    21.7368 0.0000e+00
     -0.125 2.7476e-13     5.6151     63.927     35.387  33.095180     0.7822      7.371   318.0442 1.6209e+02     0.4527     -0.123     -0.179    21.7406 0.0000e+00
     -0.125 3.0224e-12     5.6016     63.779     35.370  33.082582     0.8036      7.370   318.0156 1.6184e+02     0.4187     -0.123     -0.178    21.7444 0.0000e+00
     -0.126 3.3246e-11     5.5901     63.654     35.355  33.070930     0.8331      7.370   317.6264 1.6181e+02     0.4313     -0.123     -0.179    21.7482 0.0000e+00
     -0.126 3.6571e-10     5.5811     63.557     35.362  33.081332     0.8539      7.370   317.4688 1.6196e+02     0.4830     -0.124     -0.180    21.7527 0.0000e+00
     -0.126 4.0228e-09     5.5716     63.453     35.359  33.081331     0.8534      7.369   317.5733 1.6183e+02     0.4950     -0.123     -0.179    21.7566 0.0000e+00
     -0.126 4.4250e-08     5.5622     63.351     35.346  33.070918     0.8271      7.368   317.6848 1.6140e+02     0.4546     -0.123     -0.179    21.7605 0.0000e+00
     -0.125 4.8676e-07     5.5558     63.281     35.356  33.082466     0.7926      7.368   318.2140 1.6104e+02     0.4218     -0.123     -0.178    21.7657 0.0000e+00
     -0.125      0.000     5.5490     63.206     35.366  33.093928     0.7766      7.368   318.8956 1.6114e+02     0.4030     -0.123     -0.178    21.7702 0.0000e+00
     -0.125      0.000     5.5404     63.111     35.352  33.082477     0.7806      7.366   318.8713 1.6131e+02     0.4104     -0.123     -0.179    21.7740 0.0000e+00
     -0.125      0.001     5.5328     63.026     35.339  33.071042     0.7851      7.366   318.5226 1.6148e+02     0.4202     -0.123     -0.178    21.7772 0.0000e+00
     -0.125      0.002     5.5237     62.926     35.350  33.082704     0.7855      7.367   318.0351 1.6188e+02     0.3686     -0.123     -0.179    21.7799 0.0000e+00
     -0.125      0.003     5.5137     62.814     35.364  33.096448     0.7855      7.362   317.4508 1.6142e+02     0.3048     -0.123     -0.179    21.7828 0.0000e+00
     -0.124      0.002     5.5086     62.759     35.376  33.110193     0.7850      7.351   318.5135 1.6104e+02     0.2900     -0.121     -0.176    21.7851 0.0000e+00
     -0.122     -0.005     5.5110     62.792     35.385  33.121870     0.7889      7.339   320.8172 1.6123e+02     0.2818     -0.119     -0.174    21.7866 0.0000e+00
     -0.120     -0.020     5.5226     62.933     35.367  33.110609     0.8054      7.327   321.5572 1.6116e+02     0.3278     -0.119     -0.171    21.7880 0.0000e+00
     -0.120     -0.042     5.5468     63.218     35.351  33.101079     0.8377      7.316   321.0092 1.6101e+02     0.4181     -0.116     -0.167    21.7892 0.0000e+00
     -0.126     -0.065     5.5799     63.602     35.382  33.133670     0.8570      7.311   320.3847 1.5860e+02     0.4580     -0.118     -0.171    21.7918 0.0000e+00
     -0.147     -0.081     5.6166     64.031     35.501  33.250619     0.8458      7.305   319.7720 1.5520e+02     0.4751     -0.137     -0.199    21.7961 0.0000e+00
     -0.185     -0.088     5.6708     64.697     35.669  33.435346     0.8038      7.295   320.2262 1.5238e+02     0.4725     -0.179     -0.259    21.8045 0.0000e+00
     -0.226     -0.083     5.7846     66.130     35.754  33.588802     0.7446      7.286   321.6606 1.4993e+02     0.4257     -0.226     -0.329    21.8131 0.0000e+00
     -0.254     -0.063     6.0015     68.825     35.693  33.645295     0.7276      7.280   322.5744 1.4898e+02     0.4287     -0.256     -0.372    21.8197 0.0000e+00
     -0.265     -0.033     6.3233     72.731     35.538  33.610437     0.7451      7.273   322.4984 1.4855e+02     0.5087     -0.264     -0.381    21.8163 0.0000e+00
     -0.264      0.002     6.7033     77.233     35.404  33.548596     0.7535      7.266   321.6883 1.4880e+02     0.4776     -0.262     -0.380    21.8379 0.0000e+00
     -0.255      0.037     7.0790     81.581     35.375  33.532826     0.7660      7.259   320.6943 1.4998e+02     0.3270     -0.254     -0.368    21.9396 0.0000e+00
     -0.238      0.062     7.3987     85.218     35.412  33.546805     0.7760      7.254   319.7738 1.5133e+02     0.2446     -0.234     -0.339    22.1293 0.0000e+00
     -0.218      0.077     7.6320     87.882     35.402  33.527040     0.7735      7.255   318.9035 1.5313e+02     0.2442     -0.216     -0.313    22.3114 0.0000e+00
     -0.192      0.083     7.7741     89.540     35.348  33.484375     0.7906      7.257   318.4316 1.5533e+02     0.3225     -0.192     -0.277    22.4026 0.0000e+00
     -0.163      0.083     7.8357     90.257     35.335  33.475569     0.8269      7.256   318.2836 1.5742e+02     0.4282     -0.155     -0.226    22.4113 0.0000e+00
     -0.139      0.077     7.8303     90.173     35.354  33.484088     0.8446      7.253   318.2332 1.5846e+02     0.4536     -0.133     -0.193    22.3497 0.0000e+00
     -0.123      0.067     7.7813     89.590     35.336  33.460329     0.8484      7.248   318.1655 1.5904e+02     0.4466     -0.121     -0.175    22.3290 0.0000e+00
     -0.108      0.053     7.7215     88.893     35.321  33.442351     0.8540      7.243   317.4654 1.6066e+02     0.4041     -0.104     -0.151    22.3686 0.0000e+00
     -0.096      0.039     7.6651     88.235     35.341  33.457259     0.8575      7.243   316.5655 1.6224e+02     0.3066     -0.094     -0.135    22.3728 0.0000e+00
     -0.087      0.028     7.6075     87.559     35.339  33.450027     0.8535      7.247   316.5770 1.6251e+02     0.2446     -0.085     -0.124    22.3464 0.0000e+00
     -0.082      0.020     7.5399     86.768     35.311  33.418421     0.8517      7.253   316.7436 1.6232e+02     0.2344     -0.079     -0.115    22.3367 0.0000e+00
     -0.080      0.016     7.4570     85.801     35.290  33.392682     0.8538      7.262   316.6877 1.6292e+02     0.2448     -0.079     -0.114    22.3370 0.0000e+00
     -0.080      0.018     7.3630     84.704     35.297  33.392870     0.8323      7.271   316.7610 1.6375e+02     0.2476     -0.079     -0.114    22.3297 0.0000e+00
     -0.080      0.028     7.2587     83.485     35.336  33.420680     0.8040      7.276   315.8232 1.6387e+02     0.2063     -0.078     -0.112    22.3230 0.0000e+00
     -0.077      0.044     7.1521     82.232     35.339  33.411350     0.7970      7.276   314.0392 1.6484e+02     0.2033     -0.078     -0.113    22.3138 0.0000e+00
     -0.067      0.061     7.0681     81.219     35.290  33.343555     0.7936      7.276   313.0867 1.6645e+02     0.2730     -0.071     -0.102    22.3072 0.0000e+00
     -0.045      0.077     7.0288     80.664     35.226  33.236108     0.8088      7.279   312.6528 1.6519e+02     0.3471     -0.045     -0.065    22.2986 0.0000e+00
     -0.016      0.090     7.0422     80.621     35.138  33.064870     0.8426      7.283   312.3206 1.5414e+02     0.4286     -0.016     -0.024    22.2855 0.0000e+00
      0.014      0.100     7.1006     81.019     35.118  32.924385     0.8522      7.286   312.4252 1.3887e+02     0.4637      0.015      0.021    22.2695 0.0000e+00
      0.042      0.106     7.1893     81.737     35.200  32.871125     0.8431      7.289   311.6810 1.3740e+02     0.4365      0.043      0.063    22.2501 0.0000e+00
      0.065      0.107     7.2904     82.615     35.253  32.801811     0.8426      7.293   309.9477 1.4096e+02     0.4345      0.062      0.091    22.1959 0.0000e+00
      0.089      0.108     7.3860     83.470     35.343  32.784804     0.8558      7.297   309.0199 1.3734e+02     0.4703      0.085      0.124    22.0623 0.0000e+00
      0.118      0.110     7.4685     84.221     35.435  32.792388     0.8651      7.300   309.1533 1.3222e+02     0.4730      0.116      0.170    21.8750 0.0000e+00
      0.148      0.111     7.5395     84.891     35.399  32.702850     0.8625      7.303   309.5823 1.2593e+02     0.4360      0.146      0.212    21.6799 0.0000e+00
      0.178      0.113     7.5953     85.432     35.388  32.654837     0.8608      7.303   309.9900 1.2194e+02     0.4196      0.173      0.250    21.5058 0.0000e+00
      0.209      0.113     7.6283     85.732     35.423  32.656403     0.8629      7.302   310.2110 1.2313e+02     0.4274      0.206      0.299    21.3657 0.0000e+00
      0.238      0.113     7.6352     85.743     35.386  32.594713     0.8696      7.300   310.2751 1.2513e+02     0.4389      0.234      0.340    21.2546 0.0000e+00
      0.263      0.113     7.6165     85.482     35.355  32.544052     0.8684      7.299   310.6800 1.2607e+02     0.4364      0.257      0.372    21.1755 0.0000e+00
      0.291      0.117     7.5792     85.023     35.382  32.551933     0.8484      7.301   311.4927 1.2653e+02     0.4587      0.285      0.413    21.1311 0.0000e+00
      0.320      0.122     7.5312     84.450     35.410  32.562952     0.8301      7.306   312.1000 1.2590e+02     0.4944      0.314      0.456    21.0916 0.0000e+00
      0.349      0.129     7.4795     83.845     35.408  32.550231     0.8126      7.308   312.5155 1.2815e+02     0.4714      0.341      0.495    21.0463 0.0000e+00
      0.383      0.135     7.4334     83.315     35.387  32.525137     0.7929      7.308   313.5041 1.4642e+02     0.4258      0.374      0.543    21.0184 0.0000e+00
      0.422      0.140     7.3984     82.914     35.378  32.513581     0.7850      7.309   314.8475 2.4739e+02     0.4002      0.414      0.601    20.9969 0.0000e+00
      0.462      0.142     7.3742     82.630     35.410  32.537527     0.7817      7.309   315.4225 4.8067e+02     0.4064      0.453      0.657    20.9730 0.0000e+00
      0.501      0.141     7.3547     82.401     35.440  32.560612     0.7802      7.309   315.1220 5.5601e+02     0.4393      0.492      0.714    20.9561 0.0000e+00
      0.537      0.137     7.3327     82.151     35.418  32.538641     0.7854      7.306   314.6565 3.2624e+02     0.4316      0.527      0.764    20.9510 0.0000e+00
      0.571      0.134     7.3077     81.872     35.403  32.525918     0.7897      7.301   314.7841 1.8214e+02     0.3751      0.560      0.812    20.9492 0.0000e+00
      0.603      0.134     7.2873     81.644     35.412  32.533813     0.7860      7.297   316.1491 2.0654e+02     0.3663      0.593      0.861    20.9381 0.0000e+00
      0.632      0.137     7.2732     81.482     35.385  32.507064     0.7864      7.295   317.9100 2.2358e+02     0.4170      0.619      0.897    20.9299 0.0000e+00
      0.663      0.143     7.2585     81.313     35.333  32.456549     0.7952      7.291   318.6093 2.4097e+02     0.4693      0.647      0.939    20.9290 0.0000e+00
      0.702      0.155     7.2424     81.128     35.307  32.431143     0.8000      7.283   318.9263 2.2978e+02     0.4792      0.688      0.999    20.9308 0.0000e+00
      0.744      0.171     7.2285     80.970     35.333  32.453925     0.7981      7.276   318.9881 1.9404e+02     0.4452      0.731      1.060    20.9331 0.0000e+00
      0.786      0.186     7.2185     80.853     35.361  32.477948     0.8007      7.273   318.3244 1.6954e+02     0.4242      0.770      1.117    20.9279 0.0000e+00
      0.833      0.195     7.2068     80.712     35.355  32.467546     0.8032      7.273   318.6459 1.4315e+02     0.4383      0.813      1.178    20.9248 0.0000e+00
      0.891      0.195     7.1838     80.439     35.349  32.455176     0.7921      7.274   320.1215 1.2651e+02     0.4642      0.871      1.263    20.9232 0.0000e+00
      0.954      0.189     7.1509     80.056     35.355  32.455395     0.7945      7.274   320.9367 1.2457e+02     0.4626      0.939      1.362    20.9212 0.0000e+00
      1.008      0.179     7.1184     79.687     35.375  32.470180     0.8232      7.272   321.1894 1.2441e+02     0.4491      0.994      1.443    20.9199 0.0000e+00
      1.048      0.166     7.0899     79.364     35.417  32.506924     0.8452      7.270   321.2836 1.4281e+02     0.4532      1.030      1.493    20.9135 0.0000e+00
      1.080      0.149     7.0624     79.045     35.434  32.518585     0.8493      7.268   320.9576 1.6592e+02     0.4515      1.059      1.534    20.9027 0.0000e+00
      1.111      0.134     7.0303     78.671     35.404  32.484144     0.8634      7.266   321.1196 1.5619e+02     0.4290      1.089      1.580    20.8909 0.0000e+00
      1.145      0.125     6.9920     78.236     35.394  32.471559     0.8964      7.265   322.0376 1.3656e+02     0.4245      1.122      1.628    20.8880 0.0000e+00
      1.178      0.120     6.9556     77.830     35.417  32.493444     0.9176      7.264   322.6782 1.3908e+02     0.4587      1.158      1.679    20.8895 0.0000e+00
      1.208      0.117     6.9262     77.501     35.418  32.494694     0.9263      7.262   322.9283 1.4899e+02     0.5070      1.186      1.721    20.8809 0.0000e+00
      1.235      0.115     6.8977     77.182     35.410  32.486675     0.9383      7.259   323.1695 1.6316e+02     0.5204      1.209      1.754    20.8685 0.0000e+00
      1.263      0.114     6.8696     76.870     35.450  32.523520     0.9981      7.255   323.4430 1.7704e+02     0.4679      1.238      1.796    20.8649 0.0000e+00
      1.292      0.115     6.8489     76.641     35.486  32.559110     1.1066      7.254   323.5677 1.7257e+02     0.4224      1.268      1.839    20.8680 0.0000e+00
      1.320      0.117     6.8369     76.507     35.461  32.535912     1.1652      7.253   323.4727 1.6336e+02     0.4269      1.293      1.875    20.8683 0.0000e+00
      1.351      0.117     6.8323     76.460     35.416  32.497078     1.1740      7.251   323.6710 1.4697e+02     0.4314      1.323      1.919    20.8645 0.0000e+00
      1.384      0.116     6.8362     76.513     35.383  32.470651     1.1945      7.248   324.2449 1.3272e+02     0.4146      1.358      1.970    20.8679 0.0000e+00
      1.415      0.116     6.8516     76.687     35.382  32.470443     1.2203      7.245   324.9057 1.4205e+02     0.4080      1.389      2.014    20.8726 0.0000e+00
      1.443      0.116     6.8781     76.976     35.412  32.494560     1.2373      7.242   325.4655 1.5325e+02     0.4123      1.417      2.056    20.8686 0.0000e+00
      1.469      0.117     6.9103     77.327     35.431  32.508196     1.2535      7.240   325.2490 1.4838e+02     0.4361      1.440      2.090    20.8716 0.0000e+00
      1.496      0.121     6.9402     77.656     35.434  32.508276     1.2789      7.239   324.6106 1.3606e+02     0.4819      1.464      2.124    20.8819 0.0000e+00
      1.527      0.126     6.9609     77.883     35.423  32.495529     1.3051      7.238   324.8017 1.3044e+02     0.4777      1.496      2.170    20.8824 0.0000e+00
      1.562      0.132     6.9739     78.015     35.414  32.481086     1.3133      7.237   325.4089 1.3559e+02     0.4472      1.531      2.220    20.8752 0.0000e+00
      1.599      0.137     6.9877     78.124     35.415  32.460669     1.3136      7.236   325.7570 1.3689e+02     0.4786      1.568      2.274    20.8684 0.0000e+00
      1.635      0.138     7.0077     78.250     35.371  32.375664     1.3449      7.236   326.0857 1.3030e+02     0.5518      1.604      2.327    20.8662 0.0000e+00
      1.672      0.136     7.0401     78.416     35.363  32.278901     1.4071      7.235   325.8547 1.2660e+02     0.6001      1.638      2.376    20.8627 0.0000e+00
      1.709      0.133     7.0976     78.696     35.363  32.116258     1.4404      7.232   325.1158 1.2278e+02     0.6055      1.678      2.434    20.8622 0.0000e+00
      1.743      0.131     7.1902     79.224     35.338  31.869697     1.4354      7.227   325.0671 1.1983e+02     0.6162      1.712      2.482    20.8370 0.0000e+00
      1.771      0.129     7.3231     80.123     35.295  31.583851     1.4474      7.222   325.3518 1.2045e+02     0.6073      1.736      2.517    20.7742 0.0000e+00
      1.800      0.125     7.4886     81.339     35.007  31.073170     1.4839      7.218   325.8052 1.2015e+02     0.5290      1.764      2.557    20.6833 0.0000e+00
      1.835      0.123     7.6656     82.671     34.736  30.584939     1.5006      7.215   326.7632 1.2035e+02     0.4629      1.798      2.607    20.4360 0.0000e+00
      1.871      0.123     7.8421     83.987     34.776  30.379985     1.4934      7.211   326.9532 1.2135e+02     0.4490      1.838      2.667    20.0930 0.0000e+00
      1.901      0.127     8.0084     85.218     34.876  30.245963     1.4984      7.206   326.2107 1.2065e+02     0.4521      1.868      2.709    19.7470 0.0000e+00
      1.926      0.131     8.1517     86.307     34.916  30.107313     1.5692      7.203   325.8733 1.2064e+02     0.5010      1.885      2.735    19.3624 0.0000e+00
      1.956      0.133     8.2679     87.223     34.903  29.973470     1.6881      7.202   326.0571 1.2470e+02     0.5830      1.915      2.778    19.0201 0.0000e+00
      1.994      0.136     8.3589     87.935     34.852  29.834125     1.7592      7.201   326.5403 1.2838e+02     0.6185      1.955      2.835    18.6709 0.0000e+00
      2.034      0.141     8.4264     88.402     34.796  29.692488     1.7865      7.199   327.2413 1.3182e+02     0.6255      1.996      2.895    18.3284 0.0000e+00
      2.072      0.143     8.4716     88.606     34.726  29.530924     1.8425      7.197   327.6495 1.5290e+02     0.6374      2.034      2.950    18.0825 0.0000e+00
      2.108      0.143     8.4991     88.600     34.708  29.404641     1.9221      7.196   327.6043 1.8221e+02     0.6404      2.067      2.998    17.9194 0.0000e+00
      2.144      0.141     8.5082     88.400     34.727  29.308538     1.9581      7.196   327.2114 1.8803e+02     0.6307      2.103      3.050    17.7983 0.0000e+00
      2.179      0.137     8.4995     88.030     34.717  29.194355     1.9659      7.196   326.9424 1.8533e+02     0.6122      2.137      3.099    17.6696 0.0000e+00
      2.214      0.135     8.4917     87.696     34.723  29.103487     2.0256      7.193   327.1058 1.8258e+02     0.6301      2.170      3.147    17.5203 0.0000e+00
      2.249      0.133     8.5066     87.611     34.749  29.035285     2.1194      7.188   327.2940 1.6512e+02     0.6632      2.206      3.200    17.3555 0.0000e+00
      2.282      0.131     8.5540     87.865     34.742  28.941136     2.1538      7.186   327.3249 1.6162e+02     0.6471      2.239      3.248    17.1911 0.0000e+00
      2.314      0.127     8.6159     88.278     34.738  28.854068     2.1478      7.185   327.7378 1.8097e+02     0.6179      2.268      3.290    17.0366 0.0000e+00
      2.348      0.123     8.6598     88.523     34.774  28.807969     2.2123      7.181   328.3279 1.9236e+02     0.6154      2.302      3.339    16.9017 0.0000e+00
      2.380      0.118     8.6860     88.613     34.802  28.764681     2.3361      7.175   328.2653 1.9466e+02     0.6478      2.338      3.391    16.7750 0.0000e+00
      2.407      0.109     8.7106     88.713     34.806  28.711609     2.4039      7.171   327.8413 2.0933e+02     0.6735      2.361      3.424    16.6456 0.0000e+00
      2.435      0.096     8.7356     88.837     34.819  28.674226     2.4064      7.170   327.6744 2.2501e+02     0.6512      2.384      3.458    16.5243 0.0000e+00
      2.465      0.084     8.7794     89.169     34.892  28.693628     2.3943      7.169   327.7970 2.1765e+02     0.6537      2.422      3.513    16.4124 0.0000e+00
      2.486      0.074     8.8810     90.109     34.931  28.692142     2.3764      7.164   327.9465 2.0300e+02     0.7029      2.444      3.545    16.3160 0.0000e+00
      2.495      0.065     9.0267     91.508     34.846  28.592717     2.3649      7.162   328.6229 1.9411e+02     0.7273      2.447      3.549    16.2393 0.0000e+00
      2.503      0.055     9.1495     92.674     34.776  28.507472     2.3566      7.163   329.6079 1.9015e+02     0.7048      2.451      3.553    16.1697 0.0000e+00
      2.519      0.046     9.2200     93.312     34.784  28.486941     2.3496      7.165   329.6164 2.0473e+02     0.6757      2.470      3.581    16.1092 0.0000e+00
      2.536      0.041     9.2470     93.526     34.790  28.471451     2.3538      7.167   329.2428 2.2033e+02     0.6802      2.492      3.613    16.0625 0.0000e+00
      2.546      0.036     9.2474     93.494     34.776  28.447152     2.3610      7.170   329.1341 2.1038e+02     0.6985      2.498      3.623    16.0240 0.0000e+00
      2.552      0.030     9.2292     93.292     34.783  28.447138     2.3550      7.172   328.8191 1.9764e+02     0.6830      2.502      3.630    15.9843 0.0000e+00
      2.558      0.023     9.1814     92.806     34.814  28.471278     2.3360      7.174   329.3052 2.1146e+02     0.6758      2.509      3.640    15.9411 0.0000e+00
      2.562      0.018     9.1105     92.094     34.829  28.485017     2.3242      7.174   330.8815 2.3156e+02     0.7027      2.513      3.646    15.9110 0.0000e+00
      2.566      0.020     9.0520     91.507     34.828  28.486255     2.3321      7.169   331.7034 2.1920e+02     0.7027      2.516      3.649    15.8942 0.0000e+00
      2.568      0.025     9.0381     91.370     34.826  28.486255     2.3476      7.161   331.6704 2.0366e+02     0.6764      2.518      3.652    15.8861 0.0000e+00
      2.570      0.030     9.0569     91.559     34.826  28.485015     2.3474      7.155   331.5150 2.1332e+02     0.6593      2.517      3.652    15.8858 0.0000e+00
      2.579      0.033     9.0661     91.640     34.815  28.471256     2.3107      7.154   330.8574 2.2387e+02     0.6186      2.523      3.659    15.8890 0.0000e+00
      2.597      0.034     9.0545     91.510     34.790  28.446896     2.2534      7.155   330.0869 2.2090e+02     0.5197      2.548      3.695    15.8916 0.0000e+00
      2.613      0.031     9.0485     91.448     34.788  28.444482     2.2241      7.156   330.6308 2.0870e+02     0.4401      2.567      3.724    15.8944 0.0000e+00
      2.619      0.026     9.0560     91.523     34.785  28.442068     2.2228      7.157   332.0983 2.0485e+02     0.4497      2.569      3.727    15.8954 0.0000e+00
      2.621      0.017     9.0570     91.525     34.759  28.417709     2.2286      7.159   332.7730 2.1623e+02     0.5140      2.570      3.729    15.8866 0.0000e+00
      2.622      0.009     9.0440     91.379     34.748  28.403959     2.2485      7.160   332.8518 2.3193e+02     0.5760      2.571      3.730    15.8771 0.0000e+00
      2.622      0.004     9.0243     91.173     34.750  28.402813     2.2706      7.161   332.6214 2.3980e+02     0.6505      2.571      3.729    15.8777 0.0000e+00
      2.621      0.004     9.0102     91.040     34.747  28.403845     2.2746      7.162   331.9669 2.3710e+02     0.7130      2.571      3.729    15.8812 0.0000e+00
      2.621      0.005     9.0142     91.094     34.756  28.416441     2.2880      7.162   331.9064 2.2040e+02     0.6901      2.569      3.727    15.8764 0.0000e+00
      2.622      0.007     9.0296     91.250     34.771  28.428108     2.3221      7.162   332.6650 1.9807e+02     0.6489      2.571      3.729    15.8658 0.0000e+00
      2.625      0.009     9.0446     91.392     34.763  28.417914     2.3385      7.162   333.2231 1.9967e+02     0.6423      2.574      3.733    15.8598 0.0000e+00
      2.629      0.012     9.0561     91.501     34.768  28.420182     2.3383      7.162   333.4051 2.2027e+02     0.6407      2.578      3.739    15.8674 0.0000e+00
      2.632      0.018     9.0636     91.579     34.811  28.455530     2.3384      7.159   333.6616 2.3487e+02     0.6289      2.582      3.744    15.8795 0.0000e+00
      2.635      0.028     9.0664     91.618     34.817  28.464300     2.3309      7.153   333.8303 2.3738e+02     0.6522      2.584      3.747    15.8775 0.0000e+00
      2.638      0.043     9.0644     91.595     34.737  28.399224     2.3116      7.145   333.8959 2.2944e+02     0.7083      2.588      3.752    15.8698 0.0000e+00
      2.645      0.062     9.0718     91.609     34.647  28.303702     2.2979      7.137   333.9380 2.3491e+02     0.6973      2.590      3.755    15.8659 0.0000e+00
      2.662      0.084     9.0977     91.718     34.584  28.198340     2.2947      7.129   334.1673 2.4401e+02     0.6716      2.605      3.778    15.8656 0.0000e+00
      2.692      0.105     9.1384     91.894     34.538  28.077736     2.3000      7.122   334.7755 2.2611e+02     0.6725      2.639      3.829    15.8743 0.0000e+00
      2.726      0.120     9.1868     92.115     34.543  27.988391     2.3252      7.117   335.1822 2.1022e+02     0.6476      2.673      3.877    15.8834 0.0000e+00
      2.761      0.125     9.2343     92.334     34.599  27.943458     2.3512      7.115   335.3854 2.0941e+02     0.6447      2.705      3.923    15.8614 0.0000e+00
      2.800      0.117     9.2797     92.551     34.666  27.915347     2.3568      7.116   335.5972 2.0539e+02     0.6685      2.745      3.981    15.7796 0.0000e+00
      2.840      0.100     9.3167     92.711     34.740  27.902400     2.3381      7.119   335.5927 2.0475e+02     0.6601      2.791      4.047    15.6491 0.0000e+00
      2.866      0.079     9.3297     92.676     34.825  27.913824     2.3083      7.121   334.9012 2.0770e+02     0.6345      2.819      4.087    15.5063 0.0000e+00
      2.877      0.057     9.3079     92.359     34.885  27.926410     2.2912      7.124   334.0324 2.1780e+02     0.6345      2.823      4.094    15.3748 0.0000e+00
      2.881      0.039     9.2581     91.839     34.898  27.927533     2.2876      7.127   334.1234 2.3052e+02     0.6600      2.826      4.096    15.2556 0.0000e+00
      2.884      0.028     9.1947     91.235     34.887  27.927397     2.3013      7.128   334.4523 2.2351e+02     0.6677      2.829      4.102    15.1489 0.0000e+00
      2.886      0.028     9.1260     90.594     34.865  27.924770     2.3282      7.128   334.5683 2.1131e+02     0.6359      2.831      4.106    15.0609 0.0000e+00
      2.890      0.033     9.0626     89.987     34.820  27.895790     2.3459      7.127   334.8370 2.1147e+02     0.6422      2.832      4.107    15.0078 0.0000e+00
      2.900      0.042     9.0132     89.459     34.755  27.831012     2.3509      7.126   334.2595 2.1277e+02     0.6829      2.841      4.120    15.0003 0.0000e+00
      2.916      0.052     8.9833     89.048     34.739  27.776520     2.3511      7.123   333.2647 2.1561e+02     0.6709      2.859      4.147    15.0198 0.0000e+00
      2.932      0.066     8.9771     88.793     34.787  27.744885     2.3489      7.118   333.4774 2.1508e+02     0.6490      2.877      4.172    15.0454 0.0000e+00
      2.946      0.080     8.9914     88.664     34.857  27.702423     2.3416      7.110   334.0780 2.0402e+02     0.6623      2.889      4.190    15.0664 0.0000e+00
      2.964      0.091     9.0156     88.572     34.934  27.643991     2.3361      7.102   334.3313 1.9922e+02     0.6792      2.901      4.208    15.0515 0.0000e+00
      2.990      0.100     9.0387     88.452     35.050  27.609726     2.3378      7.095   334.9053 2.0046e+02     0.6696      2.929      4.248    14.9881 0.0000e+00
      3.024      0.106     9.0563     88.308     35.191  27.605474     2.3534      7.088   335.6839 1.9570e+02     0.6686      2.967      4.303    14.8896 0.0000e+00
      3.056      0.109     9.0597     88.070     35.301  27.592450     2.3775      7.082   335.1412 1.8913e+02     0.6985      2.998      4.349    14.7469 0.0000e+00
      3.085      0.104     9.0417     87.653     35.398  27.579138     2.3915      7.077   333.5063 1.8818e+02     0.6949      3.025      4.388    14.5658 0.0000e+00
      3.112      0.094     9.0035     87.070     35.489  27.571411     2.4030      7.075   333.0378 1.8989e+02     0.6860      3.053      4.428    14.3759 0.0000e+00
      3.137      0.087     8.9470     86.361     35.555  27.562435     2.3960      7.074   333.6933 1.9013e+02     0.6818      3.079      4.465    14.2094 0.0000e+00
      3.153      0.085     8.8775     85.574     35.575  27.534035     2.3630      7.071   334.5486 1.8785e+02     0.6448      3.095      4.488    14.0746 0.0000e+00
      3.165      0.088     8.8020     84.732     35.564  27.481971     2.3430      7.066   335.6357 1.8130e+02     0.6346      3.102      4.499    13.9494 0.0000e+00
      3.183      0.096     8.7267     83.863     35.583  27.440867     2.3383      7.061   336.6845 1.7523e+02     0.6501      3.116      4.520    13.8324 0.0000e+00
      3.212      0.107     8.6535     82.988     35.639  27.417985     2.2973      7.056   336.8189 1.7524e+02     0.6500      3.148      4.565    13.7463 0.0000e+00
      3.246      0.118     8.5825     82.115     35.708  27.395725     2.2143      7.053   335.9699 1.7521e+02     0.6327      3.185      4.619    13.6962 0.0000e+00
      3.279      0.126     8.5146     81.259     35.770  27.362128     2.1622      7.051   335.3679 1.6884e+02     0.5947      3.215      4.662    13.6438 0.0000e+00
      3.315      0.129     8.4508     80.448     35.832  27.329168     2.1551      7.048   335.5620 1.6591e+02     0.5867      3.250      4.713    13.5603 0.0000e+00
      3.352      0.127     8.3976     79.743     35.918  27.314601     2.1546      7.041   336.0803 1.6687e+02     0.6277      3.290      4.770    13.4682 0.0000e+00
      3.384      0.123     8.3549     79.130     36.027  27.312916     2.1477      7.035   336.4725 1.6328e+02     0.6313      3.321      4.815    13.3631 0.0000e+00
      3.412      0.120     8.3172     78.549     36.143  27.308694     2.1359      7.029   336.8616 1.5784e+02     0.5998      3.346      4.852    13.2417 0.0000e+00
      3.439      0.119     8.2828     77.982     36.300  27.326950     2.1321      7.023   337.1712 1.5099e+02     0.6141      3.372      4.891    13.1305 0.0000e+00
      3.468      0.119     8.2490     77.419     36.458  27.343030     2.1108      7.016   337.1185 1.4763e+02     0.6815      3.401      4.934    13.0223 0.0000e+00
      3.497      0.122     8.2149     76.854     36.554  27.312519     2.0531      7.009   337.0846 1.5184e+02     0.7125      3.430      4.973    12.9075 0.0000e+00
      3.529      0.124     8.1790     76.264     36.649  27.275419     2.0131      7.003   337.1921 1.5165e+02     0.6540      3.458      5.015    12.7807 0.0000e+00
      3.564      0.125     8.1346     75.593     36.797  27.275326     2.0130      6.998   337.2138 1.4382e+02     0.6146      3.495      5.070    12.6367 0.0000e+00
      3.599      0.124     8.0736     74.804     36.975  27.311267     2.0146      6.993   337.3468 1.3908e+02     0.6632      3.530      5.120    12.4965 0.0000e+00
      3.631      0.123     7.9962     73.920     37.098  27.328877     1.9958      6.988   338.2839 1.3537e+02     0.6927      3.562      5.166    12.3598 0.0000e+00
      3.661      0.122     7.9135     73.002     37.148  27.297678     1.9701      6.980   339.5969 1.2929e+02     0.6665      3.592      5.209    12.2115 0.0000e+00
      3.689      0.122     7.8341     72.080     37.202  27.251468     1.9604      6.973   339.8854 1.2759e+02     0.6510      3.617      5.246    12.0533 0.0000e+00
      3.718      0.123     7.7592     71.157     37.297  27.214549     1.9616      6.966   339.6219 1.3009e+02     0.6582      3.644      5.285    11.9134 0.0000e+00
      3.749      0.124     7.6847     70.222     37.395  27.168661     1.9482      6.960   339.6797 1.3111e+02     0.7233      3.675      5.330    11.8286 0.0000e+00
      3.784      0.124     7.6096     69.288     37.517  27.141006     1.9088      6.954   339.6381 1.2876e+02     0.7973      3.710      5.381    11.7511 0.0000e+00
      3.819      0.123     7.5386     68.409     37.748  27.197526     1.8804      6.948   339.6344 1.2398e+02     0.8205      3.746      5.434    11.6348 0.0000e+00
      3.852      0.122     7.4698     67.575     38.004  27.280441     1.8797      6.941   340.9261 1.1829e+02     0.8505      3.780      5.482    11.4866 0.0000e+00
      3.882      0.123     7.3997     66.754     38.094  27.254450     1.8268      6.930   342.9530 1.1501e+02     0.8248      3.808      5.524    11.3228 0.0000e+00
      3.908      0.127     7.3330     65.975     38.053  27.137160     1.7192      6.919   343.8355 1.1644e+02     0.7229      3.831      5.558    11.1666 0.0000e+00
      3.934      0.132     7.2735     65.252     38.090  27.068672     1.6541      6.909   343.8528 1.1867e+02     0.6562      3.854      5.590    11.0186 0.0000e+00
      3.969      0.137     7.2215     64.579     38.226  27.061251     1.6284      6.900   343.5063 1.1499e+02     0.6597      3.888      5.641    10.8842 0.0000e+00
      4.011      0.142     7.1840     64.024     38.365  27.047322     1.5644      6.894   342.8300 1.0632e+02     0.7042      3.934      5.706    10.7670 0.0000e+00
      4.054      0.141     7.1591     63.576     38.500  27.027131     1.4592      6.889   343.3327 9.9908e+01     0.7365      3.977      5.768    10.6577 0.0000e+00
      4.094      0.134     7.1391     63.180     38.634  27.007493     1.3949      6.886   345.1105 9.8429e+01     0.7135      4.015      5.824    10.5367 0.0000e+00
      4.129      0.123     7.1249     62.869     38.761  27.000263     1.3759      6.881   346.1716 9.8461e+01     0.6403      4.050      5.875    10.3968 0.0000e+00
      4.158      0.112     7.1146     62.657     38.856  27.003104     1.3208      6.876   346.4396 9.8940e+01     0.6149      4.081      5.919    10.2501 0.0000e+00
      4.180      0.106     7.1104     62.557     38.868  26.978275     1.2340      6.870   346.6296 9.9739e+01     0.6509      4.100      5.948    10.0978 0.0000e+00
      4.198      0.103     7.1228     62.612     38.874  26.954013     1.1907      6.862   346.4044 9.7967e+01     0.6471      4.114      5.968     9.9441 0.0000e+00
      4.221      0.103     7.1633     62.892     38.945  26.963715     1.1822      6.855   345.9542 9.4427e+01     0.6303      4.136      5.999     9.8101 0.0000e+00
      4.251      0.104     7.2349     63.428     39.021  26.968548     1.1772      6.850   346.1758 9.1560e+01     0.6310      4.166      6.043     9.7284 0.0000e+00
      4.285      0.107     7.3284     64.153     39.063  26.948908     1.1950      6.845   347.1043 9.0001e+01     0.6258      4.203      6.096     9.7013 0.0000e+00
      4.315      0.109     7.4408     65.045     39.082  26.916690     1.2317      6.839   347.7159 8.8871e+01     0.6585      4.236      6.144     9.6750 0.0000e+00
      4.340      0.109     7.5684     66.080     39.111  26.896448     1.2529      6.833   347.8934 8.7476e+01     0.7212      4.256      6.173     9.6188 0.0000e+00
      4.363      0.108     7.7041     67.200     39.155  26.894606     1.2497      6.828   348.1319 8.6994e+01     0.7127      4.276      6.201     9.5543 0.0000e+00
      4.389      0.106     7.8461     68.390     39.189  26.894389     1.2203      6.824   348.2764 8.5984e+01     0.6468      4.304      6.242     9.4907 0.0000e+00
      4.419      0.105     7.9900     69.605     39.215  26.893804     1.1647      6.821   348.2634 8.3313e+01     0.6264      4.334      6.285     9.4310 0.0000e+00
      4.448      0.105     8.1305     70.790     39.232  26.887505     1.1281      6.818   347.9755 8.0706e+01     0.6487      4.362      6.326     9.3788 0.0000e+00
      4.475      0.105     8.2672     71.940     39.250  26.881716     1.1183      6.813   347.7210 7.9082e+01     0.6730      4.390      6.367     9.3369 0.0000e+00
      4.500      0.106     8.4008     73.067     39.282  26.887281     1.0550      6.807   348.1974 7.8296e+01     0.6759      4.413      6.402     9.3091 0.0000e+00
      4.525      0.109     8.5264     74.135     39.304  26.891280     0.9327      6.800   348.7444 7.6982e+01     0.6530      4.435      6.433     9.2878 0.0000e+00
      4.550      0.110     8.6369     75.082     39.277  26.866553     0.8627      6.795   349.0004 7.4762e+01     0.6404      4.461      6.470     9.2657 0.0000e+00
      4.580      0.109     8.7332     75.910     39.247  26.842300     0.8510      6.792   349.4003 7.2709e+01     0.6450      4.491      6.512     9.2406 0.0000e+00
      4.613      0.108     8.8172     76.632     39.267  26.852019     0.8099      6.789   349.6208 7.1697e+01     0.6480      4.524      6.562     9.2184 0.0000e+00
      4.645      0.105     8.8877     77.237     39.279  26.857067     0.7330      6.786   348.8287 7.1754e+01     0.6463      4.558      6.611     9.2054 0.0000e+00
      4.670      0.102     8.9438     77.719     39.257  26.839836     0.6934      6.785   347.5667 7.1309e+01     0.6252      4.582      6.645     9.1989 0.0000e+00
      4.691      0.098     8.9834     78.059     39.251  26.834166     0.6985      6.782   347.4397 6.9310e+01     0.6061      4.599      6.670     9.1939 0.0000e+00
      4.711      0.094     9.0065     78.259     39.277  26.852009     0.6938      6.778   347.8945 6.6897e+01     0.6289      4.618      6.698     9.1898 0.0000e+00
      4.735      0.092     9.0166     78.346     39.297  26.865078     0.6547      6.776   348.0755 6.5541e+01     0.6868      4.642      6.733     9.1856 0.0000e+00
      4.762      0.092     9.0166     78.346     39.297  26.865183     0.5932      6.772   348.5960 6.4954e+01     0.7269      4.670      6.774     9.1822 0.0000e+00
      4.787      0.092     9.0101     78.290     39.280  26.853279     0.5576      6.767   349.5416 6.4983e+01     0.6868      4.696      6.811     9.1807 0.0000e+00
      4.808      0.093     9.0033     78.229     39.274  26.848145     0.5549      6.760   349.3558 6.4965e+01     0.6281      4.715      6.838     9.1801 0.0000e+00
      4.830      0.096     8.9993     78.189     39.304  26.866609     0.5598      6.753   347.8128 6.3694e+01     0.6275      4.735      6.868     9.1797 0.0000e+00
      4.853      0.099     8.9936     78.137     39.334  26.886027     0.5613      6.747   347.0606 6.2096e+01     0.6492      4.761      6.904     9.1796 0.0000e+00
      4.877      0.103     8.9828     78.047     39.340  26.892434     0.5556      6.741   347.4883 6.0724e+01     0.6466      4.780      6.932     9.1805 0.0000e+00
      4.906      0.109     8.9690     77.936     39.317  26.880577     0.5550      6.734   348.5099 5.9094e+01     0.6256      4.808      6.975     9.1795 0.0000e+00
      4.938      0.118     8.9516     77.794     39.296  26.869657     0.5539      6.726   349.6899 5.7606e+01     0.6702      4.846      7.030     9.1758 0.0000e+00
      4.965      0.128     8.9298     77.610     39.319  26.887410     0.5331      6.717   349.7104 5.6547e+01     0.7901      4.869      7.063     9.1733 0.0000e+00
      4.993      0.137     8.9064     77.408     39.343  26.904727     0.5054      6.709   348.5864 5.5211e+01     0.8849      4.891      7.094     9.1762 0.0000e+00
      5.031      0.143     8.8832     77.208     39.319  26.888544     0.4952      6.703   347.8004 5.3603e+01     0.9004      4.931      7.152     9.1823 0.0000e+00
      5.074      0.145     8.8632     77.034     39.310  26.882237     0.5012      6.700   347.6922 5.2028e+01     0.8861      4.977      7.218     9.1873 0.0000e+00
      5.117      0.144     8.8492     76.910     39.326  26.891966     0.5045      6.699   347.7083 5.0333e+01     0.8955      5.019      7.280     9.1902 0.0000e+00
      5.157      0.137     8.8409     76.835     39.309  26.879182     0.4990      6.698   347.8227 4.8828e+01     0.8911      5.060      7.338     9.1900 0.0000e+00
      5.191      0.126     8.8343     76.773     39.275  26.854656     0.4898      6.697   348.2155 4.7720e+01     0.8645      5.092      7.386     9.1905 0.0000e+00
      5.220      0.115     8.8301     76.731     39.272  26.849407     0.4850      6.696   348.6715 4.6950e+01     0.8485      5.121      7.427     9.1912 0.0000e+00
      5.244      0.106     8.8277     76.706     39.317  26.879214     0.4869      6.695   348.6902 4.6301e+01     0.8503      5.145      7.461     9.1891 0.0000e+00
      5.265      0.098     8.8235     76.670     39.343  26.897562     0.4946      6.693   348.2701 4.5681e+01     0.8556      5.163      7.488     9.1885 0.0000e+00
      5.289      0.090     8.8209     76.648     39.318  26.880760     0.5047      6.693   348.0660 4.4920e+01     0.8512      5.185      7.521     9.1868 0.0000e+00
      5.316      0.080     8.8234     76.665     39.301  26.866558     0.4988      6.692   348.1143 4.3983e+01     0.8284      5.214      7.563     9.1813 0.0000e+00
      5.341      0.074     8.8293     76.703     39.290  26.852829     0.4788      6.690   348.3387 4.3168e+01     0.8236      5.241      7.602     9.1793 0.0000e+00
      5.358      0.073     8.8342     76.730     39.283  26.841759     0.4553      6.684   348.8865 4.2673e+01     0.8544      5.258      7.625     9.1807 0.0000e+00
      5.368      0.074     8.8379     76.755     39.314  26.859696     0.4353      6.676   349.9190 4.2489e+01     0.8652      5.266      7.637     9.1819 0.0000e+00
      5.375      0.074     8.8434     76.802     39.343  26.879208     0.4289      6.670   351.1006 4.2159e+01     0.8620      5.268      7.640     9.1805 0.0000e+00
      5.395      0.072     8.8517     76.875     39.354  26.887184     0.4429      6.670   351.2133 4.1364e+01     0.8462      5.282      7.659     9.1713 0.0000e+00
      5.429      0.068     8.8613     76.956     39.363  26.892641     0.4755      6.671   350.6793 4.0474e+01     0.8268      5.327      7.727     9.1609 0.0000e+00
      5.458      0.063     8.8700     77.031     39.348  26.881682     0.5016      6.671   350.3226 4.0045e+01     0.8418      5.362      7.778     9.1564 0.0000e+00
      5.471      0.057     8.8773     77.100     39.344  26.881683     0.5106      6.671   349.9116 3.9978e+01     0.8448      5.367      7.784     9.1582 0.0000e+00
      5.474      0.050     8.8816     77.151     39.351  26.892650     0.5023      6.671   349.7546 3.9884e+01     0.8313      5.368      7.786     9.1604 0.0000e+00
      5.476      0.045     8.8825     77.176     39.332  26.887297     0.4737      6.670   350.6614 3.9799e+01     0.8313      5.369      7.787     9.1573 0.0000e+00
      5.483      0.049     8.8806     77.171     39.315  26.880465     0.4498      6.667   352.0997 3.9602e+01     0.8456      5.372      7.791     9.1556 0.0000e+00
      5.498      0.063     8.8748     77.125     39.303  26.873546     0.4430      6.662   352.6047 3.9153e+01     0.8819      5.393      7.821     9.1591 0.0000e+00
      5.518      0.079     8.8641     77.034     39.293  26.867145     0.4565      6.659   352.5506 3.8703e+01     0.9036      5.413      7.852     9.1667 0.0000e+00
      5.539      0.094     8.8540     76.939     39.295  26.866568     0.4840      6.656   352.4786 3.8122e+01     0.8941      5.426      7.871     9.1793 0.0000e+00
      5.568      0.104     8.8495     76.889     39.303  26.866558     0.5003      6.653   351.9057 3.7407e+01     0.8891      5.460      7.920     9.1856 0.0000e+00
      5.600      0.108     8.8496     76.882     39.308  26.867022     0.5061      6.652   351.2157 3.6866e+01     0.8742      5.494      7.969     9.1845 0.0000e+00
      5.630      0.109     8.8541     76.914     39.320  26.872175     0.5174      6.649   351.7938 3.6336e+01     0.8363      5.519      8.004     9.1886 0.0000e+00
      5.661      0.111     8.8642     76.991     39.317  26.865353     0.5361      6.644   353.3887 3.5861e+01     0.8269      5.554      8.055     9.1855 0.0000e+00
      5.687      0.116     8.8774     77.101     39.294  26.848035     0.5480      6.639   354.3239 3.5696e+01     0.8517      5.583      8.098     9.1744 0.0000e+00
      5.707      0.121     8.8886     77.203     39.299  26.853278     0.5514      6.635   354.4979 3.5477e+01     0.8615      5.594      8.114     9.1727 0.0000e+00
      5.733      0.126     8.8978     77.285     39.315  26.865248     0.5498      6.632   354.2027 3.4772e+01     0.8537      5.616      8.144     9.1708 0.0000e+00
      5.774      0.128     8.9048     77.343     39.318  26.865768     0.5194      6.630   353.5934 3.3906e+01     0.8497      5.663      8.212     9.1614 0.0000e+00
      5.817      0.130     8.9050     77.338     39.313  26.859560     0.4679      6.630   353.4118 3.3208e+01     0.8438      5.707      8.278     9.1578 0.0000e+00
      5.855      0.131     8.9018     77.301     39.310  26.853683     0.4414      6.628   353.7278 3.2586e+01     0.8434      5.743      8.331     9.1640 0.0000e+00
      5.885      0.128     8.8995     77.274     39.321  26.858198     0.4383      6.626   353.9731 3.2034e+01     0.8447      5.775      8.378     9.1654 0.0000e+00
      5.909      0.119     8.8964     77.248     39.309  26.850650     0.4580      6.624   353.9680 3.1514e+01     0.8285      5.793      8.402     9.1623 0.0000e+00
      5.937      0.109     8.8945     77.231     39.274  26.825923     0.4875      6.624   353.9243 3.0954e+01     0.8309      5.818      8.437     9.1605 0.0000e+00
      5.972      0.101     8.8950     77.229     39.260  26.813215     0.4925      6.625   353.9604 3.0409e+01     0.8741      5.859      8.498     9.1530 0.0000e+00
      6.002      0.096     8.8959     77.228     39.280  26.823992     0.4899      6.625   353.8879 3.0049e+01     0.8929      5.892      8.544     9.1478 0.0000e+00
      6.022      0.091     8.8941     77.212     39.287  26.829230     0.4933      6.626   353.2207 2.9855e+01     0.8749      5.906      8.566     9.1510 0.0000e+00
      6.038      0.086     8.8886     77.169     39.261  26.813047     0.4968      6.627   352.4325 2.9604e+01     0.8399      5.918      8.584     9.1524 0.0000e+00
      6.058      0.084     8.8826     77.119     39.267  26.818819     0.4943      6.629   352.4459 2.9308e+01     0.8056      5.940      8.615     9.1469 0.0000e+00
      6.080      0.088     8.8787     77.085     39.292  26.835517     0.4914      6.629   352.7796 2.9019e+01     0.8254      5.963      8.648     9.1399 0.0000e+00
      6.100      0.094     8.8772     77.074     39.276  26.824455     0.4889      6.627   353.1114 2.8666e+01     0.8350      5.981      8.675     9.1408 0.0000e+00
      6.123      0.100     8.8777     77.082     39.256  26.812069     0.4821      6.623   353.5332 2.8205e+01     0.8000      6.003      8.706     9.1459 0.0000e+00
      6.153      0.103     8.8821     77.118     39.258  26.812750     0.4836      6.620   353.6632 2.7660e+01     0.7987      6.032      8.749     9.1470 0.0000e+00
      6.184      0.103     8.8926     77.206     39.290  26.832684     0.4884      6.620   353.0489 2.7075e+01     0.8499      6.067      8.800     9.1455 0.0000e+00
      6.212      0.101     8.9075     77.331     39.336  26.862597     0.4939      6.620   352.0415 2.6538e+01     0.9314      6.093      8.837     9.1459 0.0000e+00
      6.236      0.097     8.9210     77.442     39.330  26.856937     0.5037      6.619   351.7217 2.6101e+01     0.9914      6.116      8.871     9.1499 0.0000e+00
      6.260      0.093     8.9291     77.510     39.290  26.827740     0.5059      6.617   352.1075 2.5765e+01     1.0253      6.140      8.905     9.1480 0.0000e+00
      6.281      0.092     8.9336     77.549     39.289  26.827069     0.5026      6.615   352.7487 2.5552e+01     1.0673      6.161      8.935     9.1450 0.0000e+00
      6.301      0.094     8.9365     77.578     39.318  26.848814     0.5011      6.610   353.1932 2.5350e+01     1.0709      6.180      8.963     9.1438 0.0000e+00
      6.323      0.096     8.9370     77.587     39.298  26.836674     0.4961      6.606   353.1796 2.5030e+01     1.0081      6.199      8.991     9.1402 0.0000e+00
      6.349      0.096     8.9344     77.567     39.253  26.807277     0.4890      6.604   352.7566 2.4622e+01     0.9182      6.225      9.028     9.1383 0.0000e+00
      6.379      0.093     8.9294     77.518     39.261  26.810863     0.4887      6.604   352.1226 2.4215e+01     0.8690      6.256      9.075     9.1378 0.0000e+00
      6.409      0.089     8.9224     77.449     39.275  26.816541     0.4920      6.604   351.8813 2.3865e+01     0.8707      6.288      9.119     9.1406 0.0000e+00
      6.432      0.085     8.9154     77.381     39.273  26.812425     0.4921      6.602   351.9033 2.3605e+01     0.8782      6.310      9.152     9.1441 0.0000e+00
      6.447      0.083     8.9089     77.323     39.292  26.824593     0.4905      6.599   351.9591 2.3445e+01     0.8679      6.323      9.172     9.1462 0.0000e+00
      6.460      0.082     8.8993     77.245     39.306  26.836667     0.4909      6.596   352.4702 2.3242e+01     0.8379      6.334      9.186     9.1427 0.0000e+00
      6.477      0.085     8.8904     77.175     39.294  26.831416     0.4877      6.592   353.1784 2.2800e+01     0.8199      6.347      9.205     9.1368 0.0000e+00
      6.503      0.090     8.8881     77.155     39.285  26.824593     0.4880      6.587   353.3808 2.2263e+01     0.8339      6.377      9.251     9.1329 0.0000e+00
      6.531      0.092     8.8891     77.161     39.276  26.817675     0.4952      6.584   353.0246 2.1915e+01     0.8543      6.407      9.294     9.1296 0.0000e+00
      6.557      0.088     8.8917     77.181     39.269  26.811275     0.5014      6.586   352.4849 2.1594e+01     0.8536      6.425      9.320     9.1356 0.0000e+00
      6.586      0.077     8.8955     77.207     39.272  26.810699     0.5164      6.589   352.1896 2.1278e+01     0.8858      6.460      9.369     9.1420 0.0000e+00
      6.610      0.061     8.9006     77.245     39.276  26.810709     0.5668      6.591   352.1218 2.1187e+01     1.0912      6.489      9.411     9.1388 0.0000e+00
      6.621      0.045     8.9094     77.320     39.278  26.811389     0.6238      6.594   352.0953 2.1147e+01     1.3231      6.494      9.419     9.1378 0.0000e+00
      6.624      0.033     8.9202     77.420     39.285  26.818925     0.6261      6.596   352.4719 2.1062e+01     1.3090      6.495      9.421     9.1374 0.0000e+00
      6.625      0.028     8.9286     77.505     39.305  26.838333     0.6130      6.595   353.1470 2.1009e+01     1.2265      6.497      9.423     9.1323 0.0000e+00
      6.625      0.031     8.9309     77.539     39.322  26.855555     0.6404      6.592   353.3748 2.0945e+01     1.3028      6.497      9.424     9.1283 0.0000e+00
      6.629      0.038     8.9283     77.526     39.289  26.836674     0.6909      6.592   353.1604 2.0820e+01     1.3768      6.498      9.424     9.1270 0.0000e+00
      6.642      0.044     8.9254     77.503     39.234  26.800536     0.6900      6.592   352.9641 2.0565e+01     1.3274      6.506      9.437     9.1303 0.0000e+00
      6.665      0.046     8.9216     77.468     39.234  26.799601     0.6389      6.592   352.8086 2.0277e+01     1.3158      6.537      9.481     9.1385 0.0000e+00
      6.686      0.043     8.9138     77.395     39.274  26.825368     0.6158      6.593   352.5706 2.0191e+01     1.3277      6.563      9.518     9.1475 0.0000e+00
      6.695      0.035     8.9065     77.330     39.324  26.858096     0.6209      6.593   352.8405 2.0230e+01     1.3488      6.567      9.525     9.1530 0.0000e+00
      6.698      0.023     8.9035     77.307     39.351  26.877816     0.6278      6.594   353.5761 2.0234e+01     1.3881      6.569      9.527     9.1536 0.0000e+00
      6.699      0.012     8.9027     77.309     39.339  26.873321     0.6070      6.596   353.7215 2.0229e+01     1.3151      6.570      9.529     9.1514 0.0000e+00
      6.699      0.004     8.9030     77.325     39.322  26.867243     0.5721      6.598   353.4798 2.0226e+01     1.3198      6.570      9.528     9.1488 0.0000e+00
      6.698      0.002     8.9034     77.345     39.312  26.867830     0.5821      6.599   353.2355 2.0225e+01     1.5072      6.569      9.527     9.1463 0.0000e+00
      6.698      0.004     8.9050     77.377     39.319  26.880424     0.5899      6.599   353.1767 2.0229e+01     1.5963      6.569      9.527     9.1474 0.0000e+00
      6.699      0.012     8.9084     77.427     39.324  26.892527     0.5554      6.596   353.6295 2.0224e+01     1.5121      6.570      9.528     9.1527 0.0000e+00
      6.699      0.027     8.9109     77.469     39.304  26.887183     0.5421      6.590   354.3222 2.0190e+01     1.4660      6.570      9.530     9.1608 0.0000e+00
      6.701      0.042     8.9111     77.483     39.285  26.879320     0.5853      6.584   355.0132 2.0077e+01     1.5277      6.569      9.528     9.1701 0.0000e+00
      6.711      0.053     8.9167     77.530     39.259  26.860953     0.6554      6.582   355.3577 1.9787e+01     1.5864      6.574      9.535     9.1796 0.0000e+00
      6.737      0.059     8.9247     77.591     39.257  26.855603     0.6721      6.582   355.2186 1.9347e+01     1.5038      6.604      9.579     9.1909 0.0000e+00
      6.767      0.063     8.9258     77.592     39.295  26.878125     0.6314      6.582   354.9653 1.9065e+01     1.3228      6.643      9.634     9.2036 0.0000e+00
      6.786      0.068     8.9268     77.594     39.300  26.879267     0.6140      6.580   354.9625 1.9010e+01     1.2898      6.659      9.659     9.2120 0.0000e+00
      6.792      0.070     8.9215     77.549     39.286  26.869417     0.6087      6.578   355.0133 1.8934e+01     1.3498      6.661      9.661     9.2094 0.0000e+00
      6.799      0.069     8.9160     77.502     39.310  26.886017     0.5945      6.577   354.9764 1.8722e+01     1.3162      6.662      9.663     9.2026 0.0000e+00
      6.816      0.067     8.9251     77.572     39.320  26.889492     0.5892      6.577   355.2049 1.8395e+01     1.2798      6.677      9.686     9.1974 0.0000e+00
      6.846      0.067     8.9354     77.642     39.271  26.847923     0.5908      6.578   355.6259 1.8131e+01     1.3370      6.714      9.739     9.1935 0.0000e+00
      6.873      0.067     8.9377     77.646     39.252  26.827880     0.6139      6.580   355.8507 1.8087e+01     1.4581      6.746      9.785     9.1945 0.0000e+00
      6.888      0.065     8.9377     77.639     39.270  26.837646     0.6114      6.582   355.8583 1.8103e+01     1.4625      6.757      9.800     9.1984 0.0000e+00
      6.895      0.062     8.9390     77.649     39.274  26.839007     0.5609      6.582   355.7176 1.7983e+01     1.3286      6.759      9.804     9.1934 0.0000e+00
      6.904      0.062     8.9410     77.662     39.284  26.844335     0.5360      6.583   355.2675 1.7752e+01     1.2742      6.768      9.817     9.1797 0.0000e+00
      6.919      0.065     8.9359     77.610     39.280  26.838561     0.5773      6.584   354.6320 1.7513e+01     1.4144      6.784      9.839     9.1687 0.0000e+00
      6.937      0.071     8.9183     77.448     39.277  26.832684     0.6555      6.584   354.5737 1.7268e+01     1.6506      6.801      9.864     9.1671 0.0000e+00
      6.960      0.078     8.9007     77.285     39.289  26.836778     0.6825      6.583   355.1644 1.7006e+01     1.6883      6.825      9.899     9.1685 0.0000e+00
      6.985      0.087     8.8925     77.204     39.278  26.824551     0.6463      6.580   355.6656 1.6808e+01     1.5348      6.853      9.939     9.1646 0.0000e+00
      7.005      0.097     8.8873     77.149     39.265  26.811844     0.6404      6.576   356.3317 1.6617e+01     1.4729      6.871      9.966     9.1608 0.0000e+00
      7.024      0.109     8.8819     77.094     39.267  26.810121     0.6759      6.569   357.0233 1.6298e+01     1.4591      6.883      9.982     9.1569 0.0000e+00
      7.051      0.120     8.8771     77.046     39.262  26.803719     0.6986      6.561   356.6287 1.5900e+01     1.4288      6.912     10.025     9.1502 0.0000e+00
      7.086      0.126     8.8720     77.001     39.254  26.797929     0.6847      6.556   355.6901 1.5516e+01     1.4109      6.948     10.077     9.1443 0.0000e+00
      7.126      0.126     8.8693     76.977     39.262  26.803606     0.6461      6.554   355.3111 1.5146e+01     1.3954      6.984     10.130     9.1405 0.0000e+00
      7.169      0.117     8.8679     76.965     39.270  26.808862     0.6449      6.554   355.1445 1.4831e+01     1.4554      7.032     10.200     9.1354 0.0000e+00
      7.205      0.101     8.8637     76.928     39.255  26.797991     0.6791      6.555   355.1385 1.4656e+01     1.4649      7.072     10.257     9.1306 0.0000e+00
      7.226      0.081     8.8575     76.874     39.256  26.799154     0.6738      6.557   355.4964 1.4581e+01     1.3582      7.090     10.283     9.1309 0.0000e+00
      7.236      0.063     8.8511     76.817     39.292  26.822926     0.6553      6.559   355.6858 1.4514e+01     1.3552      7.096     10.293     9.1329 0.0000e+00
      7.243      0.051     8.8462     76.771     39.307  26.831418     0.6757      6.561   355.1050 1.4448e+01     1.4902      7.103     10.303     9.1316 0.0000e+00
      7.249      0.049     8.8423     76.737     39.318  26.838335     0.6996      6.564   354.0669 1.4371e+01     1.5559      7.109     10.311     9.1302 0.0000e+00
      7.258      0.054     8.8406     76.723     39.324  26.843067     0.6867      6.566   353.5446 1.4238e+01     1.4478      7.114     10.319     9.1321 0.0000e+00
      7.273      0.063     8.8416     76.733     39.297  26.825130     0.6489      6.566   353.5218 1.4061e+01     1.2808      7.130     10.341     9.1311 0.0000e+00
      7.293      0.073     8.8432     76.744     39.279  26.811960     0.6470      6.566   353.7918 1.3838e+01     1.3077      7.152     10.372     9.1275 0.0000e+00
      7.317      0.082     8.8467     76.769     39.281  26.810814     0.6816      6.567   354.3139 1.3607e+01     1.4676      7.176     10.407     9.1273 0.0000e+00
      7.340      0.089     8.8524     76.814     39.285  26.811278     0.6819      6.568   354.5855 1.3441e+01     1.4441      7.199     10.441     9.1289 0.0000e+00
      7.361      0.092     8.8588     76.868     39.295  26.817566     0.6407      6.566   354.3229 1.3287e+01     1.2991      7.218     10.468     9.1301 0.0000e+00
      7.385      0.095     8.8656     76.926     39.304  26.823338     0.6156      6.564   353.8925 1.3090e+01     1.2705      7.240     10.501     9.1287 0.0000e+00
      7.410      0.098     8.8715     76.975     39.297  26.817565     0.6359      6.561   353.7700 1.2879e+01     1.3724      7.268     10.542     9.1244 0.0000e+00
      7.434      0.102     8.8745     77.002     39.287  26.811269     0.6740      6.557   353.8733 1.2699e+01     1.4932      7.291     10.575     9.1213 0.0000e+00
      7.458      0.103     8.8762     77.020     39.283  26.810711     0.6816      6.556   354.1096 1.2513e+01     1.4806      7.312     10.605     9.1214 0.0000e+00
      7.487      0.102     8.8780     77.036     39.283  26.810825     0.6729      6.556   354.3906 1.2280e+01     1.4032      7.341     10.647     9.1213 0.0000e+00
      7.518      0.101     8.8765     77.021     39.288  26.812642     0.6883      6.556   354.6896 1.2059e+01     1.4426      7.376     10.698     9.1198 0.0000e+00
      7.545      0.101     8.8702     76.962     39.319  26.832679     0.7019      6.554   355.1434 1.1884e+01     1.4989      7.402     10.736     9.1194 0.0000e+00
      7.567      0.102     8.8597     76.870     39.364  26.862591     0.7001      6.551   355.3165 1.1720e+01     1.4737      7.420     10.762     9.1226 0.0000e+00
      7.588      0.103     8.8482     76.771     39.355  26.856818     0.6753      6.548   355.0623 1.1552e+01     1.3817      7.440     10.789     9.1244 0.0000e+00
      7.613      0.104     8.8428     76.725     39.310  26.826377     0.6498      6.547   354.9087 1.1373e+01     1.3627      7.463     10.824     9.1214 0.0000e+00
      7.643      0.107     8.8454     76.747     39.289  26.812013     0.6680      6.546   354.8363 1.1157e+01     1.4886      7.495     10.870     9.1185 0.0000e+00
      7.675      0.109     8.8537     76.818     39.288  26.810140     0.6654      6.545   354.7892 1.0943e+01     1.5005      7.529     10.919     9.1175 0.0000e+00
      7.704      0.110     8.8677     76.938     39.279  26.803735     0.6182      6.544   355.1996 1.0774e+01     1.3530      7.556     10.959     9.1188 0.0000e+00
      7.730      0.109     8.8870     77.104     39.272  26.798055     0.5936      6.542   355.7545 1.0613e+01     1.2618      7.580     10.994     9.1199 0.0000e+00
      7.756      0.107     8.9084     77.288     39.283  26.804972     0.6161      6.542   355.8200 1.0445e+01     1.3136      7.606     11.032     9.1196 0.0000e+00
      7.784      0.106     8.9224     77.408     39.311  26.823864     0.6609      6.542   355.7332 1.0285e+01     1.4605      7.634     11.072     9.1183 0.0000e+00
      7.811      0.107     8.9244     77.428     39.327  26.835986     0.6661      6.541   355.8237 1.0115e+01     1.4817      7.660     11.109     9.1167 0.0000e+00
      7.837      0.109     8.9199     77.391     39.310  26.824545     0.6341      6.538   355.8820 9.9260e+00     1.4169      7.684     11.146     9.1164 0.0000e+00
      7.865      0.113     8.9129     77.329     39.292  26.812528     0.6410      6.534   355.9217 9.7510e+00     1.4704      7.713     11.187     9.1154 0.0000e+00
      7.893      0.117     8.9053     77.263     39.300  26.817681     0.6847      6.532   356.3036 9.5901e+00     1.5193      7.740     11.226     9.1151 0.0000e+00
      7.923      0.120     8.8978     77.198     39.308  26.823349     0.6845      6.530   356.8851 9.4081e+00     1.4586      7.768     11.266     9.1170 0.0000e+00
      7.956      0.121     8.8918     77.144     39.301  26.817568     0.6391      6.530   357.1884 9.2098e+00     1.3468      7.802     11.316     9.1179 0.0000e+00
      7.990      0.121     8.8874     77.103     39.294  26.811272     0.6320      6.530   357.3034 9.0365e+00     1.3570      7.837     11.367     9.1173 0.0000e+00
      8.022      0.121     8.8824     77.058     39.294  26.810712     0.6730      6.529   357.2434 8.8770e+00     1.4902      7.867     11.410     9.1172 0.0000e+00
      8.051      0.122     8.8779     77.017     39.294  26.810806     0.6934      6.526   357.0650 8.7117e+00     1.4933      7.896     11.452     9.1178 0.0000e+00
      8.079      0.122     8.8736     76.982     39.296  26.812415     0.6671      6.525   357.0395 8.5562e+00     1.3638      7.922     11.491     9.1154 0.0000e+00
      8.108      0.122     8.8693     76.946     39.321  26.830162     0.6302      6.525   357.1934 8.3640e+00     1.2968      7.949     11.528     9.1142 0.0000e+00
      8.141      0.122     8.8670     76.924     39.329  26.834885     0.6339      6.524   357.5484 8.1576e+00     1.3863      7.984     11.580     9.1139 0.0000e+00
      8.176      0.123     8.8669     76.922     39.288  26.806022     0.6752      6.523   357.8913 8.0056e+00     1.5294      8.020     11.632     9.1120 0.0000e+00
      8.208      0.126     8.8675     76.927     39.278  26.798666     0.6785      6.522   358.0693 7.8777e+00     1.5016      8.050     11.675     9.1135 0.0000e+00
      8.238      0.127     8.8658     76.912     39.293  26.809445     0.6368      6.521   358.0654 7.7450e+00     1.3566      8.078     11.716     9.1148 0.0000e+00
      8.268      0.125     8.8611     76.872     39.292  26.809350     0.6308      6.520   357.7584 7.6019e+00     1.3616      8.107     11.759     9.1136 0.0000e+00
      8.301      0.121     8.8574     76.840     39.275  26.797523     0.6703      6.521   357.4550 7.4503e+00     1.4706      8.139     11.805     9.1127 0.0000e+00
      8.336      0.118     8.8574     76.839     39.270  26.793428     0.7190      6.522   357.4076 7.3134e+00     1.4536      8.175     11.858     9.1117 0.0000e+00
      8.368      0.116     8.8582     76.846     39.314  26.823340     0.7324      6.522   357.6154 7.2002e+00     1.3400      8.208     11.906     9.1125 0.0000e+00
      8.393      0.115     8.8568     76.836     39.339  26.841698     0.6944      6.522   357.9025 7.0982e+00     1.3478      8.231     11.938     9.1141 0.0000e+00
      8.417      0.114     8.8560     76.832     39.313  26.824901     0.6923      6.522   357.9547 6.9853e+00     1.4873      8.251     11.967     9.1130 0.0000e+00
      8.445      0.113     8.8568     76.839     39.292  26.810736     0.6973      6.522   357.8160 6.8493e+00     1.4701      8.280     12.009     9.1118 0.0000e+00
      8.478      0.113     8.8572     76.841     39.273  26.797432     0.6348      6.521   357.6029 6.7028e+00     1.2923      8.315     12.060     9.1117 0.0000e+00
      8.510      0.114     8.8560     76.829     39.265  26.791035     0.5898      6.521   357.5292 6.5694e+00     1.2291      8.346     12.105     9.1134 0.0000e+00
      8.540      0.115     8.8507     76.780     39.275  26.796894     0.6037      6.521   357.7845 6.4684e+00     1.3169      8.376     12.148     9.1158 0.0000e+00
      8.567      0.116     8.8433     76.715     39.288  26.804764     0.6280      6.520   358.1086 6.3770e+00     1.3766      8.403     12.187     9.1158 0.0000e+00
      8.592      0.117     8.8382     76.671     39.313  26.822702     0.6265      6.519   358.2640 6.2476e+00     1.3104      8.425     12.219     9.1146 0.0000e+00
      8.620      0.118     8.8365     76.659     39.312  26.823289     0.6134      6.517   358.2868 6.0773e+00     1.2800      8.451     12.257     9.1134 0.0000e+00
      8.653      0.118     8.8372     76.668     39.294  26.811859     0.6354      6.517   358.2122 5.9278e+00     1.4057      8.486     12.306     9.1119 0.0000e+00
      8.688      0.119     8.8387     76.681     39.294  26.811490     0.6807      6.517   358.2228 5.8208e+00     1.5791      8.522     12.359     9.1109 0.0000e+00
      8.720      0.119     8.8408     76.697     39.306  26.818826     0.7018      6.516   358.5008 5.7230e+00     1.6364      8.553     12.406     9.1115 0.0000e+00
      8.749      0.118     8.8422     76.707     39.334  26.837070     0.6785      6.516   358.7345 5.6317e+00     1.5187      8.580     12.445     9.1134 0.0000e+00
      8.776      0.115     8.8409     76.693     39.342  26.841584     0.6291      6.516   358.6386 5.5368e+00     1.3467      8.605     12.481     9.1152 0.0000e+00
      8.804      0.113     8.8402     76.685     39.297  26.809899     0.6199      6.516   358.4608 5.4373e+00     1.3264      8.632     12.522     9.1150 0.0000e+00
      8.834      0.113     8.8431     76.708     39.242  26.771452     0.6399      6.516   358.4770 5.3521e+00     1.3650      8.663     12.565     9.1134 0.0000e+00
      8.863      0.113     8.8479     76.747     39.223  26.757713     0.6323      6.516   358.4908 5.2677e+00     1.2950      8.692     12.606     9.1119 0.0000e+00
      8.891      0.113     8.8544     76.803     39.243  26.770770     0.6286      6.515   358.2834 5.1746e+00     1.3341      8.719     12.645     9.1105 0.0000e+00
      8.919      0.112     8.8641     76.888     39.289  26.802333     0.6314      6.514   358.2921 5.0872e+00     1.4409      8.746     12.685     9.1096 0.0000e+00
      8.949      0.110     8.8742     76.976     39.317  26.821845     0.6209      6.513   358.7680 5.0114e+00     1.4267      8.777     12.729     9.1083 0.0000e+00
      8.979      0.109     8.8806     77.029     39.309  26.816195     0.6033      6.513   359.2195 4.9448e+00     1.4064      8.807     12.773     9.1067 0.0000e+00
      9.005      0.110     8.8830     77.049     39.283  26.797523     0.5743      6.512   359.2767 4.8810e+00     1.3784      8.833     12.811     9.1063 0.0000e+00
      9.029      0.110     8.8831     77.051     39.267  26.786565     0.5642      6.511   359.1161 4.8006e+00     1.4239      8.853     12.840     9.1073 0.0000e+00
      9.056      0.109     8.8800     77.026     39.301  26.810705     0.6006      6.511   358.9991 4.7062e+00     1.6209      8.878     12.878     9.1084 0.0000e+00
      9.088      0.106     8.8735     76.970     39.336  26.835402     0.6374      6.511   358.8942 4.6145e+00     1.7160      8.913     12.927     9.1068 0.0000e+00
      9.120      0.101     8.8653     76.898     39.330  26.831195     0.6237      6.511   358.6221 4.5323e+00     1.5975      8.947     12.974     9.1053 0.0000e+00
      9.147      0.095     8.8569     76.823     39.320  26.823333     0.5997      6.513   358.3755 4.4724e+00     1.4694      8.973     13.013     9.1058 0.0000e+00
      9.168      0.088     8.8497     76.757     39.294  26.803830     0.6050      6.514   358.4941 4.4294e+00     1.4484      8.991     13.040     9.1069 0.0000e+00
      9.187      0.083     8.8443     76.709     39.269  26.785885     0.6418      6.514   358.6799 4.3939e+00     1.4668      9.009     13.067     9.1084 0.0000e+00
      9.205      0.085     8.8412     76.680     39.286  26.796852     0.6675      6.512   358.8153 4.3597e+00     1.4774      9.028     13.094     9.1077 0.0000e+00
      9.220      0.090     8.8380     76.653     39.304  26.809437     0.6410      6.509   359.0126 4.3015e+00     1.5466      9.041     13.114     9.1060 0.0000e+00
      9.240      0.098     8.8360     76.638     39.305  26.811044     0.6425      6.507   359.0001 4.2139e+00     1.6928      9.056     13.135     9.1048 0.0000e+00
      9.270      0.105     8.8383     76.659     39.313  26.816292     0.6855      6.507   358.2346 4.1196e+00     1.7490      9.087     13.179     9.1035 0.0000e+00
      9.306      0.112     8.8413     76.685     39.303  26.809385     0.7018      6.507   357.0700 4.0478e+00     1.5853      9.129     13.240     9.1022 0.0000e+00
      9.339      0.118     8.8414     76.685     39.276  26.791028     0.6832      6.506   356.6200 3.9939e+00     1.3619      9.162     13.288     9.1023 0.0000e+00
      9.365      0.120     8.8397     76.670     39.267  26.784831     0.6440      6.504   356.8377 3.9239e+00     1.3366      9.183     13.320     9.1049 0.0000e+00
      9.392      0.118     8.8350     76.630     39.286  26.797954     0.6420      6.504   357.2070 3.8399e+00     1.4631      9.209     13.356     9.1052 0.0000e+00
      9.423      0.116     8.8265     76.557     39.322  26.822701     0.6581      6.504   357.2991 3.7594e+00     1.4570      9.240     13.402     9.1036 0.0000e+00
      9.457      0.114     8.8193     76.494     39.332  26.830052     0.6365      6.504   356.2306 3.6884e+00     1.2937      9.274     13.452     9.1037 0.0000e+00
      9.487      0.111     8.8138     76.447     39.322  26.823343     0.6204      6.504   354.2678 3.6246e+00     1.2278      9.304     13.494     9.1041 0.0000e+00
      9.514      0.106     8.8104     76.418     39.295  26.805081     0.6381      6.506   353.2708 3.5600e+00     1.3316      9.330     13.532     9.1046 0.0000e+00
      9.542      0.098     8.8132     76.443     39.287  26.799739     0.6766      6.506   353.3818 3.5015e+00     1.4801      9.359     13.573     9.1048 0.0000e+00
      9.568      0.088     8.8201     76.504     39.319  26.822253     0.6712      6.507   353.4588 3.4559e+00     1.4978      9.385     13.612     9.1041 0.0000e+00
      9.588      0.078     8.8308     76.599     39.319  26.823302     0.6189      6.509   353.6858 3.4124e+00     1.3628      9.403     13.637     9.1048 0.0000e+00
      9.606      0.068     8.8454     76.728     39.301  26.812432     0.6047      6.511   353.9760 3.3767e+00     1.3429      9.419     13.663     9.1055 0.0000e+00
      9.622      0.058     8.8598     76.854     39.308  26.817822     0.6193      6.513   353.4395 3.3633e+00     1.5011      9.437     13.687     9.1049 0.0000e+00
      9.634      0.050     8.8717     76.959     39.318  26.824968     0.6210      6.514   352.4478 3.3711e+00     1.5976      9.449     13.705     9.1056 0.0000e+00
      9.644      0.045     8.8816     77.047     39.332  26.835342     0.5978      6.515   351.9657 3.3859e+00     1.5024      9.459     13.720     9.1079 0.0000e+00
      9.653      0.039     8.8910     77.132     39.395  26.879746     0.5596      6.517   351.8272 3.3918e+00     1.3571      9.466     13.730     9.1095 0.0000e+00
      9.663      0.032     8.8975     77.193     39.447  26.917381     0.5809      6.519   351.7192 3.3791e+00     1.4277      9.476     13.743     9.1095 0.0000e+00
      9.673      0.026     8.9000     77.220     39.432  26.909394     0.6354      6.520   351.7778 3.3481e+00     1.5625      9.488     13.761     9.1097 0.0000e+00
      9.681      0.020     8.9001     77.224     39.432  26.910172     0.6303      6.520   351.9337 3.3267e+00     1.5217      9.495     13.772     9.1113 0.0000e+00
      9.684      0.014     8.8980     77.205     39.456  26.926795     0.6105      6.521   352.1419 3.3290e+00     1.4843      9.497     13.775     9.1133 0.0000e+00
      9.685      0.008     8.8923     77.156     39.447  26.919890     0.6443      6.523   352.2296 3.3352e+00     1.5682      9.498     13.776     9.1159 0.0000e+00
      9.685      0.005     8.8809     77.056     39.404  26.890178     0.6905      6.524   351.9613 3.3353e+00     1.6814      9.498     13.776     9.1192 0.0000e+00
      9.684      0.005     8.8627     76.900     39.394  26.885035     0.6817      6.525   351.6518 3.3401e+00     1.6626      9.498     13.776     9.1205 0.0000e+00
      9.684      0.008     8.8368     76.680     39.444  26.921201     0.6396      6.526   351.4128 3.3505e+00     1.5244      9.496     13.774     9.1201 0.0000e+00
      9.684      0.012     8.8060     76.418     39.478  26.946486     0.6221      6.526   351.1363 3.3398e+00     1.5064      9.496     13.773     9.1197 0.0000e+00
      9.689      0.015     8.7751     76.155     39.461  26.936756     0.6358      6.527   351.0621 3.2865e+00     1.5355      9.501     13.780     9.1189 0.0000e+00
      9.697      0.017     8.7465     75.912     39.448  26.930562     0.6393      6.528   351.7197 3.2111e+00     1.4797      9.510     13.793     9.1200 0.0000e+00
      9.703      0.017     8.7236     75.719     39.452  26.935096     0.6103      6.530   352.8065 3.1586e+00     1.4419      9.517     13.803     9.1235 0.0000e+00
      9.708      0.016     8.7101     75.605     39.439  26.928075     0.5874      6.530   353.2759 3.1224e+00     1.5060      9.521     13.809     9.1263 0.0000e+00
      9.711      0.013     8.7037     75.554     39.409  26.909179     0.6209      6.531   353.2644 3.0710e+00     1.7051      9.523     13.812     9.1286 0.0000e+00
      9.713      0.011     8.7016     75.538     39.390  26.897113     0.6556      6.531   353.2705 3.0332e+00     1.8351      9.525     13.815     9.1314 0.0000e+00
      9.715 -9.990e-29 -9.990e-29 -9.990e-29 -9.990e-29 -9.990e-29 -9.990e-29 -9.990e-29 -9.990e-29 3.0256e+00 -9.990e-29      9.527     13.818     9.1345 0.0000e+00
      9.716 -9.990e-29 -9.990e-29 -9.990e-29 -9.990e-29 -9.990e-29 -9.990e-29 -9.990e-29 -9.990e-29 3.0139e+00 -9.990e-29      9.528     13.820     9.1361 0.0000e+00
      9.716 -9.990e-29 -9.990e-29 -9.990e-29 -9.990e-29 -9.990e-29 -9.990e-29 -9.990e-29 -9.990e-29 3.0000e+00 -9.990e-29      9.528     13.820     9.1388 0.0000e+00
      9.716 -9.990e-29 -9.990e-29 -9.990e-29 -9.990e-29 -9.990e-29 -9.990e-29 -9.990e-29 -9.990e-29 2.9979e+00 -9.990e-29      9.529     13.821     9.1417 0.0000e+00
