* Sea-Bird SBE19plus  Data File:
* FileName = C:\DATA\051418_fcr_0001.hex
* Software version 2.6.3.104 SB_Terminal.dll
* Temperature SN = 7809
* Conductivity SN = 7809
* System UpLoad Time = May 14 2018 15:30:42
* <ApplicationData>
* <Seaterm232>
* <SoftwareVersion>2.6.3.104</SoftwareVersion>
* <BuildDate>30-Jun-2017</BuildDate>
* </Seaterm232>
* </ApplicationData>
* cast   1 14 May 2018 13:41:17 samples 1 to 1107, avg = 1, stop = mag switch
# nquan = 15
# nvalues = 1005                        
# units = specified
# name 0 = depFM: Depth [fresh water, m]
# name 1 = dz/dtM: Descent Rate [m/s]
# name 2 = sbeox0Mg/L: Oxygen, SBE 43 [mg/l]
# name 3 = sbeox0PS: Oxygen, SBE 43 [% saturation]
# name 4 = specc: Specific Conductance [uS/cm]
# name 5 = c0uS/cm: Conductivity [uS/cm]
# name 6 = flECO-AFL: Fluorescence, WET Labs ECO-AFL/FL [mg/m^3]
# name 7 = ph: pH
# name 8 = orp: Oxidation Reduction Potential [mV]
# name 9 = par/sat/log: PAR/Logarithmic, Satlantic
# name 10 = turbWETntu0: Turbidity, WET Labs ECO [NTU]
# name 11 = prdM: Pressure, Strain Gauge [db]
# name 12 = prdE: Pressure, Strain Gauge [psi]
# name 13 = tv290C: Temperature [ITS-90, deg C]
# name 14 = flag:  0.000e+00
# span 0 =     -0.548,      9.627       
# span 1 =     -0.194,      3.010       
# span 2 =     4.9735,     9.8729       
# span 3 =     59.201,    102.508       
# span 4 =      0.633,     39.637       
# span 5 =   0.651551,  36.244664       
# span 6 =    -0.6818,     4.4154       
# span 7 =      5.689,      7.487       
# span 8 =   328.2834,  1240.2295       
# span 9 = 1.8214e+00, 1.7117e+03       
# span 10 =    -0.6722,   371.5655      
# span 11 =     -0.538,      9.441      
# span 12 =     -0.780,     13.693      
# span 13 =     9.3216,    26.4835      
# span 14 = 0.0000e+00, 0.0000e+00      
# interval = seconds: 0.25
# start_time = May 14 2018 13:41:17 [Instrument's time stamp, header]
# bad_flag = -9.990e-29
# <Sensors count="9" >
#   <sensor Channel="1" >
#     <!-- Count, Temperature -->
#     <TemperatureSensor SensorID="58" >
#       <SerialNumber>7809</SerialNumber>
#       <CalibrationDate>09-Mar-18</CalibrationDate>
#       <A0>1.21093245e-003</A0>
#       <A1>2.84356597e-004</A1>
#       <A2>-1.94507398e-006</A2>
#       <A3>2.12806664e-007</A3>
#       <Slope>1.00000000</Slope>
#       <Offset>0.0000</Offset>
#     </TemperatureSensor>
#   </sensor>
#   <sensor Channel="2" >
#     <!-- Frequency 0, Conductivity -->
#     <ConductivitySensor SensorID="3" >
#       <SerialNumber>7809</SerialNumber>
#       <CalibrationDate>09-Mar-18</CalibrationDate>
#       <UseG_J>1</UseG_J>
#       <!-- Cell const and series R are applicable only for wide range sensors. -->
#       <SeriesR>0.0000</SeriesR>
#       <CellConst>2000.0000</CellConst>
#       <ConductivityType>0</ConductivityType>
#       <Coefficients equation="0" >
#         <A>0.00000000e+000</A>
#         <B>0.00000000e+000</B>
#         <C>0.00000000e+000</C>
#         <D>0.00000000e+000</D>
#         <M>0.0</M>
#         <CPcor>-9.57000000e-008</CPcor>
#       </Coefficients>
#       <Coefficients equation="1" >
#         <G>-1.00672082e+000</G>
#         <H>1.26906489e-001</H>
#         <I>-1.40584351e-004</I>
#         <J>2.47837121e-005</J>
#         <CPcor>-9.57000000e-008</CPcor>
#         <CTcor>3.2500e-006</CTcor>
#         <!-- WBOTC not applicable unless ConductivityType = 1. -->
#         <WBOTC>0.00000000e+000</WBOTC>
#       </Coefficients>
#       <Slope>1.00000000</Slope>
#       <Offset>0.00000</Offset>
#     </ConductivitySensor>
#   </sensor>
#   <sensor Channel="3" >
#     <!-- Count, Pressure, Strain Gauge -->
#     <PressureSensor SensorID="46" >
#       <SerialNumber>7809</SerialNumber>
#       <CalibrationDate>07-Mar-18</CalibrationDate>
#       <PA0>-4.08176359e-002</PA0>
#       <PA1>4.85188419e-004</PA1>
#       <PA2>-3.51168169e-012</PA2>
#       <PTEMPA0>-5.37806900e+001</PTEMPA0>
#       <PTEMPA1>5.36620721e+001</PTEMPA1>
#       <PTEMPA2>4.87214332e-002</PTEMPA2>
#       <PTCA0>5.25213435e+005</PTCA0>
#       <PTCA1>1.79532409e+000</PTCA1>
#       <PTCA2>-2.84353509e-001</PTCA2>
#       <PTCB0>2.51668750e+001</PTCB0>
#       <PTCB1>3.75000000e-004</PTCB1>
#       <PTCB2>0.00000000e+000</PTCB2>
#       <Offset>0.000000</Offset>
#     </PressureSensor>
#   </sensor>
#   <sensor Channel="4" >
#     <!-- A/D voltage 0, pH -->
#     <pH_Sensor SensorID="43" >
#       <SerialNumber>0363</SerialNumber>
#       <CalibrationDate>16-Mar-18</CalibrationDate>
#       <Slope>4.6194</Slope>
#       <Offset>2.5947</Offset>
#     </pH_Sensor>
#   </sensor>
#   <sensor Channel="5" >
#     <!-- A/D voltage 1, Oxidation Reduction Potential -->
#     <OxidationReductionPotentialSensor SensorID="41" >
#       <SerialNumber>0363</SerialNumber>
#       <CalibrationDate>16-Mar-18</CalibrationDate>
#       <B>2.499480</B>
#       <M>-0.496195</M>
#       <Offset>0.0</Offset>
#     </OxidationReductionPotentialSensor>
#   </sensor>
#   <sensor Channel="6" >
#     <!-- A/D voltage 2, Oxygen, SBE 43 -->
#     <OxygenSensor SensorID="38" >
#       <SerialNumber>0434</SerialNumber>
#       <CalibrationDate>13-Mar-18</CalibrationDate>
#       <Use2007Equation>1</Use2007Equation>
#       <CalibrationCoefficients equation="0" >
#         <!-- Coefficients for Owens-Millard equation. -->
#         <Boc>0.0000</Boc>
#         <Soc>0.0000e+000</Soc>
#         <offset>0.0000</offset>
#         <Pcor>0.00e+000</Pcor>
#         <Tcor>0.0000</Tcor>
#         <Tau>0.0</Tau>
#       </CalibrationCoefficients>
#       <CalibrationCoefficients equation="1" >
#         <!-- Coefficients for Sea-Bird equation - SBE calibration in 2007 and later. -->
#         <Soc>4.5718e-001</Soc>
#         <offset>-0.6113</offset>
#         <A>-4.0649e-003</A>
#         <B> 2.0945e-004</B>
#         <C>-3.3182e-006</C>
#         <D0> 2.5826e+000</D0>
#         <D1> 1.92634e-004</D1>
#         <D2>-4.64803e-002</D2>
#         <E> 3.6000e-002</E>
#         <Tau20> 1.2200</Tau20>
#         <H1>-3.3000e-002</H1>
#         <H2> 5.0000e+003</H2>
#         <H3> 1.4500e+003</H3>
#       </CalibrationCoefficients>
#     </OxygenSensor>
#   </sensor>
#   <sensor Channel="7" >
#     <!-- A/D voltage 3, PAR/Logarithmic, Satlantic -->
#     <PARLog_SatlanticSensor SensorID="76" >
#       <SerialNumber>1122</SerialNumber>
#       <CalibrationDate>22-Jun-2017</CalibrationDate>
#       <a0>9.6090e-001</a0>
#       <a1>8.0780e-001</a1>
#       <Im>1.3589e+000</Im>
#       <Multiplier>1.0000e+000</Multiplier>
#     </PARLog_SatlanticSensor>
#   </sensor>
#   <sensor Channel="8" >
#     <!-- A/D voltage 4, Fluorometer, WET Labs ECO-AFL/FL -->
#     <FluoroWetlabECO_AFL_FL_Sensor SensorID="20" >
#       <SerialNumber>FLNTURT-2496</SerialNumber>
#       <CalibrationDate>25-Jan-2017</CalibrationDate>
#       <ScaleFactor>5.30000000e+001</ScaleFactor>
#       <!-- Dark output -->
#       <Vblank>0.0560</Vblank>
#     </FluoroWetlabECO_AFL_FL_Sensor>
#   </sensor>
#   <sensor Channel="9" >
#     <!-- A/D voltage 5, Turbidity Meter, WET Labs, ECO-NTU -->
#     <TurbidityMeter SensorID="67" >
#       <SerialNumber>FLNTURT-2496</SerialNumber>
#       <CalibrationDate>25-Jan-2017</CalibrationDate>
#       <ScaleFactor>176.000000</ScaleFactor>
#       <!-- Dark output -->
#       <DarkVoltage>0.072000</DarkVoltage>
#     </TurbidityMeter>
#   </sensor>
# </Sensors>
# datcnv_date = May 14 2018 15:34:58, 7.26.7.114 [datcnv_vars = 14]
# datcnv_in = C:\DATA\051418_fcr50.hex C:\DATA\SBE19plusV2_7809.xmlcon
# datcnv_skipover = 0
# datcnv_ox_hysteresis_correction = yes
# datcnv_ox_tau_correction = yes
# filter_date = May 14 2018 15:35:17, 7.26.7.114
# filter_in = C:\DATA\051418_fcr50.cnv
# filter_low_pass_tc_A = 0.030
# filter_low_pass_tc_B = 0.150
# filter_low_pass_A_vars = prdM prdE tv290C
# filter_low_pass_B_vars = depFM dz/dtM sbeox0Mg/L sbeox0PS specc c0uS/cm flECO-AFL ph orp par/sat/log turbWETntu0
# alignctd_date = May 14 2018 15:35:43, 7.26.7.114
# alignctd_in = C:\DATA\051418_fcr50.cnv
# alignctd_adv = dz/dtM 1.000, sbeox0Mg/L 1.000, sbeox0PS 1.000, specc 1.000, c0uS/cm 1.000, flECO-AFL 1.000, ph 1.000, orp 1.000, turbWETntu0 1.000                                                                                 
# file_type = ascii
*END*
     -0.548 6.0420e-22     7.9247     98.513      0.671   0.690637    -0.1756      5.689  1240.2295 2.0296e+02     0.0293     -0.537     -0.779    26.4671 0.0000e+00
     -0.548 6.6462e-21     7.9251     98.519      0.658   0.676906    -0.1774      5.741  1240.2295 2.5832e+02     0.0097     -0.538     -0.780    26.4677 0.0000e+00
     -0.548 7.3108e-20     7.9247     98.515      0.644   0.663185    -0.1748      5.778  1240.2295 4.3247e+02    -0.0494     -0.537     -0.779    26.4680 0.0000e+00
     -0.548 8.0419e-19     7.9246     98.514      0.633   0.651551    -0.1717      5.801  1240.2295 6.4727e+02    -0.1660     -0.537     -0.779    26.4681 0.0000e+00
     -0.548 8.8461e-18     7.9237     98.504      0.644   0.663071    -0.1766      5.823  1240.2295 7.3918e+02    -0.2412     -0.537     -0.779    26.4687 0.0000e+00
     -0.548 9.7307e-17     7.9227     98.489      0.656   0.675648    -0.1793      5.854  1240.2295 6.2707e+02    -0.2263     -0.537     -0.779    26.4693 0.0000e+00
     -0.548 1.0704e-15     7.9230     98.493      0.657   0.676802    -0.1760      5.880  1240.2295 4.0302e+02    -0.1995     -0.537     -0.779    26.4699 0.0000e+00
     -0.548 1.1774e-14     7.9235     98.501      0.657   0.677020    -0.1740      5.886  1240.2295 2.6657e+02    -0.1917     -0.537     -0.779    26.4701 0.0000e+00
     -0.548 1.2952e-13     7.9235     98.501      0.658   0.678288    -0.1730      5.879  1240.2295 2.1173e+02    -0.1931     -0.537     -0.779    26.4697 0.0000e+00
     -0.548 1.4247e-12     7.9236     98.503      0.672   0.692124    -0.1644      5.872  1240.2295 1.6148e+02    -0.2157     -0.538     -0.780    26.4694 0.0000e+00
     -0.548 1.5671e-11     7.9243     98.512      0.697   0.717494    -0.1521      5.866  1240.2295 1.3202e+02    -0.2214     -0.537     -0.779    26.4697 0.0000e+00
     -0.548 1.7239e-10     7.9251     98.522      0.711   0.731381    -0.1534      5.863  1240.2295 1.2616e+02    -0.2009     -0.537     -0.778    26.4698 0.0000e+00
     -0.547 1.8962e-09     7.9253     98.526      0.713   0.733211    -0.1622      5.864  1240.2295 1.5200e+02    -0.1813     -0.537     -0.779    26.4700 0.0000e+00
     -0.547 2.0859e-08     7.9246     98.519      0.719   0.739626    -0.1666      5.865  1240.2295 3.8684e+02    -0.1680     -0.537     -0.778    26.4704 0.0000e+00
     -0.547 2.2945e-07     7.9237     98.509      0.724   0.745534    -0.1692      5.867  1240.2294 6.4572e+02    -0.1613     -0.536     -0.778    26.4709 0.0000e+00
     -0.547      0.000     7.9237     98.512      0.720   0.741233    -0.1664      5.866  1240.2281 4.8958e+02    -0.1623     -0.536     -0.778    26.4712 0.0000e+00
     -0.547      0.000     7.9240     98.518      0.730   0.751032    -0.1605      5.851  1240.2139 2.2161e+02    -0.1799     -0.536     -0.777    26.4721 0.0000e+00
     -0.547      0.000     7.9244     98.523      0.901   0.927426    -0.1618      5.844  1240.0583 1.5341e+02    -0.1910     -0.537     -0.778    26.4718 0.0000e+00
     -0.547      0.003     7.9259     98.523      2.796   2.873991    -0.1729      6.026  1238.3458 1.5542e+02    -0.1738     -0.536     -0.778    26.4741 0.0000e+00
     -0.547      0.014     7.9403     98.517      8.603   8.811800    -0.3040      6.366  1219.5087 1.7036e+02    -0.2776     -0.537     -0.778    26.4736 0.0000e+00
     -0.547      0.036     7.9868     98.526     18.170  18.485180    -0.5520      6.585  1012.3012 2.1384e+02    -0.5309     -0.536     -0.778    26.4779 0.0000e+00
     -0.546      0.066     8.0576     98.536     27.881  28.139409    -0.6818      6.764   628.3759 4.7571e+02    -0.6722     -0.537     -0.779    26.4747 0.0000e+00
     -0.536      0.099     8.1245     98.522     33.440  33.494949    -0.6788      7.018   412.0119 9.9158e+02    -0.6430     -0.536     -0.777    26.4835 0.0000e+00
     -0.501      0.131     8.1770     98.502     34.968  34.790426    -0.6525      7.224   386.1793 1.1187e+03    -0.3300     -0.501     -0.726    26.4605 0.0000e+00
     -0.447      0.159     8.2200     98.500     35.225  34.847256    -0.4283      7.338   380.7377 9.6497e+02     2.9588     -0.436     -0.632    26.1199 0.0000e+00
     -0.393      0.179     8.2574     98.515     35.362  34.816976    -0.0175      7.368   377.4497 1.2555e+03     9.0008     -0.382     -0.555    25.5376 0.0000e+00
     -0.345      0.189     8.2917     98.579     35.485  34.805193     0.2060      7.330   375.5057 1.5589e+03    12.2978     -0.341     -0.495    25.0640 0.0000e+00
     -0.297      0.188     8.3273     98.753     35.610  34.831624     0.2344      7.271   374.1837 1.5198e+03    12.3343     -0.292     -0.423    24.7211 0.0000e+00
     -0.248      0.180     8.3660     99.056     35.723  34.882341     0.3434      7.216   373.0795 1.2669e+03     9.3207     -0.243     -0.350    24.4441 0.0000e+00
     -0.203      0.167     8.4068     99.452     35.786  34.910158     0.5410      7.167   371.6193 8.2557e+02     3.7532     -0.199     -0.289    24.2087 0.0000e+00
     -0.160      0.152     8.4475     99.888     35.808  34.913833     0.6477      7.137   369.7790 4.8374e+02     0.7142     -0.157     -0.227    24.0161 0.0000e+00
     -0.118      0.135     8.4854    100.307     35.832  34.926758     0.6600      7.113   369.0690 5.3076e+02     0.4388     -0.113     -0.163    23.8845 0.0000e+00
     -0.084      0.116     8.5169    100.661     35.852  34.939368     0.6617      7.083   369.1435 9.4621e+02     0.3623     -0.077     -0.111    23.8039 0.0000e+00
     -0.063      0.096     8.5428    100.956     35.857  34.939256     0.6596      7.058   369.0455 1.4050e+03     0.2473     -0.061     -0.088    23.7635 0.0000e+00
     -0.045      0.076     8.5606    101.151     35.848  34.925399     0.6618      7.047   369.2601 1.6350e+03     0.1771     -0.046     -0.066    23.7447 0.0000e+00
     -0.026      0.058     8.5432    100.928     35.828  34.898857     0.6700      7.043   369.4152 1.6886e+03     0.1551     -0.022     -0.033    23.7282 0.0000e+00
     -0.012      0.043     8.4620     99.954     35.807  34.872402     0.6940      7.043   368.2546 1.7013e+03     0.1644     -0.009     -0.014    23.7189 0.0000e+00
     -0.005      0.030     8.3323     98.416     35.796  34.859602     0.7222      7.050   366.5844 1.7082e+03     0.1983     -0.003     -0.005    23.7170 0.0000e+00
      0.000      0.019     8.1820     96.641     35.807  34.871141     0.7263      7.064   365.6535 1.7110e+03     0.1982      0.001      0.001    23.7081 0.0000e+00
      0.002      0.009     8.0154     94.672     35.822  34.884877     0.7249      7.084   365.1730 1.7117e+03     0.1938      0.003      0.006    23.6965 0.0000e+00
      0.002      0.003     7.8249     92.416     35.839  34.898642     0.7329      7.105   365.5067 1.7097e+03     0.2977      0.004      0.005    23.6881 0.0000e+00
      0.001      0.000     7.6174     89.955     35.856  34.910526     0.7322      7.123   366.4199 1.7062e+03     0.4475      0.001      0.001    23.6851 0.0000e+00
     -0.001     -0.001     7.4279     87.707     35.851  34.901515     0.7247      7.139   366.2336 1.7032e+03     0.4792     -0.001     -0.002    23.6875 0.0000e+00
     -0.001      0.002     7.2894     86.066     35.869  34.916729     0.7256      7.149   365.0604 1.6999e+03     0.4359     -0.001     -0.002    23.6882 0.0000e+00
     -0.001      0.008     7.2008     85.020     35.921  34.967431     0.7326      7.145   363.9360 1.6956e+03     0.4123     -0.000     -0.001    23.6833 0.0000e+00
     -0.000      0.014     7.1361     84.264     35.957  35.006393     0.7461      7.136   363.0495 1.6902e+03     0.4082     -0.001     -0.001    23.6755 0.0000e+00
      0.003      0.019     7.0791     83.597     35.955  35.006698     0.7694      7.137   363.1178 1.6724e+03     0.4165     -0.000     -0.000    23.6698 0.0000e+00
      0.012      0.019     7.0294     83.010     35.918  34.971126     0.7749      7.150   363.8156 1.5333e+03     0.4218      0.011      0.015    23.6654 0.0000e+00
      0.023      0.014     6.9911     82.559     35.903  34.957414     0.7661      7.178   363.1414 1.1922e+03     0.4103      0.026      0.038    23.6655 0.0000e+00
      0.030     -0.001     6.9573     82.164     35.912  34.967944     0.7559      7.220   361.2461 7.6853e+02     0.3690      0.031      0.046    23.6733 0.0000e+00
      0.032     -0.023     6.9144     81.665     35.912  34.971410     0.7336      7.259   359.9149 4.3332e+02     0.2892      0.032      0.045    23.6771 0.0000e+00
      0.029     -0.044     6.8629     81.063     35.938  34.999330     0.7176      7.285   359.2632 2.7419e+02     0.2086      0.033      0.047    23.6765 0.0000e+00
      0.013     -0.058     6.8106     80.452     35.989  35.051450     0.7177      7.308   358.7015 2.4428e+02     0.1574      0.023      0.034    23.6756 0.0000e+00
     -0.022     -0.063     6.7636     79.906     36.027  35.093432     0.7355      7.324   358.3716 2.4118e+02     0.1585     -0.022     -0.033    23.6793 0.0000e+00
     -0.055     -0.059     6.7248     79.460     36.053  35.125821     0.7676      7.330   358.4572 2.3452e+02     0.1906     -0.064     -0.092    23.6853 0.0000e+00
     -0.068     -0.049     6.6986     79.164     36.112  35.188990     0.7843      7.331   358.7039 2.3731e+02     0.2106     -0.070     -0.099    23.6881 0.0000e+00
     -0.070     -0.033     6.6923     79.097     36.207  35.285525     0.7805      7.337   358.8604 2.4996e+02     0.2168     -0.068     -0.098    23.6914 0.0000e+00
     -0.069     -0.015     6.7071     79.275     36.327  35.403731     0.7950      7.347   358.1988 2.6934e+02     0.2050     -0.068     -0.099    23.6974 0.0000e+00
     -0.069     -0.004     6.7323     79.574     36.465  35.538353     0.8316      7.357   356.8988 2.9279e+02     0.1891     -0.068     -0.098    23.7081 0.0000e+00
     -0.069     -0.000     6.7572     79.869     36.571  35.642805     0.8554      7.365   356.3057 3.1394e+02     0.2086     -0.068     -0.098    23.7179 0.0000e+00
     -0.069 1.2015e-09     6.7744     80.075     36.643  35.713822     0.8622      7.373   356.5341 3.4420e+02     0.2270     -0.067     -0.098    23.7227 0.0000e+00
     -0.069 1.3216e-08     6.7755     80.090     36.691  35.761793     0.8673      7.381   357.0801 3.9005e+02     0.1972     -0.068     -0.098    23.7239 0.0000e+00
     -0.069 1.4538e-07     6.7550     79.850     36.707  35.778169     0.8723      7.386   357.3143 4.6494e+02     0.1840     -0.068     -0.098    23.7237 0.0000e+00
     -0.069 1.4538e-07     6.7121     79.344     36.713  35.784780     0.8761      7.389   356.4397 5.7478e+02     0.2204     -0.067     -0.097    23.7242 0.0000e+00
     -0.069 1.3217e-08     6.6598     78.725     36.707  35.778201     0.8762      7.392   354.9372 7.1539e+02     0.2413     -0.067     -0.097    23.7257 0.0000e+00
     -0.069 1.2015e-09     6.6182     78.232     36.692  35.762151     0.8638      7.396   354.1185 8.7884e+02     0.2227     -0.067     -0.097    23.7279 0.0000e+00
     -0.069 1.0923e-10     6.5962     77.968     36.713  35.781283     0.8369      7.399   353.9409 1.0298e+03     0.2701     -0.068     -0.098    23.7297 0.0000e+00
     -0.069 9.9300e-12     6.5945     77.945     36.753  35.818949     0.8094      7.402   354.0801 1.1478e+03     0.3873     -0.068     -0.098    23.7304 0.0000e+00
     -0.069 9.0270e-13     6.6095     78.120     36.772  35.836432     0.7965      7.404   354.5117 1.2228e+03     0.4496     -0.067     -0.097    23.7298 0.0000e+00
     -0.069 8.2065e-14     6.6343     78.412     36.802  35.865624     0.7913      7.405   354.2542 1.2568e+03     0.4736     -0.068     -0.098    23.7279 0.0000e+00
     -0.069 7.4605e-15     6.6626     78.745     36.856  35.917816     0.7838      7.407   353.2040 1.2689e+03     0.4336     -0.067     -0.097    23.7256 0.0000e+00
     -0.069 6.7820e-16     6.6866     79.028     36.899  35.959302     0.7789      7.410   352.4835 1.2726e+03     0.3018     -0.067     -0.097    23.7237 0.0000e+00
     -0.069 6.1655e-17     6.7013     79.201     36.927  35.986085     0.7782      7.413   352.4251 1.2733e+03     0.2227     -0.067     -0.097    23.7224 0.0000e+00
     -0.069 5.6050e-18     6.7045     79.240     36.928  35.987565     0.7759      7.415   352.6693 1.2747e+03     0.2399     -0.067     -0.097    23.7216 0.0000e+00
     -0.069 5.0955e-19     6.6978     79.162     36.917  35.977192     0.7783      7.417   353.1134 1.2773e+03     0.2659     -0.067     -0.097    23.7211 0.0000e+00
     -0.068 4.6323e-20     6.6848     79.009     36.927  35.987702     0.7797      7.417   353.4075 1.2762e+03     0.2623     -0.067     -0.097    23.7206 0.0000e+00
     -0.068 4.2112e-21     6.6669     78.799     36.926  35.987598     0.7747      7.417   353.2137 1.2712e+03     0.2570     -0.067     -0.097    23.7203 0.0000e+00
     -0.068 3.8284e-22     6.6452     78.544     36.914  35.975934     0.7821      7.418   352.9212 1.2649e+03     0.2634     -0.067     -0.097    23.7206 0.0000e+00
     -0.068 3.4803e-23     6.6193     78.240     36.911  35.973727     0.7946      7.419   352.5376 1.2598e+03     0.3094     -0.067     -0.097    23.7211 0.0000e+00
     -0.068 3.1639e-24     6.5891     77.885     36.897  35.960917     0.7891      7.422   352.0177 1.2584e+03     0.3851     -0.067     -0.097    23.7218 0.0000e+00
     -0.069 2.8763e-25     6.5564     77.499     36.882  35.948089     0.7796      7.425   352.3992 1.2587e+03     0.4157     -0.068     -0.098    23.7231 0.0000e+00
     -0.069 2.6148e-26     6.5213     77.086     36.879  35.945684     0.7814      7.427   353.4508 1.2588e+03     0.4051     -0.068     -0.098    23.7242 0.0000e+00
     -0.068 2.3771e-27     6.4834     76.640     36.864  35.931834     0.8009      7.428   353.5471 1.2635e+03     0.3479     -0.067     -0.097    23.7251 0.0000e+00
     -0.068 2.1610e-28     6.4455     76.195     36.838  35.907670     0.8312      7.430   352.7896 1.2659e+03     0.2435     -0.067     -0.097    23.7263 0.0000e+00
     -0.068 1.9645e-29     6.4091     75.768     36.836  35.907617     0.8443      7.434   352.0352 1.2653e+03     0.1805     -0.067     -0.097    23.7275 0.0000e+00
     -0.068 1.7860e-30     6.3750     75.368     36.859  35.931192     0.8495      7.437   351.6532 1.2624e+03     0.1966     -0.067     -0.096    23.7286 0.0000e+00
     -0.068 1.6236e-31     6.3454     75.021     36.865  35.938628     0.8568      7.440   352.1286 1.2572e+03     0.2852     -0.067     -0.097    23.7300 0.0000e+00
     -0.069 1.4760e-32     6.3194     74.717     36.858  35.933999     0.8600      7.444   353.1369 1.2507e+03     0.3978     -0.068     -0.098    23.7319 0.0000e+00
     -0.069 1.3418e-33     6.2950     74.432     36.861  35.938751     0.8514      7.446   353.6058 1.2360e+03     0.4283     -0.068     -0.098    23.7340 0.0000e+00
     -0.069 1.2198e-34     6.2732     74.177     36.853  35.932575     0.8352      7.448   353.4102 1.2074e+03     0.3791     -0.068     -0.098    23.7358 0.0000e+00
     -0.068 1.1090e-35     6.2537     73.947     36.842  35.922850     0.8390      7.449   352.9225 1.1604e+03     0.3826     -0.067     -0.097    23.7378 0.0000e+00
     -0.068 1.0081e-36     6.2332     73.706     36.868  35.948207     0.8422      7.450   352.6992 1.0994e+03     0.4098     -0.067     -0.097    23.7408 0.0000e+00
     -0.069 9.1650e-38     6.2123     73.460     36.905  35.985074     0.8184      7.453   353.1200 1.0309e+03     0.3416     -0.068     -0.098    23.7437 0.0000e+00
     -0.069 8.3315e-39     6.1924     73.226     36.907  35.987471     0.7996      7.455   353.4500 9.7039e+02     0.2606     -0.068     -0.098    23.7457 0.0000e+00
     -0.069 7.5740e-40     6.1723     72.990     36.895  35.977181     0.7980      7.456   353.3330 9.2271e+02     0.2235     -0.067     -0.097    23.7468 0.0000e+00
     -0.069 6.8855e-41     6.1536     72.771     36.904  35.987709     0.7994      7.458   352.9961 8.9305e+02     0.1989     -0.068     -0.098    23.7474 0.0000e+00
     -0.069 6.2595e-42     6.1362     72.569     36.903  35.987720     0.7980      7.460   352.6468 8.9355e+02     0.1767     -0.068     -0.098    23.7476 0.0000e+00
     -0.068 5.6905e-43     6.1156     72.328     36.891  35.977316     0.7995      7.462   352.2937 9.1582e+02     0.1677     -0.067     -0.097    23.7486 0.0000e+00
     -0.068 5.1735e-44     6.0912     72.042     36.901  35.988970     0.7995      7.463   351.9092 9.4419e+02     0.1827     -0.067     -0.097    23.7504 0.0000e+00
     -0.068 4.7030e-45     6.0638     71.721     36.912  36.001579     0.7890      7.465   351.7834 9.7728e+02     0.2050     -0.067     -0.097    23.7520 0.0000e+00
     -0.068 4.2754e-46     6.0333     71.363     36.912  36.002725     0.7829      7.467   351.8049 1.0056e+03     0.2245     -0.067     -0.097    23.7540 0.0000e+00
     -0.068 3.8868e-47     6.0003     70.977     36.910  36.002839     0.7898      7.469   351.9983 1.0213e+03     0.2043     -0.068     -0.098    23.7560 0.0000e+00
     -0.068 3.5362e-48     5.9650     70.562     36.908  36.002952     0.7986      7.469   352.3152 1.0283e+03     0.1742     -0.067     -0.097    23.7583 0.0000e+00
     -0.069 3.5225e-49     5.9277     70.124     36.907  36.004098     0.7879      7.469   351.6778 1.0106e+03     0.2262     -0.068     -0.098    23.7604 0.0000e+00
     -0.069 3.7048e-49     5.8883     69.663     36.918  36.016698     0.7713      7.470   350.3150 9.8458e+02     0.3457     -0.068     -0.098    23.7625 0.0000e+00
     -0.068 3.7567e-48     5.8478     69.188     36.928  36.028257     0.7726      7.471   349.7755 9.3896e+02     0.4292     -0.067     -0.097    23.7649 0.0000e+00
     -0.068 4.1294e-47     5.8087     68.728     36.914  36.016812     0.7760      7.471   350.1454 8.6771e+02     0.4412     -0.067     -0.097    23.7675 0.0000e+00
     -0.068 4.5424e-46     5.7709     68.284     36.899  36.005358     0.7758      7.471   350.5717 7.9431e+02     0.4300     -0.067     -0.097    23.7704 0.0000e+00
     -0.068 4.9966e-45     5.7316     67.824     36.909  36.016822     0.7794      7.471   350.0253 7.0786e+02     0.3850     -0.068     -0.098    23.7736 0.0000e+00
     -0.068 5.4963e-44     5.6911     67.349     36.919  36.028372     0.7834      7.471   348.7875 6.3690e+02     0.2945     -0.067     -0.097    23.7770 0.0000e+00
     -0.068 6.0459e-43     5.6520     66.890     36.906  36.017968     0.7869      7.470   348.2525 5.7896e+02     0.2518     -0.068     -0.098    23.7799 0.0000e+00
     -0.068 6.6505e-42     5.6149     66.455     36.903  36.018081     0.7937      7.471   348.2897 5.3465e+02     0.2652     -0.067     -0.097    23.7826 0.0000e+00
     -0.068 7.3155e-41     5.5809     66.058     36.912  36.029745     0.8103      7.472   348.2904 5.0491e+02     0.2418     -0.067     -0.097    23.7853 0.0000e+00
     -0.068 8.0471e-40     5.5480     65.674     36.911  36.031950     0.8320      7.472   348.2616 4.7419e+02     0.2142     -0.067     -0.097    23.7883 0.0000e+00
     -0.068 8.8518e-39     5.5130     65.267     36.919  36.044749     0.8448      7.472   348.2856 4.5717e+02     0.2358     -0.068     -0.098    23.7914 0.0000e+00
     -0.068 9.7369e-38     5.4760     64.837     36.928  36.057462     0.8547      7.473   348.1503 4.3664e+02     0.2595     -0.067     -0.097    23.7945 0.0000e+00
     -0.068 1.0711e-36     5.4385     64.401     36.924  36.058618     0.8502      7.473   347.7436 4.1654e+02     0.2565     -0.067     -0.097    23.7982 0.0000e+00
     -0.068 1.1782e-35     5.4027     63.984     36.919  36.058733     0.8178      7.473   347.4980 3.9049e+02     0.2302     -0.067     -0.097    23.8034 0.0000e+00
     -0.068 1.2960e-34     5.3675     63.574     36.915  36.058856     0.7938      7.472   347.5901 3.5283e+02     0.2161     -0.067     -0.097    23.8093 0.0000e+00
     -0.068 1.4256e-33     5.3323     63.164     36.911  36.060106     0.7899      7.470   347.7386 3.2033e+02     0.2379     -0.067     -0.097    23.8161 0.0000e+00
     -0.068 1.5681e-32     5.2990     62.778     36.921  36.073851     0.7887      7.466   348.1747 2.8799e+02     0.2494     -0.067     -0.097    23.8230 0.0000e+00
     -0.068 1.7250e-31     5.2685     62.423     36.941  36.098010     0.7891      7.460   348.9061 2.6378e+02     0.2331     -0.067     -0.097    23.8293 0.0000e+00
     -0.068 1.8975e-30     5.2405     62.098     36.936  36.098124     0.7846      7.452   349.0956 2.4751e+02     0.2250     -0.067     -0.097    23.8350 0.0000e+00
     -0.068 2.0872e-29     5.2144     61.796     36.909  36.075233     0.7814      7.445   348.5733 2.3620e+02     0.2433     -0.067     -0.098    23.8407 0.0000e+00
     -0.068 2.2959e-28     5.1895     61.508     36.905  36.075337     0.7961      7.441   347.9250 2.3250e+02     0.2707     -0.067     -0.097    23.8467 0.0000e+00
     -0.068 2.5255e-27     5.1660     61.235     36.925  36.099392     0.8240      7.440   348.2262 2.3122e+02     0.2504     -0.067     -0.097    23.8530 0.0000e+00
     -0.069 2.7781e-26     5.1449     60.991     36.933  36.111992     0.8427      7.441   349.3764 2.3071e+02     0.2117     -0.067     -0.098    23.8595 0.0000e+00
     -0.069 3.0559e-25     5.1272     60.788     36.917  36.100643     0.8473      7.442   349.8728 2.3053e+02     0.2301     -0.067     -0.098    23.8652 0.0000e+00
     -0.069 3.3615e-24     5.1118     60.613     36.901  36.089225     0.8524      7.444   349.6678 2.3023e+02     0.2894     -0.067     -0.098    23.8708 0.0000e+00
     -0.068 3.6976e-23     5.0964     60.436     36.909  36.100993     0.8585      7.446   349.2212 2.3029e+02     0.3494     -0.067     -0.097    23.8765 0.0000e+00
     -0.068 4.0674e-22     5.0815     60.266     36.920  36.115883     0.8575      7.449   348.6022 2.3070e+02     0.3763     -0.067     -0.097    23.8822 0.0000e+00
     -0.068 4.4741e-21     5.0693     60.126     36.943  36.142228     0.8580      7.450   348.5514 2.3081e+02     0.3999     -0.067     -0.098    23.8880 0.0000e+00
     -0.068 4.9215e-20     5.0583     60.001     36.963  36.165431     0.8564      7.448   349.2945 2.3101e+02     0.4211     -0.067     -0.097    23.8939 0.0000e+00
     -0.068 5.4137e-19     5.0485     59.891     36.936  36.142341     0.8370      7.445   350.0163 2.3099e+02     0.3591     -0.067     -0.097    23.8994 0.0000e+00
     -0.068 5.9550e-18     5.0403     59.801     36.906  36.117151     0.8080      7.440   350.2225 2.3035e+02     0.2597     -0.067     -0.097    23.9047 0.0000e+00
     -0.068 6.5505e-17     5.0331     59.721     36.899  36.114966     0.7910      7.435   350.2385 2.2993e+02     0.2263     -0.067     -0.097    23.9098 0.0000e+00
     -0.068 7.2056e-16     5.0275     59.661     36.896  36.115916     0.7970      7.428   350.2101 2.3007e+02     0.2300     -0.068     -0.098    23.9153 0.0000e+00
     -0.068 7.9261e-15     5.0234     59.618     36.905  36.128654     0.8156      7.419   349.7078 2.3058e+02     0.2437     -0.067     -0.097    23.9208 0.0000e+00
     -0.068 8.7188e-14     5.0196     59.579     36.915  36.141935     0.8413      7.411   349.0694 2.3091e+02     0.2703     -0.067     -0.098    23.9259 0.0000e+00
     -0.068 9.5906e-13     5.0171     59.554     36.919  36.149451     0.8588      7.405   349.1162 2.3066e+02     0.2455     -0.067     -0.097    23.9314 0.0000e+00
     -0.068 1.0550e-11     5.0157     59.544     36.922  36.156013     0.8531      7.401   349.4997 2.3099e+02     0.1880     -0.067     -0.097    23.9365 0.0000e+00
     -0.068 1.1605e-10     5.0140     59.529     36.920  36.157759     0.8465      7.399   349.5755 2.3181e+02     0.2477     -0.067     -0.097    23.9415 0.0000e+00
     -0.068 1.2765e-09     5.0136     59.530     36.929  36.170569     0.8525      7.398   348.7429 2.3162e+02     0.3867     -0.066     -0.096    23.9468 0.0000e+00
     -0.068 1.4042e-08     5.0161     59.565     36.939  36.183857     0.8522      7.399   347.4334 2.3157e+02     0.4351     -0.067     -0.097    23.9519 0.0000e+00
     -0.068 1.5446e-07     5.0182     59.595     36.943  36.191373     0.8419      7.400   347.0793 2.3375e+02     0.4053     -0.067     -0.097    23.9569 0.0000e+00
     -0.068      0.000     5.0186     59.605     36.946  36.197929     0.8393      7.401   347.3001 2.3952e+02     0.3310     -0.067     -0.097    23.9622 0.0000e+00
     -0.068      0.000     5.0191     59.616     36.944  36.199609     0.8475      7.402   347.6078 2.5493e+02     0.2391     -0.066     -0.096    23.9671 0.0000e+00
     -0.068      0.000     5.0203     59.636     36.953  36.211689     0.8588      7.403   348.0463 2.8164e+02     0.2098     -0.066     -0.096    23.9720 0.0000e+00
     -0.068      0.002     5.0206     59.645     36.954  36.216943     0.8652      7.401   347.6123 3.1999e+02     0.2206     -0.067     -0.097    23.9772 0.0000e+00
     -0.068      0.025     5.0212     59.658     36.933  36.199618     0.8603      7.397   346.4046 3.6317e+02     0.2178     -0.067     -0.097    23.9821 0.0000e+00
     -0.068      0.274     5.0227     59.681     36.923  36.192793     0.8557      7.394   345.7481 4.0670e+02     0.2064     -0.066     -0.096    23.9869 0.0000e+00
     -0.068      3.010     5.0230     59.691     36.924  36.197953     0.8553      7.389   345.6966 4.4618e+02     0.1743     -0.067     -0.097    23.9917 0.0000e+00
     -0.068      3.010     5.0223     59.687     36.921  36.198483     0.8549      7.382   345.9538 4.7508e+02     0.1342     -0.067     -0.097    23.9963 0.0000e+00
     -0.068      0.274     5.0225     59.695     36.919  36.199212     0.8606      7.373   346.4488 4.9408e+02     0.1486     -0.067     -0.098    24.0012 0.0000e+00
     -0.068      0.025     5.0234     59.710     36.924  36.206765     0.8510      7.364   346.6058 4.9729e+02     0.1960     -0.067     -0.097    24.0063 0.0000e+00
     -0.068      0.002     5.0225     59.705     36.940  36.226285     0.8213      7.358   346.3028 4.9470e+02     0.2190     -0.067     -0.097    24.0109 0.0000e+00
     -0.068      0.000     5.0212     59.694     36.955  36.244664     0.7957      7.354   345.9698 4.8564e+02     0.2132     -0.067     -0.097    24.0153 0.0000e+00
     -0.068      0.000     5.0211     59.697     36.945  36.238417     0.7798      7.354   345.7618 4.7349e+02     0.1874     -0.066     -0.096    24.0196 0.0000e+00
     -0.068      0.000     5.0212     59.703     36.917  36.214277     0.7770      7.356   345.5951 4.6373e+02     0.1817     -0.066     -0.096    24.0243 0.0000e+00
     -0.068 1.5446e-07     5.0212     59.708     36.907  36.206892     0.7796      7.360   346.0194 4.5695e+02     0.2046     -0.066     -0.096    24.0289 0.0000e+00
     -0.068 1.4041e-08     5.0219     59.721     36.909  36.212662     0.7840      7.364   346.8482 4.4648e+02     0.2200     -0.066     -0.096    24.0333 0.0000e+00
     -0.068 1.2765e-09     5.0215     59.722     36.914  36.220518     0.7925      7.368   346.9257 4.3008e+02     0.2159     -0.067     -0.097    24.0375 0.0000e+00
     -0.068 1.1604e-10     5.0195     59.702     36.929  36.238363     0.7912      7.372   346.3550 4.1771e+02     0.1854     -0.066     -0.096    24.0417 0.0000e+00
     -0.068 1.0550e-11     5.0172     59.680     36.925  36.237850     0.7865      7.374   345.7982 3.9997e+02     0.1565     -0.067     -0.097    24.0461 0.0000e+00
     -0.068 9.5905e-13     5.0151     59.659     36.899  36.214325     0.7908      7.374   345.6137 3.7961e+02     0.1714     -0.066     -0.096    24.0506 0.0000e+00
     -0.068 8.7190e-14     5.0135     59.644     36.889  36.208021     0.7974      7.372   346.4475 3.5147e+02     0.2127     -0.066     -0.096    24.0550 0.0000e+00
     -0.067 7.9260e-15     5.0114     59.624     36.903  36.225155     0.8197      7.370   347.8773 3.2457e+02     0.2295     -0.066     -0.096    24.0593 0.0000e+00
     -0.067 7.2055e-16     5.0085     59.595     36.906  36.230924     0.8492      7.367   348.4470 3.0150e+02     0.2210     -0.065     -0.095    24.0635 0.0000e+00
     -0.068 6.5505e-17     5.0046     59.553     36.886  36.214262     0.8516      7.362   348.0871 2.7723e+02     0.2025     -0.066     -0.096    24.0672 0.0000e+00
     -0.068 5.9550e-18     5.0001     59.503     36.883  36.214271     0.8472      7.359   347.5701 2.6099e+02     0.1882     -0.066     -0.096    24.0713 0.0000e+00
     -0.068 5.4135e-19     4.9970     59.470     36.897  36.231027     0.8610      7.357   347.5300 2.4719e+02     0.2012     -0.066     -0.096    24.0757 0.0000e+00
     -0.068 4.9215e-20     4.9940     59.440     36.890  36.226295     0.8722      7.355   348.0332 2.3853e+02     0.2062     -0.066     -0.096    24.0799 0.0000e+00
     -0.068 4.4741e-21     4.9895     59.391     36.881  36.220585     0.8627      7.354   348.4053 2.3474e+02     0.1874     -0.066     -0.096    24.0838 0.0000e+00
     -0.067 4.0674e-22     4.9850     59.340     36.883  36.225524     0.8474      7.356   348.4152 2.3198e+02     0.1874     -0.066     -0.096    24.0876 0.0000e+00
     -0.067 3.6976e-23     4.9815     59.302     36.877  36.222487     0.8426      7.359   348.2384 2.3100e+02     0.2064     -0.066     -0.096    24.0914 0.0000e+00
     -0.067 3.3615e-24     4.9780     59.265     36.835  36.183863     0.8414      7.361   347.9887 2.3100e+02     0.2038     -0.066     -0.096    24.0954 0.0000e+00
     -0.067 3.0559e-25     4.9735     59.213     36.595  35.949106     0.8423      7.364   347.6340 2.3107e+02     0.1865     -0.066     -0.096    24.0993 0.0000e+00
     -0.067 2.7781e-26     4.9745     59.211     36.127  35.480306     0.8447      7.368   347.3912 2.3110e+02     0.1799     -0.066     -0.096    24.1032 0.0000e+00
     -0.067 2.5255e-27     5.0212     59.703     35.770  35.089213     0.8427      7.372   347.4617 2.3133e+02     0.1856     -0.066     -0.095    24.1067 0.0000e+00
     -0.067 2.2959e-28     5.2055     61.769     35.723  34.968120     0.8462      7.374   347.5398 2.3115e+02     0.1945     -0.066     -0.096    24.1105 0.0000e+00
     -0.067 2.0872e-29     5.5937     66.235     35.805  34.968870     0.8505      7.376   347.6465 2.3049e+02     0.1951     -0.066     -0.096    24.1139 0.0000e+00
     -0.067 1.8974e-30     6.1417     72.614     35.868  34.971124     0.8395      7.376   347.8057 2.2995e+02     0.1934     -0.066     -0.096    24.1170 0.0000e+00
     -0.067 1.7250e-31     6.7542     79.779     35.932  34.995292     0.8227      7.373   347.1427 2.2970e+02     0.2050     -0.066     -0.096    24.0671 0.0000e+00
     -0.067 1.5682e-32     7.3397     86.644     35.968  35.006951     0.8128      7.368   345.8247 2.2948e+02     0.2128     -0.066     -0.096    23.9369 0.0000e+00
     -0.067 1.4256e-33     7.8219     92.303     35.960  34.985011     0.8023      7.364   345.2923 2.2929e+02     0.2270     -0.065     -0.095    23.8125 0.0000e+00
     -0.067 1.2960e-34     8.1689     96.378     35.968  34.984077     0.7888      7.359   345.6959 2.2924e+02     0.2547     -0.066     -0.095    23.7338 0.0000e+00
     -0.067 1.1782e-35     8.3707     98.746     35.985  34.995656     0.7872      7.354   346.3164 2.2871e+02     0.2429     -0.066     -0.096    23.6836 0.0000e+00
     -0.067 1.0711e-36     8.4263     99.395     35.990  34.997959     0.8098      7.349   346.5138 2.2836e+02     0.2369     -0.066     -0.096    23.6541 0.0000e+00
     -0.067 9.7371e-38     8.3691     98.716     36.006  35.011923     0.8419      7.345   345.7593 2.2885e+02     0.2736     -0.066     -0.096    23.6356 0.0000e+00
     -0.067 8.8581e-39     8.2552     97.371     36.033  35.037444     0.8535      7.344   344.4213 2.2929e+02     0.2891     -0.066     -0.096    23.6252 0.0000e+00
     -0.067 8.7162e-40     8.1287     95.877     36.049  35.052449     0.8492      7.346   343.6713 2.2908e+02     0.2726     -0.066     -0.095    23.6194 0.0000e+00
     -0.067 8.0928e-40     8.0142     94.527     36.063  35.066307     0.8629      7.349   343.8331 2.2847e+02     0.2563     -0.066     -0.095    23.6158 0.0000e+00
     -0.067 8.1040e-39     7.9208     93.427     36.074  35.077961     0.9004      7.352   344.2270 2.2897e+02     0.2457     -0.066     -0.096    23.6135 0.0000e+00
     -0.067 8.9071e-38     7.8435     92.517     36.062  35.066317     0.9256      7.356   344.3895 2.2948e+02     0.2355     -0.066     -0.096    23.6124 0.0000e+00
     -0.067 9.7978e-37     7.7763     91.725     36.047  35.052563     0.9290      7.361   344.2492 2.2956e+02     0.2245     -0.066     -0.096    23.6120 0.0000e+00
     -0.067 1.0778e-35     7.7139     90.991     36.032  35.038706     0.9225      7.366   343.9930 2.2972e+02     0.2045     -0.066     -0.095    23.6125 0.0000e+00
     -0.067 1.1855e-34     7.6517     90.260     36.017  35.025812     0.8928      7.369   343.7872 2.2906e+02     0.2066     -0.066     -0.096    23.6134 0.0000e+00
     -0.067 1.3041e-33     7.5897     89.534     36.013  35.023712     0.8545      7.370   343.5675 2.2951e+02     0.2200     -0.066     -0.095    23.6144 0.0000e+00
     -0.067 1.4345e-32     7.5309     88.846     36.000  35.013307     0.8461      7.370   343.4024 2.2991e+02     0.2133     -0.066     -0.095    23.6147 0.0000e+00
     -0.067 1.5779e-31     7.4759     88.199     36.013  35.027062     0.8555      7.368   344.0282 2.2906e+02     0.2181     -0.066     -0.095    23.6151 0.0000e+00
     -0.067 1.7357e-30     7.4292     87.650     36.049  35.062978     0.8395      7.364   345.0248 2.2910e+02     0.2166     -0.066     -0.095    23.6178 0.0000e+00
     -0.067 1.9093e-29     7.3988     87.293     36.052  35.066442     0.8094      7.359   345.0423 2.2997e+02     0.1950     -0.065     -0.095    23.6210 0.0000e+00
     -0.067 2.1002e-28     7.3827     87.104     36.053  35.068952     0.8033      7.354   344.6689 2.3085e+02     0.2012     -0.066     -0.095    23.6235 0.0000e+00
     -0.067 2.3103e-27     7.3725     86.986     36.078  35.093327     0.8025      7.350   344.3817 2.3097e+02     0.2308     -0.066     -0.096    23.6254 0.0000e+00
     -0.067 2.5413e-26     7.3620     86.862     36.092  35.107081     0.7903      7.348   343.8928 2.3100e+02     0.2475     -0.066     -0.096    23.6267 0.0000e+00
     -0.067 2.7954e-25     7.3496     86.716     36.093  35.108208     0.7851      7.347   344.2646 2.3086e+02     0.2503     -0.065     -0.095    23.6279 0.0000e+00
     -0.067 3.0750e-24     7.3417     86.624     36.091  35.106948     0.7846      7.347   345.5213 2.2963e+02     0.2646     -0.065     -0.095    23.6281 0.0000e+00
     -0.067 3.3825e-23     7.3462     86.676     36.076  35.091851     0.7848      7.349   346.0958 2.2945e+02     0.2986     -0.065     -0.094    23.6288 0.0000e+00
     -0.067 3.7207e-22     7.3615     86.856     36.036  35.052709     0.8060      7.352   345.9618 2.3044e+02     0.3258     -0.065     -0.095    23.6296 0.0000e+00
     -0.067 4.0928e-21     7.3829     87.106     35.998  35.014806     0.8388      7.356   345.5365 2.3075e+02     0.3487     -0.065     -0.095    23.6302 0.0000e+00
     -0.067 4.5021e-20     7.4101     87.426     35.999  35.014691     0.8511      7.359   344.9106 2.3138e+02     0.3926     -0.065     -0.095    23.6307 0.0000e+00
     -0.067 4.9523e-19     7.4406     87.784     36.037  35.051314     0.8529      7.362   345.0196 2.3289e+02     0.4606     -0.066     -0.096    23.6301 0.0000e+00
     -0.067 5.4475e-18     7.4658     88.082     36.063  35.076494     0.8424      7.365   345.8216 2.3434e+02     0.4373     -0.066     -0.096    23.6292 0.0000e+00
     -0.067 5.9922e-17     7.4752     88.193     36.051  35.065056     0.8065      7.366   346.3474 2.3706e+02     0.2943     -0.065     -0.095    23.6278 0.0000e+00
     -0.067 6.5915e-16     7.4632     88.052     36.025  35.040066     0.7772      7.366   346.4735 2.3986e+02     0.1958     -0.066     -0.095    23.6270 0.0000e+00
     -0.067 7.2506e-15     7.4388     87.765     36.013  35.028413     0.7738      7.364   346.3999 2.4369e+02     0.1924     -0.066     -0.095    23.6266 0.0000e+00
     -0.067 7.9757e-14     7.4173     87.512     36.036  35.051198     0.7931      7.361   345.9738 2.4834e+02     0.2230     -0.066     -0.096    23.6262 0.0000e+00
     -0.067 1.4622e-13     7.4054     87.372     36.047  35.061486     0.8258      7.357   345.4519 2.4798e+02     0.2305     -0.065     -0.095    23.6266 0.0000e+00
     -0.067 7.9760e-14     7.4012     87.323     36.010  35.025769     0.8477      7.355   345.3381 2.4904e+02     0.2226     -0.066     -0.095    23.6277 0.0000e+00
     -0.067 7.2505e-15     7.4003     87.313     35.983  35.000466     0.8562      7.353   345.6305 2.5119e+02     0.2188     -0.066     -0.095    23.6281 0.0000e+00
     -0.067 6.5915e-16     7.4015     87.327     35.992  35.009628     0.8643      7.351   346.0619 2.4969e+02     0.2152     -0.065     -0.095    23.6281 0.0000e+00
     -0.067 5.9925e-17     7.4054     87.374     35.991  35.009505     0.8632      7.349   346.1655 2.4875e+02     0.2394     -0.066     -0.095    23.6279 0.0000e+00
     -0.067 5.4475e-18     7.4069     87.395     35.979  34.998975     0.8510      7.349   345.3350 2.4690e+02     0.2371     -0.065     -0.095    23.6278 0.0000e+00
     -0.067 4.9523e-19     7.3996     87.311     35.989  35.009358     0.8455      7.349   344.1932 2.4445e+02     0.1876     -0.066     -0.095    23.6284 0.0000e+00
     -0.067 4.5023e-20     7.3840     87.129     35.987  35.008004     0.8429      7.350   343.8891 2.4219e+02     0.1899     -0.065     -0.094    23.6288 0.0000e+00
     -0.067 4.1125e-21     7.3690     86.957     35.959  34.982606     0.8380      7.354   344.1531 2.3899e+02     0.2348     -0.065     -0.095    23.6296 0.0000e+00
     -0.067 5.8858e-22     7.3651     86.914     35.931  34.956356     0.8414      7.358   344.5469 2.3445e+02     0.2421     -0.066     -0.095    23.6307 0.0000e+00
     -0.067 2.4154e-21     7.3789     87.079     35.918  34.944704     0.8474      7.362   344.7784 2.3188e+02     0.2174     -0.066     -0.095    23.6321 0.0000e+00
     -0.066 2.6200e-20     7.4105     87.453     35.942  34.968757     0.8468      7.365   344.3705 2.3152e+02     0.1799     -0.065     -0.094    23.6340 0.0000e+00
     -0.066 2.8817e-19     7.4509     87.930     35.967  34.993104     0.8516      7.366   343.5729 2.3059e+02     0.1854     -0.065     -0.094    23.6363 0.0000e+00
     -0.066 3.1698e-18     7.4902     88.392     35.959  34.985000     0.8600      7.365   343.1361 2.3010e+02     0.2536     -0.065     -0.095    23.6389 0.0000e+00
     -0.066 3.4868e-17     7.5193     88.733     35.973  34.997808     0.8563      7.363   343.0481 2.3001e+02     0.2720     -0.065     -0.094    23.6400 0.0000e+00
     -0.067 3.8355e-16     7.5309     88.868     35.997  35.020925     0.8528      7.360   343.1966 2.3072e+02     0.2245     -0.066     -0.095    23.6409 0.0000e+00
     -0.067 4.2191e-15     7.5239     88.784     35.987  35.010417     0.8540      7.357   343.6410 2.3032e+02     0.1983     -0.065     -0.095    23.6412 0.0000e+00
     -0.067 4.6410e-14     7.5008     88.510     35.975  34.997798     0.8530      7.354   343.7745 2.2889e+02     0.2293     -0.066     -0.095    23.6401 0.0000e+00
     -0.067 5.1051e-13     7.4639     88.075     35.973  34.995403     0.8591      7.349   343.5213 2.2929e+02     0.2644     -0.065     -0.095    23.6391 0.0000e+00
     -0.067 5.6156e-12     7.4174     87.527     35.958  34.981450     0.8640      7.344   343.3329 2.2929e+02     0.2569     -0.065     -0.094    23.6379 0.0000e+00
     -0.067 6.1771e-11     7.3713     86.984     35.932  34.956138     0.8567      7.339   343.1317 2.2855e+02     0.2293     -0.065     -0.095    23.6366 0.0000e+00
     -0.066 6.7948e-10     7.3378     86.589     35.918  34.943434     0.8527      7.334   342.8088 2.2880e+02     0.2048     -0.065     -0.094    23.6360 0.0000e+00
     -0.066 7.4743e-09     7.3240     86.428     35.929  34.954887     0.8526      7.330   343.2146 2.2913e+02     0.2058     -0.065     -0.094    23.6359 0.0000e+00
     -0.066 8.2218e-08     7.3292     86.488     35.943  34.967571     0.8459      7.329   344.2524 2.3000e+02     0.2107     -0.065     -0.094    23.6362 0.0000e+00
     -0.066 9.0439e-07     7.3449     86.673     35.946  34.969757     0.8366      7.330   344.6017 2.3081e+02     0.2032     -0.065     -0.094    23.6371 0.0000e+00
     -0.067      0.000     7.3640     86.897     35.958  34.981314     0.8413      7.334   344.3401 2.3018e+02     0.2060     -0.066     -0.095    23.6376 0.0000e+00
     -0.067      0.000     7.3825     87.113     35.957  34.980273     0.8563      7.340   343.8426 2.2913e+02     0.2143     -0.066     -0.095    23.6377 0.0000e+00
     -0.067      0.001     7.3985     87.302     35.934  34.957176     0.8528      7.346   343.2334 2.2974e+02     0.2124     -0.066     -0.095    23.6375 0.0000e+00
     -0.067      0.003     7.4126     87.467     35.934  34.956126     0.8452      7.352   343.3404 2.3094e+02     0.1824     -0.065     -0.095    23.6371 0.0000e+00
     -0.066      0.006     7.4213     87.569     35.947  34.967572     0.8475      7.353   344.1034 2.3069e+02     0.1572     -0.065     -0.095    23.6362 0.0000e+00
     -0.064      0.007     7.4228     87.583     35.949  34.968529     0.8533      7.341   344.7155 2.3145e+02     0.1827     -0.063     -0.092    23.6356 0.0000e+00
     -0.062      0.004     7.4223     87.573     35.949  34.967699     0.8687      7.340   344.8918 2.3564e+02     0.2154     -0.061     -0.088    23.6354 0.0000e+00
     -0.059     -0.005     7.4238     87.588     35.940  34.957524     0.8684      7.371   344.2558 2.5987e+02     0.2167     -0.060     -0.087    23.6347 0.0000e+00
     -0.053     -0.016     7.4244     87.594     35.956  34.972539     0.8315      7.418   343.1340 4.9820e+02     0.2602     -0.052     -0.075    23.6335 0.0000e+00
     -0.052     -0.024     7.4178     87.516     36.007  35.022209     0.7895      7.455   342.5997 9.7229e+02     0.3752     -0.043     -0.061    23.6318 0.0000e+00
     -0.069     -0.027     7.3987     87.296     36.034  35.049926     0.7744      7.470   342.8715 1.2834e+03     0.4469     -0.064     -0.094    23.6295 0.0000e+00
     -0.094     -0.026     7.3666     86.922     36.034  35.053582     0.7784      7.470   343.2373 1.3292e+03     0.4554     -0.099     -0.143    23.6273 0.0000e+00
     -0.106     -0.025     7.3221     86.404     36.044  35.066418     0.7539      7.470   343.2368 1.3090e+03     0.4475     -0.110     -0.159    23.6263 0.0000e+00
     -0.104     -0.023     7.2679     85.770     36.054  35.078091     0.6991      7.475   343.0373 1.2621e+03     0.4123     -0.105     -0.152    23.6268 0.0000e+00
     -0.095     -0.019     7.2061     85.045     36.041  35.067680     0.6766      7.480   342.8041 1.2022e+03     0.3961     -0.091     -0.132    23.6288 0.0000e+00
     -0.093     -0.015     7.1379     84.242     36.040  35.067575     0.6841      7.481   342.3095 1.1800e+03     0.4352     -0.084     -0.121    23.6324 0.0000e+00
     -0.105     -0.016     7.0668     83.406     36.049  35.076832     0.6881      7.482   341.6171 1.1113e+03     0.4581     -0.102     -0.148    23.6374 0.0000e+00
     -0.120     -0.018     6.9963     82.576     36.022  35.052570     0.6982      7.484   341.3160 8.8460e+02     0.4286     -0.122     -0.177    23.6409 0.0000e+00
     -0.126     -0.018     6.9288     81.786     35.995  35.028308     0.7141      7.487   341.1648 5.9425e+02     0.4142     -0.124     -0.180    23.6429 0.0000e+00
     -0.127     -0.014     6.8655     81.047     36.000  35.037565     0.7152      7.487   341.0790 3.8387e+02     0.4362     -0.123     -0.179    23.6446 0.0000e+00
     -0.127     -0.006     6.8055     80.350     35.994  35.037459     0.7115      7.485   341.3112 2.7911e+02     0.4506     -0.125     -0.181    23.6458 0.0000e+00
     -0.127      0.001     6.7487     79.689     35.979  35.027035     0.7242      7.483   340.7030 2.4589e+02     0.4353     -0.124     -0.180    23.6485 0.0000e+00
     -0.126      0.004     6.6972     79.089     35.987  35.038573     0.7302      7.481   339.1457 2.4231e+02     0.4035     -0.123     -0.179    23.6513 0.0000e+00
     -0.125      0.006     6.6539     78.585     35.995  35.049931     0.7207      7.480   338.2276 2.4436e+02     0.4030     -0.123     -0.179    23.6567 0.0000e+00
     -0.124      0.008     6.6161     78.147     35.978  35.037333     0.7196      7.478   338.2915 2.5871e+02     0.4293     -0.122     -0.177    23.6655 0.0000e+00
     -0.121      0.011     6.5785     77.708     35.950  35.013288     0.7266      7.478   338.6278 3.2141e+02     0.4160     -0.119     -0.173    23.6726 0.0000e+00
     -0.118      0.014     6.5361     77.213     35.947  35.013297     0.7311      7.478   338.2503 4.6953e+02     0.3948     -0.116     -0.168    23.6773 0.0000e+00
     -0.115      0.016     6.4879     76.648     35.969  35.037446     0.7283      7.475   337.1680 6.8987e+02     0.4172     -0.113     -0.163    23.6821 0.0000e+00
     -0.110      0.017     6.4377     76.059     35.981  35.051191     0.7202      7.473   336.4693 9.2402e+02     0.4422     -0.108     -0.156    23.6872 0.0000e+00
     -0.104      0.016     6.3872     75.467     35.981  35.052449     0.7342      7.472   336.3418 1.1140e+03     0.3926     -0.102     -0.148    23.6914 0.0000e+00
     -0.098      0.014     6.3371     74.878     35.979  35.052667     0.7686      7.470   336.4860 1.2266e+03     0.2749     -0.096     -0.138    23.6949 0.0000e+00
     -0.093      0.010     6.2875     74.296     35.978  35.053823     0.7868      7.469   336.7506 1.2733e+03     0.1791     -0.089     -0.130    23.6981 0.0000e+00
     -0.092      0.006     6.2368     73.701     35.990  35.066432     0.7888      7.468   337.1316 1.2858e+03     0.1486     -0.090     -0.131    23.7017 0.0000e+00
     -0.093      0.003     6.1866     73.109     36.001  35.078086     0.7930      7.468   337.4786 1.2868e+03     0.1818     -0.092     -0.133    23.7042 0.0000e+00
     -0.094      0.001     6.1390     72.548     35.989  35.067683     0.8008      7.467   337.5054 1.2948e+03     0.2143     -0.092     -0.134    23.7064 0.0000e+00
     -0.094     -0.001     6.0929     72.004     35.988  35.067698     0.8000      7.464   337.2835 1.3032e+03     0.2056     -0.093     -0.135    23.7095 0.0000e+00
     -0.094     -0.001     6.0476     71.470     35.997  35.078258     0.7926      7.462   337.0321 1.3052e+03     0.1994     -0.092     -0.134    23.7120 0.0000e+00
     -0.094      0.000     6.0026     70.942     35.986  35.068332     0.8129      7.461   337.0476 1.3052e+03     0.2614     -0.092     -0.134    23.7131 0.0000e+00
     -0.094 -1.843e-08     5.9574     70.411     35.991  35.074726     0.8528      7.460   337.9013 1.3027e+03     0.3739     -0.092     -0.133    23.7143 0.0000e+00
     -0.094 -2.027e-07     5.9134     69.894     36.007  35.092048     0.8614      7.458   339.1798 1.3021e+03     0.4307     -0.092     -0.133    23.7158 0.0000e+00
     -0.094 -2.027e-07     5.8714     69.400     36.001  35.087219     0.8532      7.457   339.6005 1.3014e+03     0.4302     -0.092     -0.134    23.7169 0.0000e+00
     -0.094 -1.843e-08     5.8296     68.908     35.993  35.079860     0.8538      7.456   339.5463 1.2997e+03     0.4285     -0.092     -0.134    23.7189 0.0000e+00
     -0.094 -1.675e-09     5.7888     68.428     35.978  35.066593     0.8501      7.455   339.3844 1.2985e+03     0.3805     -0.092     -0.133    23.7217 0.0000e+00
     -0.094 -1.523e-10     5.7498     67.970     35.963  35.053848     0.8454      7.455   338.9335 1.2851e+03     0.2769     -0.092     -0.133    23.7243 0.0000e+00
     -0.093 -1.384e-11     5.7098     67.499     35.961  35.052803     0.8524      7.455   339.3424 1.2420e+03     0.2128     -0.092     -0.133    23.7254 0.0000e+00
     -0.093 -1.259e-12     5.6696     67.024     35.961  35.053957     0.8614      7.454   340.4567 1.1471e+03     0.1849     -0.091     -0.132    23.7265 0.0000e+00
     -0.093 -1.145e-13     5.6316     66.578     35.974  35.067806     0.8623      7.453   340.8773 9.9429e+02     0.1841     -0.092     -0.133    23.7288 0.0000e+00
     -0.094 -1.202e-14     5.5958     66.157     35.998  35.093213     0.8624      7.452   340.5567 8.0489e+02     0.2337     -0.092     -0.134    23.7306 0.0000e+00
     -0.094 -1.881e-14     5.5614     65.753     36.011  35.107072     0.8534      7.452   340.1073 6.0579e+02     0.2354     -0.092     -0.134    23.7320 0.0000e+00
     -0.094 -1.966e-13     5.5275     65.354     36.011  35.108332     0.8457      7.452   340.1758 4.3624e+02     0.1748     -0.091     -0.132    23.7340 0.0000e+00
     -0.094 -2.162e-12     5.4939     64.958     36.010  35.108446     0.8520      7.452   340.7824 3.2524e+02     0.2026     -0.092     -0.134    23.7359 0.0000e+00
     -0.093 -2.378e-11     5.4609     64.572     36.008  35.108457     0.8566      7.451   341.2469 2.6871e+02     0.3276     -0.092     -0.133    23.7378 0.0000e+00
     -0.093 -2.616e-10     5.4298     64.207     36.006  35.108462     0.8556      7.450   341.4054 2.4816e+02     0.4041     -0.091     -0.132    23.7397 0.0000e+00
     -0.093 -2.877e-09     5.4006     63.864     36.005  35.108514     0.8482      7.449   341.4941 2.4319e+02     0.4253     -0.092     -0.133    23.7408 0.0000e+00
     -0.093 -3.165e-08     5.3720     63.528     36.003  35.109085     0.8402      7.449   341.4589 2.4205e+02     0.4315     -0.091     -0.132    23.7425 0.0000e+00
     -0.093 -3.482e-07     5.3435     63.195     36.008  35.115374     0.8418      7.448   340.9795 2.4151e+02     0.4189     -0.092     -0.133    23.7449 0.0000e+00
     -0.093     -0.000     5.3162     62.875     36.012  35.121034     0.8490      7.448   340.3437 2.4162e+02     0.4252     -0.092     -0.133    23.7475 0.0000e+00
     -0.093     -0.000     5.2912     62.582     36.003  35.113999     0.8541      7.449   340.2247 2.4236e+02     0.4464     -0.092     -0.133    23.7498 0.0000e+00
     -0.093     -0.000     5.2676     62.304     35.981  35.093840     0.8490      7.449   340.5734 2.4305e+02     0.3999     -0.092     -0.133    23.7521 0.0000e+00
     -0.093     -0.005     5.2451     62.041     35.953  35.067859     0.8339      7.445   341.1184 2.4464e+02     0.2910     -0.091     -0.132    23.7546 0.0000e+00
     -0.093     -0.016     5.2296     61.861     35.936  35.053947     0.8278      7.435   341.4786 2.4789e+02     0.2275     -0.091     -0.131    23.7574 0.0000e+00
     -0.093     -0.027     5.2370     61.956     35.931  35.052672     0.8388      7.421   340.5414 2.5852e+02     0.2122     -0.090     -0.130    23.7596 0.0000e+00
     -0.096     -0.030     5.2945     62.639     35.928  35.052453     0.8470      7.408   338.4761 2.6472e+02     0.1973     -0.088     -0.128    23.7614 0.0000e+00
     -0.113     -0.024     5.4285     64.223     35.928  35.051298     0.8444      7.400   337.1566 2.5222e+02     0.2303     -0.103     -0.150    23.7621 0.0000e+00
     -0.139     -0.013     5.6521     66.871     35.914  35.038707     0.8436      7.396   337.1503 2.4232e+02     0.3378     -0.143     -0.207    23.7636 0.0000e+00
     -0.150      0.002     5.9531     70.437     35.899  35.027252     0.8466      7.392   337.6250 2.4213e+02     0.4284     -0.158     -0.229    23.7743 0.0000e+00
     -0.137      0.017     6.2870     74.392     35.910  35.039842     0.8543      7.390   337.8197 2.4103e+02     0.4399     -0.137     -0.198    23.7788 0.0000e+00
     -0.114      0.029     6.5939     78.024     35.934  35.063894     0.8716      7.392   337.5255 2.4006e+02     0.3551     -0.110     -0.160    23.7718 0.0000e+00
     -0.096      0.035     6.8255     80.766     35.934  35.063991     0.8998      7.397   336.9066 2.3932e+02     0.2281     -0.090     -0.130    23.7739 0.0000e+00
     -0.086      0.030     6.9561     82.311     35.910  35.041006     0.9198      7.402   336.3601 2.3886e+02     0.1853     -0.082     -0.118    23.7805 0.0000e+00
     -0.084      0.017     6.9846     82.648     35.910  35.040070     0.9198      7.407   336.1652 2.3888e+02     0.2039     -0.081     -0.119    23.7838 0.0000e+00
     -0.085      0.006     6.9276     81.971     35.924  35.052670     0.8994      7.412   336.1855 2.3931e+02     0.1789     -0.083     -0.121    23.7844 0.0000e+00
     -0.087     -0.000     6.8087     80.561     35.939  35.066310     0.8663      7.417   336.3475 2.4005e+02     0.1269     -0.085     -0.123    23.7841 0.0000e+00
     -0.091      0.000     6.6591     78.786     35.954  35.077954     0.8504      7.422   336.5748 2.3987e+02     0.1245     -0.090     -0.131    23.7847 0.0000e+00
     -0.093      0.004     6.5112     77.029     35.946  35.066415     0.8453      7.421   336.7828 2.3921e+02     0.1807     -0.093     -0.134    23.7833 0.0000e+00
     -0.091      0.008     6.3846     75.520     35.939  35.053826     0.8133      7.415   336.7975 2.4005e+02     0.2258     -0.089     -0.128    23.7814 0.0000e+00
     -0.086      0.009     6.2825     74.300     35.944  35.052777     0.7491      7.409   336.4086 2.4159e+02     0.2121     -0.085     -0.123    23.7800 0.0000e+00
     -0.081      0.009     6.2018     73.334     35.951  35.053725     0.7035      7.407   336.0388 2.4211e+02     0.1981     -0.081     -0.117    23.7770 0.0000e+00
     -0.075      0.007     6.1384     72.572     35.969  35.065275     0.7030      7.408   336.7140 2.4269e+02     0.2094     -0.071     -0.103    23.7719 0.0000e+00
     -0.074      0.003     6.0869     71.950     35.977  35.065371     0.7333      7.410   337.9479 2.4338e+02     0.1962     -0.069     -0.100    23.7646 0.0000e+00
     -0.077     -0.001     6.0454     71.447     35.973  35.054873     0.7761      7.411   338.3094 2.4348e+02     0.1602     -0.076     -0.110    23.7539 0.0000e+00
     -0.081     -0.003     6.0143     71.071     35.988  35.065382     0.7878      7.414   338.0744 2.4322e+02     0.1411     -0.079     -0.115    23.7462 0.0000e+00
     -0.083     -0.003     5.9926     70.808     35.992  35.065381     0.7740      7.415   337.6871 2.4289e+02     0.1476     -0.081     -0.118    23.7392 0.0000e+00
     -0.083     -0.001     5.9798     70.651     35.984  35.054855     0.7753      7.415   337.1540 2.4312e+02     0.1473     -0.082     -0.119    23.7269 0.0000e+00
     -0.083      0.000     5.9770     70.615     35.996  35.065152     0.8030      7.415   337.3940 2.4390e+02     0.1383     -0.081     -0.118    23.7174 0.0000e+00
     -0.082     -0.004     5.9840     70.698     35.994  35.062852     0.8522      7.416   338.4380 2.4445e+02     0.1600     -0.082     -0.118    23.7121 0.0000e+00
     -0.078     -0.011     5.9981     70.866     35.957  35.027033     0.8734      7.419   339.1077 2.4462e+02     0.1961     -0.077     -0.111    23.7067 0.0000e+00
     -0.077     -0.017     6.0164     71.085     35.941  35.013183     0.8573      7.420   339.1241 2.4435e+02     0.2089     -0.072     -0.105    23.7030 0.0000e+00
     -0.085     -0.022     6.0355     71.317     35.947  35.022441     0.8406      7.420   338.8947 2.4358e+02     0.2231     -0.079     -0.115    23.7005 0.0000e+00
     -0.100     -0.024     6.0500     71.502     35.929  35.011932     0.8190      7.420   338.8283 2.4861e+02     0.2153     -0.100     -0.144    23.7002 0.0000e+00
     -0.113     -0.024     6.0585     71.621     35.919  35.013180     0.7981      7.419   338.8376 3.1199e+02     0.1453     -0.116     -0.167    23.7013 0.0000e+00
     -0.117     -0.019     6.0666     71.735     35.934  35.037544     0.7911      7.416   338.7497 6.0496e+02     0.1085     -0.116     -0.168    23.7028 0.0000e+00
     -0.117     -0.012     6.0801     71.909     35.942  35.052443     0.8073      7.416   338.7115 1.0448e+03     0.1675     -0.114     -0.166    23.7067 0.0000e+00
     -0.117     -0.003     6.1005     72.162     35.950  35.066290     0.8380      7.417   338.7209 1.2706e+03     0.2483     -0.116     -0.168    23.7163 0.0000e+00
     -0.117      0.004     6.1260     72.475     35.955  35.077942     0.8492      7.417   338.6907 1.2909e+03     0.2618     -0.115     -0.167    23.7337 0.0000e+00
     -0.116      0.011     6.1532     72.808     35.938  35.066288     0.8510      7.416   337.8298 1.2864e+03     0.2395     -0.114     -0.165    23.7486 0.0000e+00
     -0.115      0.018     6.1774     73.103     35.919  35.052439     0.8596      7.413   336.5726 1.2773e+03     0.2532     -0.114     -0.165    23.7579 0.0000e+00
     -0.112      0.026     6.1918     73.279     35.901  35.037549     0.8620      7.408   336.3960 1.2487e+03     0.2743     -0.111     -0.161    23.7656 0.0000e+00
     -0.103      0.034     6.1917     73.281     35.874  35.013285     0.8615      7.403   336.7258 1.1857e+03     0.2812     -0.102     -0.148    23.7733 0.0000e+00
     -0.091      0.040     6.1749     73.082     35.874  35.013149     0.8625      7.397   337.0325 1.0841e+03     0.2450     -0.089     -0.130    23.7822 0.0000e+00
     -0.077      0.043     6.1419     72.689     35.899  35.035912     0.8560      7.389   337.3505 9.6739e+02     0.2028     -0.075     -0.110    23.7891 0.0000e+00
     -0.064      0.043     6.0978     72.159     35.902  35.034424     0.8473      7.379   336.6130 8.7787e+02     0.1980     -0.062     -0.091    23.7927 0.0000e+00
     -0.052      0.040     6.0467     71.538     35.870  34.995146     0.8491      7.370   335.2574 8.0892e+02     0.1870     -0.050     -0.073    23.7942 0.0000e+00
     -0.042      0.035     5.9996     70.957     35.829  34.942117     0.8588      7.361   334.8129 7.5116e+02     0.1929     -0.040     -0.059    23.7952 0.0000e+00
     -0.034      0.028     5.9714     70.596     35.803  34.901396     0.8638      7.354   334.8514 6.9289e+02     0.2078     -0.033     -0.049    23.7937 0.0000e+00
     -0.028      0.015     5.9690     70.544     35.798  34.883885     0.8724      7.351   334.9487 6.2650e+02     0.2748     -0.028     -0.040    23.7889 0.0000e+00
     -0.023     -0.005     6.0090     70.994     35.783  34.857419     0.8899      7.358   335.6456 5.7781e+02     0.3926     -0.022     -0.032    23.7775 0.0000e+00
     -0.019     -0.033     6.1150     72.226     35.771  34.835458     0.9010      7.367   336.5663 5.4816e+02     0.4426     -0.017     -0.025    23.7576 0.0000e+00
     -0.021     -0.063     6.2854     74.220     35.819  34.872416     0.9051      7.369   336.8752 5.3934e+02     0.4513     -0.016     -0.024    23.7353 0.0000e+00
     -0.040     -0.092     6.4903     76.620     35.881  34.923148     0.8935      7.364   336.3686 5.6803e+02     0.4064     -0.029     -0.044    23.7160 0.0000e+00
     -0.080     -0.117     6.6951     79.024     35.907  34.940683     0.8713      7.356   335.4316 6.4525e+02     0.3580     -0.076     -0.110    23.7011 0.0000e+00
     -0.127     -0.133     6.8679     81.064     35.923  34.957384     0.8667      7.353   334.7525 7.9391e+02     1.0556     -0.130     -0.188    23.6866 0.0000e+00
     -0.167     -0.135     6.9861     82.487     35.952  34.998043     0.9112      7.354   334.7824 9.9794e+02     9.4822     -0.164     -0.239    23.6730 0.0000e+00
     -0.204     -0.122     7.0579     83.383     35.984  35.051177     1.4178      7.356   335.5340 1.1734e+03   102.2427     -0.199     -0.288    23.6597 0.0000e+00
     -0.239     -0.098     7.1168     84.134     35.999  35.091702     2.3517      7.356   336.2690 1.2629e+03   272.2916     -0.238     -0.345    23.6461 0.0000e+00
     -0.264     -0.072     7.1875     85.019     35.991  35.106937     2.8656      7.356   336.2698 1.2898e+03   364.9091     -0.266     -0.386    23.6431 0.0000e+00
     -0.274     -0.050     7.2715     86.051     35.976  35.108382     2.9532      7.358   335.8881 1.2957e+03   371.5655     -0.272     -0.395    23.6620 0.0000e+00
     -0.274     -0.030     7.3556     87.072     35.965  35.109192     3.3473      7.363   335.6116 1.2968e+03   352.6520     -0.268     -0.389    23.6977 0.0000e+00
     -0.274     -0.015     7.4261     87.924     35.965  35.116752     4.0459      7.367   336.2821 1.2978e+03   316.6494     -0.268     -0.388    23.7354 0.0000e+00
     -0.277     -0.005     7.4802     88.576     35.979  35.136281     4.4154      7.371   337.6279 1.2928e+03   297.1074     -0.272     -0.395    23.7677 0.0000e+00
     -0.280     -0.000     7.5131     88.975     35.994  35.154758     4.3870      7.373   338.2890 1.2629e+03   296.8856     -0.276     -0.400    23.7907 0.0000e+00
     -0.280      0.005     7.5122     88.971     35.986  35.149608     3.6204      7.372   338.5114 1.0884e+03   313.8755     -0.275     -0.399    23.8055 0.0000e+00
     -0.279      0.013     7.4721     88.502     35.972  35.137537     2.1860      7.364   338.6829 7.0779e+02   345.2103     -0.273     -0.396    23.8159 0.0000e+00
     -0.276      0.022     7.4021     87.676     35.968  35.135852     1.3980      7.351   338.6416 3.7182e+02   361.5983     -0.272     -0.394    23.8232 0.0000e+00
     -0.271      0.028     7.3164     86.663     35.960  35.129233     1.3162      7.341   338.7005 3.1178e+02   355.1293     -0.269     -0.389    23.8283 0.0000e+00
     -0.260      0.030     7.2291     85.627     35.953  35.121025     1.2889      7.338   339.1363 5.6408e+02   267.5118     -0.258     -0.373    23.8320 0.0000e+00
     -0.245      0.030     7.1548     84.731     35.939  35.100122     1.1602      7.340   339.6955 9.7595e+02   104.4508     -0.237     -0.344    23.8350 0.0000e+00
     -0.234      0.028     7.0974     84.018     35.921  35.067050     0.9280      7.344   339.9550 1.2332e+03    11.9560     -0.226     -0.328    23.8374 0.0000e+00
     -0.230      0.024     7.0548     83.468     35.913  35.038743     0.7966      7.350   339.8642 1.2941e+03     1.2295     -0.225     -0.327    23.8386 0.0000e+00
     -0.229      0.019     7.0271     83.098     35.906  35.011910     0.7746      7.357   339.8019 1.3081e+03     0.3018     -0.225     -0.327    23.8398 0.0000e+00
     -0.226      0.016     7.0125     82.890     35.907  34.996663     0.7545      7.361   339.7188 1.3170e+03     0.3117     -0.222     -0.321    23.8327 0.0000e+00
     -0.222      0.016     7.0097     82.831     35.903  34.981411     0.7370      7.361   339.3754 1.3217e+03     0.4023     -0.218     -0.316    23.8080 0.0000e+00
     -0.218      0.017     7.0144     82.873     35.883  34.954525     0.7292      7.361   339.2631 1.3214e+03     0.4517     -0.215     -0.312    23.7765 0.0000e+00
     -0.212      0.017     7.0217     82.948     35.858  34.925651     0.7243      7.363   339.5664 1.3178e+03     0.4215     -0.209     -0.302    23.7488 0.0000e+00
     -0.206      0.017     7.0307     83.043     35.823  34.886374     0.7238      7.366   339.9446 1.3150e+03     0.3420     -0.201     -0.291    23.7243 0.0000e+00
     -0.202      0.016     7.0424     83.167     35.804  34.860748     0.7220      7.370   340.0508 1.3118e+03     0.2532     -0.197     -0.286    23.7068 0.0000e+00
     -0.200      0.015     7.0587     83.344     35.820  34.869872     0.7220      7.373   339.4735 1.3069e+03     0.2020     -0.196     -0.285    23.7004 0.0000e+00
     -0.197      0.013     7.0787     83.568     35.825  34.869643     0.7239      7.376   338.6425 1.3020e+03     0.1815     -0.193     -0.280    23.6963 0.0000e+00
     -0.194      0.013     7.1003     83.813     35.819  34.857970     0.7172      7.376   338.4350 1.3001e+03     0.1877     -0.190     -0.274    23.6880 0.0000e+00
     -0.190      0.011     7.1147     83.974     35.820  34.855765     0.7144      7.373   338.6001 1.3021e+03     0.2166     -0.186     -0.269    23.6777 0.0000e+00
     -0.186      0.005     7.1070     83.880     35.809  34.842977     0.7184      7.369   338.7463 1.3076e+03     0.2247     -0.183     -0.265    23.6681 0.0000e+00
     -0.183     -0.005     7.0735     83.484     35.796  34.830380     0.7194      7.369   338.8258 1.3140e+03     0.2253     -0.179     -0.260    23.6602 0.0000e+00
     -0.180     -0.018     7.0148     82.790     35.796  34.830505     0.7345      7.371   338.4425 1.3172e+03     0.2243     -0.175     -0.253    23.6536 0.0000e+00
     -0.184     -0.029     6.9344     81.839     35.811  34.844488     0.7637      7.374   337.8118 1.3187e+03     0.2124     -0.176     -0.253    23.6472 0.0000e+00
     -0.199     -0.036     6.8434     80.763     35.841  34.872406     0.7878      7.377   337.6528 1.3180e+03     0.2029     -0.194     -0.280    23.6448 0.0000e+00
     -0.219     -0.039     6.7512     79.671     35.886  34.913971     0.8050      7.380   337.8964 1.3142e+03     0.2013     -0.217     -0.315    23.6470 0.0000e+00
     -0.234     -0.036     6.6662     78.666     35.940  34.965931     0.8060      7.383   338.0896 1.3145e+03     0.2235     -0.231     -0.335    23.6463 0.0000e+00
     -0.242     -0.028     6.5930     77.807     35.965  34.992492     0.7919      7.386   338.2679 1.3148e+03     0.2878     -0.239     -0.346    23.6441 0.0000e+00
     -0.244     -0.017     6.5309     77.086     35.947  34.981047     0.7812      7.388   338.5041 1.3133e+03     0.3685     -0.241     -0.350    23.6429 0.0000e+00
     -0.244     -0.006     6.4775     76.467     35.914  34.954587     0.7772      7.388   338.4501 1.3146e+03     0.4064     -0.240     -0.348    23.6400 0.0000e+00
     -0.242      0.002     6.4279     75.889     35.882  34.926660     0.7805      7.389   338.0458 1.3147e+03     0.4104     -0.238     -0.345    23.6362 0.0000e+00
     -0.240      0.011     6.3775     75.298     35.851  34.897475     0.8030      7.386   337.2292 1.3144e+03     0.3854     -0.236     -0.342    23.6401 0.0000e+00
     -0.240      0.029     6.3250     74.679     35.807  34.855785     0.8374      7.375   335.7182 1.3166e+03     0.3182     -0.235     -0.341    23.6507 0.0000e+00
     -0.238      0.064     6.2761     74.099     35.755  34.803708     0.8564      7.361   333.8863 1.3185e+03     0.2697     -0.235     -0.341    23.6592 0.0000e+00
     -0.233      0.114     6.2446     73.720     35.730  34.775964     0.8583      7.354   331.8578 1.3208e+03     0.2560     -0.233     -0.336    23.6640 0.0000e+00
     -0.213      0.168     6.2417     73.673     35.735  34.774410     0.8236      7.352   329.9482 1.3201e+03     0.2745     -0.222     -0.320    23.6660 0.0000e+00
     -0.160      0.207     6.2663     73.948     35.754  34.784906     0.7495      7.352   329.4673 1.3019e+03     0.3411     -0.172     -0.250    23.6665 0.0000e+00
     -0.074      0.207     6.3130     74.483     35.752  34.775820     0.7157      7.353   330.5178 1.1549e+03     0.4211     -0.078     -0.113    23.6659 0.0000e+00
      0.025      0.159     6.3846     75.316     35.710  34.728058     0.7275      7.356   332.2389 8.8036e+02     0.4485      0.029      0.043    23.6618 0.0000e+00
      0.106      0.076     6.4933     76.591     35.701  34.715564     0.7180      7.358   334.5326 8.4007e+02     0.3358      0.122      0.176    23.6513 0.0000e+00
      0.131     -0.020     6.6383     78.296     35.741  34.751796     0.6919      7.357   336.5680 1.0888e+03     0.1273      0.161      0.234    23.6390 0.0000e+00
      0.075     -0.106     6.7933     80.121     35.776  34.785022     0.6789      7.354   337.3181 1.2624e+03     0.0028      0.095      0.139    23.6281 0.0000e+00
     -0.031     -0.168     6.9308     81.751     35.787  34.799695     0.6797      7.354   337.3220 1.2894e+03    -0.0101     -0.041     -0.059    23.6182 0.0000e+00
     -0.121     -0.194     7.0398     83.053     35.782  34.802173     0.6928      7.356   337.2166 1.2955e+03     0.0932     -0.141     -0.204    23.6131 0.0000e+00
     -0.165     -0.181     7.1181     83.993     35.787  34.814996     0.6997      7.358   337.0759 1.3117e+03     0.2751     -0.171     -0.247    23.6110 0.0000e+00
     -0.184     -0.139     7.1655     84.565     35.795  34.827710     0.6893      7.359   337.1696 1.3205e+03     0.3582     -0.178     -0.258    23.6073 0.0000e+00
     -0.203     -0.092     7.1874     84.832     35.792  34.828866     0.6769      7.362   337.5746 1.3220e+03     0.3653     -0.197     -0.286    23.6110 0.0000e+00
     -0.223     -0.058     7.1886     84.854     35.789  34.828971     0.7157      7.365   337.9296 1.3206e+03     0.4530     -0.223     -0.322    23.6249 0.0000e+00
     -0.237     -0.039     7.1708     84.650     35.786  34.828989     0.8089      7.366   338.1929 1.3148e+03     0.5944     -0.234     -0.340    23.6371 0.0000e+00
     -0.243     -0.027     7.1376     84.264     35.784  34.829093     0.8565      7.368   338.4353 1.3111e+03     0.6405     -0.239     -0.347    23.6441 0.0000e+00
     -0.245     -0.016     7.0925     83.735     35.784  34.830238     0.8500      7.370   338.2787 1.3076e+03     0.6138     -0.242     -0.351    23.6484 0.0000e+00
     -0.245     -0.006     7.0352     83.060     35.796  34.842827     0.8420      7.370   337.8479 1.3038e+03     0.5763     -0.240     -0.349    23.6532 0.0000e+00
     -0.245     -0.001     6.9654     82.239     35.806  34.854262     0.7868      7.370   337.7871 1.3017e+03     0.5536     -0.240     -0.348    23.6575 0.0000e+00
     -0.244      0.003     6.8843     81.284     35.791  34.841463     0.6794      7.371   338.1457 1.3029e+03     0.5838     -0.240     -0.348    23.6602 0.0000e+00
     -0.243      0.006     6.7939     80.220     35.762  34.815119     0.6185      7.371   338.5694 1.3059e+03     0.6056     -0.238     -0.346    23.6625 0.0000e+00
     -0.242      0.010     6.6983     79.094     35.735  34.789826     0.6202      7.369   338.6089 1.3082e+03     0.6036     -0.237     -0.344    23.6643 0.0000e+00
     -0.241      0.018     6.6007     77.944     35.734  34.789722     0.6537      7.364   337.5044 1.3112e+03     0.5281     -0.238     -0.345    23.6661 0.0000e+00
     -0.238      0.028     6.5056     76.824     35.757  34.813859     0.7024      7.357   335.7975 1.3159e+03     0.3654     -0.235     -0.341    23.6679 0.0000e+00
     -0.231      0.039     6.4192     75.806     35.770  34.827592     0.7216      7.349   334.9215 1.3202e+03     0.2537     -0.229     -0.331    23.6698 0.0000e+00
     -0.220      0.049     6.3418     74.895     35.770  34.828737     0.7199      7.344   334.3112 1.3231e+03     0.2151     -0.218     -0.316    23.6715 0.0000e+00
     -0.203      0.059     6.2712     74.062     35.768  34.827706     0.7284      7.338   333.6671 1.3266e+03     0.2346     -0.202     -0.292    23.6732 0.0000e+00
     -0.183      0.066     6.2092     73.332     35.754  34.815117     0.7322      7.333   333.5006 1.3301e+03     0.2756     -0.179     -0.260    23.6753 0.0000e+00
     -0.163      0.070     6.1527     72.668     35.740  34.803569     0.7204      7.328   332.9006 1.3308e+03     0.2835     -0.158     -0.230    23.6777 0.0000e+00
     -0.145      0.072     6.0992     72.037     35.751  34.815117     0.7135      7.325   331.7461 1.3309e+03     0.2694     -0.143     -0.207    23.6793 0.0000e+00
     -0.128      0.073     6.0512     71.470     35.765  34.827706     0.7049      7.322   330.9859 1.3320e+03     0.2274     -0.125     -0.182    23.6802 0.0000e+00
     -0.111      0.073     6.0076     70.956     35.766  34.828736     0.6800      7.318   330.6775 1.3328e+03     0.2020     -0.109     -0.158    23.6821 0.0000e+00
     -0.094      0.074     5.9637     70.437     35.765  34.827579     0.6705      7.314   330.5989 1.3341e+03     0.2071     -0.094     -0.136    23.6848 0.0000e+00
     -0.074      0.077     5.9175     69.889     35.751  34.813715     0.6805      7.311   330.6383 1.3348e+03     0.2276     -0.073     -0.107    23.6851 0.0000e+00
     -0.052      0.080     5.8729     69.354     35.729  34.788136     0.6914      7.310   330.6368 1.3336e+03     0.2366     -0.051     -0.073    23.6844 0.0000e+00
     -0.032      0.084     5.8379     68.929     35.719  34.772378     0.7015      7.311   330.4091 1.3326e+03     0.2238     -0.031     -0.045    23.6849 0.0000e+00
     -0.012      0.088     5.8212     68.716     35.705  34.750218     0.7109      7.313   329.7779 1.3269e+03     0.2259     -0.012     -0.017    23.6856 0.0000e+00
      0.009      0.091     5.8306     68.811     35.675  34.710738     0.7215      7.317   329.0281 1.2567e+03     0.2314      0.009      0.013    23.6842 0.0000e+00
      0.033      0.091     5.8760     69.331     35.649  34.676135     0.7292      7.322   328.4847 1.1509e+03     0.2289      0.031      0.045    23.6793 0.0000e+00
      0.060      0.090     5.9700     70.425     35.628  34.649410     0.7303      7.325   328.2834 1.1384e+03     0.2268      0.059      0.086    23.6696 0.0000e+00
      0.087      0.087     6.1250     72.243     35.626  34.641680     0.7259      7.325   328.9172 1.1985e+03     0.2368      0.089      0.128    23.6562 0.0000e+00
      0.110      0.084     6.3379     74.744     35.636  34.646190     0.7313      7.325   330.0401 1.0679e+03     0.2581      0.110      0.159    23.6420 0.0000e+00
      0.127      0.080     6.5811     77.603     35.635  34.640408     0.7407      7.326   330.4164 7.1477e+02     0.2705      0.125      0.182    23.6295 0.0000e+00
      0.143      0.075     6.8235     80.453     35.634  34.635287     0.7467      7.328   330.1113 4.5201e+02     0.2647      0.139      0.202    23.6199 0.0000e+00
      0.162      0.071     7.0390     82.988     35.649  34.647782     0.7671      7.329   329.7932 3.4993e+02     0.2490      0.158      0.228    23.6118 0.0000e+00
      0.182      0.068     7.2095     84.993     35.669  34.664433     0.7857      7.330   330.1840 3.1657e+02     0.2331      0.179      0.261    23.6046 0.0000e+00
      0.201      0.067     7.3275     86.378     35.653  34.646055     0.7971      7.331   331.2220 2.8304e+02     0.2249      0.198      0.288    23.5988 0.0000e+00
      0.217      0.066     7.3883     87.088     35.625  34.616133     0.8031      7.331   331.7619 4.1793e+02     0.2112      0.214      0.310    23.5936 0.0000e+00
      0.231      0.066     7.3970     87.186     35.631  34.620243     0.7949      7.329   331.7216 6.0438e+02     0.1889      0.227      0.330    23.5892 0.0000e+00
      0.246      0.065     7.3679     86.842     35.644  34.632217     0.7889      7.329   331.6806 4.6844e+02     0.1686      0.241      0.349    23.5858 0.0000e+00
      0.262      0.065     7.3162     86.232     35.646  34.633873     0.7860      7.331   331.8678 2.8537e+02     0.1799      0.256      0.371    23.5822 0.0000e+00
      0.281      0.065     7.2570     85.532     35.654  34.640271     0.7786      7.334   332.1786 2.6470e+02     0.2652      0.275      0.400    23.5775 0.0000e+00
      0.301      0.065     7.2003     84.864     35.660  34.646055     0.7812      7.338   332.6853 3.5256e+02     0.3756      0.297      0.430    23.5746 0.0000e+00
      0.317      0.064     7.1452     84.215     35.654  34.640283     0.7907      7.341   333.4341 4.3404e+02     0.4161      0.312      0.452    23.5752 0.0000e+00
      0.331      0.063     7.0850     83.507     35.647  34.633998     0.7923      7.343   334.0907 3.7880e+02     0.4186      0.324      0.470    23.5748 0.0000e+00
      0.346      0.063     7.0167     82.702     35.646  34.633582     0.7910      7.344   334.6882 3.3315e+02     0.4361      0.339      0.492    23.5729 0.0000e+00
      0.362      0.063     6.9393     81.789     35.648  34.635249     0.7842      7.344   335.3237 3.2972e+02     0.4142      0.355      0.515    23.5733 0.0000e+00
      0.378      0.065     6.8503     80.738     35.668  34.654152     0.7744      7.342   335.4937 3.2479e+02     0.3676      0.371      0.538    23.5729 0.0000e+00
      0.394      0.067     6.7535     79.598     35.687  34.671579     0.7742      7.339   335.2805 3.3403e+02     0.3618      0.385      0.559    23.5734 0.0000e+00
      0.412      0.069     6.6620     78.518     35.671  34.655402     0.7722      7.338   335.4132 3.2217e+02     0.3743      0.403      0.585    23.5753 0.0000e+00
      0.432      0.073     6.5848     77.607     35.664  34.649107     0.7865      7.336   335.8079 3.1136e+02     0.3358      0.423      0.615    23.5736 0.0000e+00
      0.451      0.079     6.5264     76.919     35.674  34.658990     0.8277      7.333   336.3530 3.2057e+02     0.2317      0.442      0.641    23.5722 0.0000e+00
      0.469      0.085     6.4852     76.435     35.662  34.647858     0.8479      7.330   336.9280 3.1557e+02     0.1832      0.459      0.665    23.5723 0.0000e+00
      0.489      0.089     6.4517     76.043     35.654  34.641544     0.8469      7.328   336.5646 3.3457e+02     0.2381      0.476      0.691    23.5718 0.0000e+00
      0.514      0.092     6.4228     75.706     35.658  34.646171     0.8519      7.328   335.5739 4.0129e+02     0.3155      0.502      0.729    23.5714 0.0000e+00
      0.544      0.094     6.4053     75.501     35.650  34.640293     0.8537      7.328   335.3604 4.5451e+02     0.3868      0.536      0.777    23.5711 0.0000e+00
      0.570      0.095     6.4013     75.454     35.644  34.633989     0.8502      7.328   335.8755 4.3906e+02     0.4286      0.562      0.815    23.5725 0.0000e+00
      0.591      0.092     6.4045     75.489     35.645  34.633468     0.8562      7.329   336.4678 3.5999e+02     0.4544      0.578      0.838    23.5743 0.0000e+00
      0.614      0.087     6.4090     75.541     35.646  34.633988     0.8802      7.330   336.7576 3.3658e+02     0.4245      0.601      0.870    23.5767 0.0000e+00
      0.638      0.082     6.4170     75.633     35.653  34.640283     0.9104      7.330   336.5399 3.5487e+02     0.3110      0.628      0.911    23.5793 0.0000e+00
      0.659      0.078     6.4370     75.866     35.660  34.646059     0.9174      7.328   336.0724 3.2309e+02     0.2417      0.647      0.939    23.5780 0.0000e+00
      0.677      0.075     6.4742     76.304     35.654  34.640299     0.9015      7.324   335.7510 3.8043e+02     0.2278      0.664      0.963    23.5754 0.0000e+00
      0.693      0.070     6.5262     76.919     35.647  34.634157     0.8830      7.320   335.6651 4.8558e+02     0.2650      0.680      0.986    23.5755 0.0000e+00
      0.711      0.065     6.5814     77.571     35.648  34.635312     0.8690      7.320   335.8090 4.4177e+02     0.3869      0.696      1.009    23.5743 0.0000e+00
      0.729      0.061     6.6247     78.083     35.667  34.654272     0.8610      7.322   336.2850 3.6346e+02     0.4805      0.716      1.039    23.5711 0.0000e+00
      0.745      0.061     6.6542     78.431     35.686  34.672840     0.8594      7.323   336.7746 3.3700e+02     0.4805      0.733      1.063    23.5711 0.0000e+00
      0.757      0.063     6.6694     78.610     35.683  34.669261     0.8590      7.322   336.8245 3.5847e+02     0.4482      0.742      1.076    23.5733 0.0000e+00
      0.769      0.066     6.6646     78.553     35.688  34.674515     0.8561      7.320   336.6310 4.2066e+02     0.4265      0.752      1.091    23.5736 0.0000e+00
      0.784      0.069     6.6385     78.246     35.687  34.672849     0.8615      7.319   336.4134 4.8954e+02     0.4014      0.768      1.114    23.5748 0.0000e+00
      0.805      0.073     6.5940     77.721     35.662  34.649118     0.8680      7.320   336.3441 5.1862e+02     0.3874      0.787      1.143    23.5762 0.0000e+00
      0.828      0.078     6.5351     77.026     35.654  34.641658     0.8616      7.320   337.0842 4.7016e+02     0.3800      0.813      1.179    23.5745 0.0000e+00
      0.850      0.081     6.4671     76.224     35.658  34.646173     0.8662      7.319   338.2210 4.2781e+02     0.3117      0.836      1.212    23.5743 0.0000e+00
      0.869      0.083     6.3955     75.381     35.652  34.640191     0.8963      7.319   338.5590 3.8919e+02     0.2028      0.852      1.236    23.5752 0.0000e+00
      0.888      0.083     6.3215     74.509     35.645  34.632845     0.9135      7.320   338.4184 3.9822e+02     0.1617      0.871      1.262    23.5745 0.0000e+00
      0.909      0.084     6.2482     73.645     35.633  34.620869     0.9090      7.320   338.2419 4.8466e+02     0.1809      0.892      1.293    23.5739 0.0000e+00
      0.932      0.086     6.1829     72.875     35.634  34.622429     0.9153      7.319   337.9730 4.8804e+02     0.2519      0.914      1.326    23.5744 0.0000e+00
      0.954      0.090     6.1267     72.214     35.664  34.651708     0.9248      7.319   338.6090 4.0651e+02     0.3788      0.937      1.359    23.5747 0.0000e+00
      0.976      0.092     6.0794     71.654     35.671  34.657283     0.9223      7.320   340.0805 4.0861e+02     0.4341      0.957      1.390    23.5746 0.0000e+00
      1.000      0.094     6.0437     71.230     35.641  34.626313     0.9228      7.322   340.7942 5.8686e+02     0.4318      0.980      1.422    23.5748 0.0000e+00
      1.026      0.094     6.0212     70.962     35.610  34.594840     0.9208      7.325   340.7856 7.4870e+02     0.3814      1.006      1.458    23.5752 0.0000e+00
      1.052      0.093     6.0117     70.842     35.613  34.594338     0.9171      7.328   340.5784 6.7443e+02     0.2526      1.032      1.497    23.5754 0.0000e+00
      1.077      0.091     6.0118     70.836     35.644  34.620247     0.9241      7.329   340.1816 5.4970e+02     0.1871      1.057      1.533    23.5737 0.0000e+00
      1.100      0.088     6.0140     70.856     35.682  34.654021     0.9225      7.329   340.2910 4.9144e+02     0.1996      1.079      1.565    23.5717 0.0000e+00
      1.120      0.084     6.0145     70.858     35.717  34.685087     0.8978      7.328   340.9547 4.4015e+02     0.1901      1.098      1.593    23.5701 0.0000e+00
      1.140      0.080     6.0154     70.862     35.713  34.678272     0.8735      7.327   341.4950 4.0825e+02     0.1631      1.118      1.621    23.5646 0.0000e+00
      1.160      0.076     6.0193     70.900     35.673  34.635127     0.8680      7.328   341.7469 3.6439e+02     0.1790      1.137      1.649    23.5582 0.0000e+00
      1.180      0.073     6.0325     71.044     35.652  34.608053     0.8677      7.328   341.8491 3.3161e+02     0.2290      1.158      1.679    23.5536 0.0000e+00
      1.200      0.071     6.0591     71.341     35.658  34.604990     0.8796      7.327   341.8705 3.3495e+02     0.2798      1.178      1.708    23.5497 0.0000e+00
      1.216      0.071     6.0961     71.746     35.667  34.598087     0.9007      7.324   341.5755 3.4794e+02     0.3351      1.193      1.730    23.5466 0.0000e+00
      1.232      0.072     6.1417     72.213     35.694  34.588080     0.9122      7.322   341.1216 3.7539e+02     0.3794      1.207      1.751    23.5407 0.0000e+00
      1.249      0.073     6.2001     72.759     35.727  34.547461     0.9175      7.320   341.2005 4.0714e+02     0.4179      1.223      1.774    23.5322 0.0000e+00
      1.268      0.077     6.2716     73.379     35.715  34.424460     0.9193      7.319   341.7552 3.8339e+02     0.4355      1.243      1.803    23.5207 0.0000e+00
      1.289      0.082     6.3501     74.031     35.669  34.244049     0.9340      7.318   342.4087 3.6228e+02     0.4091      1.264      1.833    23.5028 0.0000e+00
      1.310      0.086     6.4303     74.683     35.580  34.017397     0.9665      7.317   342.2187 4.3145e+02     0.4031      1.285      1.863    23.4663 0.0000e+00
      1.333      0.088     6.5109     75.332     35.413  33.716376     0.9815      7.317   341.1780 4.6986e+02     0.4242      1.307      1.896    23.3641 0.0000e+00
      1.357      0.089     6.5965     76.017     35.234  33.398966     0.9764      7.316   340.8388 4.2328e+02     0.4212      1.330      1.929    23.1990 0.0000e+00
      1.381      0.089     6.6938     76.824     35.077  33.101126     0.9787      7.315   341.3869 3.9696e+02     0.3661      1.355      1.965    22.9988 0.0000e+00
      1.404      0.089     6.8022     77.757     34.962  32.846142     0.9812      7.312   342.2121 4.1336e+02     0.2769      1.378      1.997    22.7951 0.0000e+00
      1.425      0.090     6.9155     78.750     34.917  32.665790     0.9800      7.310   342.7290 4.2436e+02     0.2579      1.397      2.025    22.6043 0.0000e+00
      1.446      0.092     7.0365     79.841     34.887  32.508143     0.9821      7.307   342.3890 4.0967e+02     0.2592      1.418      2.056    22.3894 0.0000e+00
      1.470      0.094     7.1708     81.088     34.835  32.337147     1.0155      7.304   341.6285 3.8651e+02     0.2614      1.439      2.088    22.1746 0.0000e+00
      1.495      0.096     7.3147     82.448     34.797  32.185930     1.0802      7.300   341.2769 3.5805e+02     0.3458      1.465      2.124    21.9662 0.0000e+00
      1.521      0.096     7.4641     83.870     34.800  32.076894     1.1132      7.297   341.2350 3.3225e+02     0.3947      1.492      2.164    21.7641 0.0000e+00
      1.548      0.092     7.6143     85.286     34.808  31.971319     1.1200      7.296   341.2944 3.4144e+02     0.4248      1.518      2.202    21.5831 0.0000e+00
      1.573      0.086     7.7556     86.586     34.815  31.861944     1.1534      7.293   341.7368 3.5979e+02     0.4966      1.543      2.238    21.4054 0.0000e+00
      1.595      0.080     7.8824     87.721     34.839  31.770469     1.1952      7.290   342.2813 3.6093e+02     0.5005      1.566      2.271    21.2385 0.0000e+00
      1.613      0.076     7.9937     88.696     34.867  31.690781     1.2126      7.288   342.3727 3.4952e+02     0.4405      1.583      2.297    21.0856 0.0000e+00
      1.626      0.075     8.0771     89.386     34.867  31.596909     1.2341      7.286   342.0674 3.5347e+02     0.3817      1.594      2.312    20.9224 0.0000e+00
      1.641      0.076     8.1295     89.753     34.807  31.460980     1.3085      7.285   341.8600 3.8531e+02     0.3687      1.607      2.330    20.7526 0.0000e+00
      1.661      0.078     8.1840     90.151     34.736  31.317363     1.4051      7.284   341.9290 3.8521e+02     0.3762      1.628      2.361    20.5874 0.0000e+00
      1.685      0.082     8.2740     90.925     34.692  31.194035     1.4461      7.284   342.0419 3.5871e+02     0.3492      1.653      2.397    20.4333 0.0000e+00
      1.709      0.084     8.4059     92.135     34.631  31.049378     1.4456      7.284   342.1063 3.2192e+02     0.3478      1.677      2.432    20.3013 0.0000e+00
      1.732      0.084     8.5644     93.613     34.574  30.901876     1.4359      7.284   342.6217 2.9857e+02     0.3901      1.699      2.464    20.1856 0.0000e+00
      1.753      0.081     8.7228     95.073     34.578  30.807659     1.4289      7.283   343.4552 3.0417e+02     0.4330      1.721      2.495    20.0767 0.0000e+00
      1.773      0.077     8.8650     96.361     34.603  30.735679     1.4440      7.282   343.7518 3.0541e+02     0.4395      1.740      2.524    19.9574 0.0000e+00
      1.791      0.076     8.9912     97.486     34.624  30.666515     1.4530      7.280   343.7134 3.3055e+02     0.4075      1.756      2.547    19.8267 0.0000e+00
      1.809      0.077     9.0956     98.373     34.653  30.606360     1.4469      7.278   343.5924 3.3785e+02     0.4119      1.773      2.573    19.6874 0.0000e+00
      1.827      0.078     9.1606     98.838     34.645  30.516298     1.4894      7.275   343.3224 2.8970e+02     0.5233      1.792      2.599    19.5400 0.0000e+00
      1.846      0.081     9.1841     98.854     34.610  30.403054     1.5813      7.273   343.9755 2.6902e+02     0.6559      1.810      2.625    19.4027 0.0000e+00
      1.868      0.082     9.1806     98.587     34.602  30.316651     1.6290      7.272   345.3808 2.9258e+02     0.6731      1.832      2.657    19.2804 0.0000e+00
      1.892      0.082     9.1717     98.292     34.586  30.233579     1.6245      7.271   345.9449 3.1020e+02     0.6394      1.855      2.691    19.1561 0.0000e+00
      1.916      0.080     9.1839     98.250     34.499  30.097112     1.6189      7.271   345.8914 3.0089e+02     0.6446      1.879      2.725    19.0348 0.0000e+00
      1.937      0.075     9.2243     98.491     34.390  29.936678     1.6255      7.272   345.5947 2.8896e+02     0.6755      1.900      2.756    18.9191 0.0000e+00
      1.955      0.069     9.2855     98.912     34.344  29.817830     1.6312      7.272   344.9387 2.8491e+02     0.6770      1.917      2.780    18.7956 0.0000e+00
      1.970      0.062     9.3582     99.425     34.356  29.739606     1.6326      7.273   345.1010 2.9436e+02     0.6322      1.933      2.804    18.6954 0.0000e+00
      1.985      0.057     9.4359     99.984     34.401  29.689325     1.6331      7.274   346.3525 3.1093e+02     0.5914      1.948      2.826    18.6210 0.0000e+00
      1.998      0.056     9.5190    100.615     34.457  29.654304     1.6280      7.274   347.1644 3.1465e+02     0.5814      1.958      2.840    18.5294 0.0000e+00
      2.009      0.058     9.5975    101.230     34.516  29.633575     1.6269      7.274   347.0877 3.0209e+02     0.6021      1.970      2.856    18.4105 0.0000e+00
      2.021      0.062     9.6528    101.635     34.579  29.629125     1.6191      7.274   346.8012 2.6025e+02     0.6283      1.980      2.872    18.2785 0.0000e+00
      2.038      0.067     9.6801    101.775     34.603  29.600423     1.5805      7.274   346.6265 2.3850e+02     0.5931      1.996      2.895    18.1448 0.0000e+00
      2.058      0.072     9.6922    101.776     34.582  29.540485     1.5274      7.274   346.6965 2.4803e+02     0.5125      2.019      2.928    18.0184 0.0000e+00
      2.079      0.077     9.7139    101.869     34.558  29.475906     1.5011      7.273   346.8732 2.5294e+02     0.4765      2.039      2.959    17.9165 0.0000e+00
      2.100      0.081     9.7591    102.158     34.529  29.391082     1.5006      7.272   347.0424 2.5574e+02     0.4633      2.061      2.989    17.8351 0.0000e+00
      2.119      0.083     9.8072    102.433     34.482  29.276857     1.5036      7.269   347.3654 2.4372e+02     0.4443      2.079      3.016    17.7611 0.0000e+00
      2.139      0.084     9.8389    102.508     34.459  29.174278     1.5196      7.267   347.7671 2.2869e+02     0.5218      2.097      3.041    17.7072 0.0000e+00
      2.161      0.087     9.8569    102.417     34.482  29.103251     1.5561      7.264   348.0269 2.3582e+02     0.6681      2.119      3.073    17.6547 0.0000e+00
      2.184      0.091     9.8691    102.265     34.529  29.052988     1.5766      7.261   348.0981 2.4397e+02     0.6873      2.142      3.107    17.5641 0.0000e+00
      2.208      0.093     9.8729    102.046     34.579  29.010957     1.5746      7.261   347.7676 2.4242e+02     0.6313      2.164      3.139    17.4508 0.0000e+00
      2.233      0.094     9.8566    101.623     34.636  28.975972     1.5876      7.261   347.2136 2.4163e+02     0.6325      2.188      3.175    17.3329 0.0000e+00
      2.260      0.094     9.8210    100.991     34.706  28.947402     1.6138      7.258   347.2516 2.3639e+02     0.6411      2.217      3.216    17.1974 0.0000e+00
      2.285      0.093     9.7789    100.303     34.773  28.919415     1.6342      7.252   347.7103 2.2399e+02     0.6433      2.242      3.253    17.0585 0.0000e+00
      2.306      0.090     9.7362     99.638     34.830  28.891488     1.6408      7.247   347.9421 2.2031e+02     0.6586      2.261      3.280    16.9459 0.0000e+00
      2.327      0.087     9.6932     98.996     34.878  28.863659     1.6657      7.244   348.2467 2.2566e+02     0.6744      2.281      3.308    16.8295 0.0000e+00
      2.350      0.083     9.6482     98.354     34.920  28.836858     1.7238      7.241   348.8132 2.1984e+02     0.6813      2.304      3.342    16.6964 0.0000e+00
      2.372      0.079     9.5927     97.622     34.969  28.821370     1.7651      7.239   348.3385 2.0655e+02     0.6805      2.328      3.376    16.5741 0.0000e+00
      2.392      0.077     9.5282     96.818     35.008  28.803332     1.7790      7.237   346.8087 1.9516e+02     0.6653      2.347      3.404    16.4665 0.0000e+00
      2.411      0.076     9.4672     96.070     34.992  28.745704     1.8087      7.235   346.2333 1.8964e+02     0.5886      2.364      3.429    16.3713 0.0000e+00
      2.428      0.076     9.4156     95.429     34.903  28.632559     1.8586      7.232   346.6295 1.8886e+02     0.4861      2.382      3.455    16.2837 0.0000e+00
      2.444      0.077     9.3739     94.888     34.809  28.514787     1.8853      7.230   347.2976 1.8713e+02     0.4638      2.397      3.475    16.2026 0.0000e+00
      2.464      0.078     9.3409     94.431     34.800  28.464698     1.8932      7.227   348.1157 1.8528e+02     0.4718      2.415      3.502    16.1296 0.0000e+00
      2.486      0.081     9.3124     94.017     34.862  28.471400     1.8991      7.224   347.9181 1.8332e+02     0.4911      2.437      3.537    16.0690 0.0000e+00
      2.508      0.084     9.2869     93.640     34.910  28.468767     1.8926      7.220   346.8009 1.7646e+02     0.5743      2.460      3.568    16.0144 0.0000e+00
      2.530      0.086     9.2649     93.316     34.910  28.432807     1.8876      7.216   346.3089 1.6425e+02     0.6540      2.481      3.598    15.9551 0.0000e+00
      2.552      0.089     9.2438     93.019     34.928  28.417569     1.8935      7.211   346.5298 1.5775e+02     0.6915      2.502      3.630    15.8938 0.0000e+00
      2.574      0.092     9.2264     92.766     34.955  28.411493     1.9000      7.204   347.0633 1.5965e+02     0.6922      2.524      3.661    15.8295 0.0000e+00
      2.596      0.095     9.2173     92.589     34.928  28.359312     1.9567      7.199   347.6825 1.6395e+02     0.6625      2.546      3.692    15.7658 0.0000e+00
      2.620      0.096     9.2156     92.459     34.897  28.294622     2.0733      7.196   347.9931 1.6663e+02     0.6376      2.568      3.725    15.7159 0.0000e+00
      2.648      0.095     9.2205     92.359     34.924  28.264292     2.1431      7.194   348.0657 1.6348e+02     0.6357      2.595      3.763    15.6763 0.0000e+00
      2.677      0.094     9.2280     92.284     34.968  28.246528     2.1575      7.190   347.9581 1.5546e+02     0.6396      2.627      3.810    15.6377 0.0000e+00
      2.702      0.092     9.2353     92.227     34.976  28.206779     2.1920      7.188   347.8101 1.4846e+02     0.6231      2.652      3.847    15.5983 0.0000e+00
      2.722      0.088     9.2465     92.207     34.981  28.164636     2.2473      7.185   347.7395 1.4677e+02     0.5901      2.669      3.871    15.5461 0.0000e+00
      2.741      0.083     9.2604     92.187     34.993  28.117925     2.2749      7.181   347.6206 1.4914e+02     0.6063      2.686      3.897    15.4623 0.0000e+00
      2.761      0.077     9.2679     92.088     35.030  28.086435     2.2690      7.176   347.5773 1.4924e+02     0.6668      2.708      3.928    15.3776 0.0000e+00
      2.783      0.071     9.2630     91.889     35.115  28.101319     2.2858      7.172   347.8188 1.4269e+02     0.6803      2.729      3.959    15.3208 0.0000e+00
      2.804      0.063     9.2424     91.579     35.169  28.107322     2.3398      7.169   348.5610 1.3488e+02     0.6471      2.751      3.990    15.2602 0.0000e+00
      2.821      0.055     9.2115     91.213     35.181  28.095472     2.3802      7.168   349.1520 1.3184e+02     0.6014      2.769      4.016    15.1767 0.0000e+00
      2.832      0.049     9.1821     90.890     35.182  28.085019     2.3978      7.169   348.9419 1.3306e+02     0.5852      2.778      4.030    15.0813 0.0000e+00
      2.838      0.045     9.1567     90.602     35.148  28.044414     2.4238      7.169   348.6878 1.3583e+02     0.6033      2.783      4.036    15.0011 0.0000e+00
      2.844      0.045     9.1382     90.342     35.109  27.985517     2.4557      7.168   348.5748 1.3550e+02     0.6069      2.788      4.042    14.9487 0.0000e+00
      2.854      0.049     9.1303     90.135     35.115  27.944370     2.4794      7.166   348.3501 1.3077e+02     0.6291      2.798      4.058    14.9214 0.0000e+00
      2.869      0.055     9.1244     89.918     35.166  27.927840     2.4908      7.163   348.8961 1.2504e+02     0.6889      2.813      4.079    14.9104 0.0000e+00
      2.886      0.062     9.1164     89.678     35.221  27.912594     2.5194      7.161   350.1004 1.2114e+02     0.7185      2.829      4.103    14.8995 0.0000e+00
      2.904      0.067     9.1136     89.489     35.262  27.886961     2.5771      7.159   350.6071 1.1966e+02     0.6822      2.848      4.131    14.8640 0.0000e+00
      2.923      0.070     9.1116     89.301     35.320  27.871844     2.5997      7.156   350.5491 1.1906e+02     0.6471      2.866      4.157    14.7918 0.0000e+00
      2.940      0.072     9.1039     89.055     35.380  27.856736     2.5912      7.152   350.3454 1.1849e+02     0.6601      2.883      4.182    14.7040 0.0000e+00
      2.958      0.074     9.0919     88.767     35.426  27.831220     2.5937      7.147   350.0373 1.1763e+02     0.6558      2.901      4.207    14.6212 0.0000e+00
      2.976      0.076     9.0743     88.419     35.491  27.817248     2.5379      7.142   350.0934 1.1557e+02     0.6263      2.919      4.233    14.5418 0.0000e+00
      2.996      0.078     9.0483     87.977     35.577  27.814727     2.4223      7.136   351.0237 1.1271e+02     0.6388      2.937      4.260    14.4529 0.0000e+00
      3.017      0.080     9.0166     87.472     35.652  27.800662     2.3544      7.130   352.4236 1.0928e+02     0.6548      2.959      4.291    14.3632 0.0000e+00
      3.039      0.082     8.9806     86.928     35.711  27.774106     2.3409      7.124   353.1668 1.0586e+02     0.6361      2.981      4.324    14.2778 0.0000e+00
      3.060      0.083     8.9340     86.287     35.769  27.747550     2.3607      7.118   353.4703 1.0278e+02     0.6266      3.001      4.353    14.1880 0.0000e+00
      3.081      0.084     8.8757     85.537     35.842  27.733495     2.3911      7.112   353.5981 1.0036e+02     0.6320      3.021      4.382    14.0898 0.0000e+00
      3.102      0.084     8.8085     84.703     35.931  27.731080     2.3962      7.105   353.3355 9.8862e+01     0.6392      3.043      4.413    13.9849 0.0000e+00
      3.124      0.085     8.7365     83.826     36.007  27.718274     2.4046      7.098   353.0489 9.7446e+01     0.6226      3.064      4.443    13.8828 0.0000e+00
      3.145      0.085     8.6679     82.982     36.086  27.705572     2.4649      7.093   353.0575 9.6862e+01     0.6145      3.084      4.473    13.7839 0.0000e+00
      3.168      0.084     8.6056     82.205     36.176  27.704416     2.5551      7.088   353.4397 9.6477e+01     0.6328      3.106      4.505    13.6844 0.0000e+00
      3.191      0.082     8.5446     81.460     36.261  27.704216     2.5951      7.083   353.8843 9.5412e+01     0.6312      3.130      4.540    13.5860 0.0000e+00
      3.213      0.081     8.4871     80.771     36.335  27.703067     2.5898      7.077   354.3037 9.4086e+01     0.6248      3.151      4.571    13.4877 0.0000e+00
      3.231      0.081     8.4338     80.138     36.385  27.690468     2.5920      7.071   354.8962 9.2586e+01     0.6170      3.169      4.597    13.3840 0.0000e+00
      3.249      0.081     8.3754     79.448     36.443  27.678825     2.6029      7.065   355.3696 9.1071e+01     0.5980      3.185      4.620    13.2841 0.0000e+00
      3.269      0.081     8.3116     78.678     36.547  27.689234     2.6114      7.058   355.1233 8.8885e+01     0.5776      3.204      4.647    13.1932 0.0000e+00
      3.291      0.083     8.2418     77.843     36.644  27.689243     2.6209      7.049   354.4998 8.6424e+01     0.5841      3.227      4.681    13.1143 0.0000e+00
      3.313      0.086     8.1648     76.959     36.718  27.678850     2.6817      7.041   354.4555 8.4832e+01     0.6466      3.250      4.714    13.0520 0.0000e+00
      3.335      0.087     8.0891     76.099     36.816  27.690497     2.7951      7.034   354.9328 8.3982e+01     0.6921      3.270      4.743    12.9809 0.0000e+00
      3.357      0.087     8.0191     75.298     36.915  27.702994     2.8521      7.027   355.5389 8.3497e+01     0.6458      3.291      4.774    12.8816 0.0000e+00
      3.382      0.086     7.9524     74.545     36.989  27.702888     2.8474      7.019   356.0185 8.2838e+01     0.6053      3.317      4.812    12.7725 0.0000e+00
      3.405      0.082     7.8894     73.848     37.034  27.689143     2.8479      7.012   356.1713 8.1655e+01     0.6298      3.340      4.844    12.6865 0.0000e+00
      3.425      0.076     7.8337     73.234     37.055  27.663758     2.8584      7.004   355.5799 8.0466e+01     0.6664      3.360      4.873    12.6069 0.0000e+00
      3.445      0.067     7.7811     72.662     37.085  27.649907     2.8737      6.996   354.6327 7.9711e+01     0.6819      3.379      4.901    12.5142 0.0000e+00
      3.462      0.057     7.7249     72.074     37.122  27.648637     2.8763      6.990   354.4407 7.9387e+01     0.6656      3.396      4.926    12.4384 0.0000e+00
      3.476      0.046     7.6692     71.508     37.150  27.648370     2.8630      6.985   354.5489 7.8999e+01     0.6517      3.410      4.947    12.3790 0.0000e+00
      3.486      0.034     7.6162     70.986     37.165  27.646645     2.8504      6.980   354.7364 7.8208e+01     0.6362      3.420      4.961    12.3211 0.0000e+00
      3.492      0.024     7.5635     70.497     37.137  27.627772     2.8347      6.976   355.2452 7.7357e+01     0.6004      3.424      4.967    12.2721 0.0000e+00
      3.495      0.015     7.5100     70.034     37.092  27.610679     2.8104      6.973   354.9358 7.6676e+01     0.5854      3.428      4.972    12.2341 0.0000e+00
      3.497      0.009     7.4591     69.608     37.089  27.630493     2.7955      6.970   353.8358 7.6071e+01     0.6070      3.430      4.975    12.2059 0.0000e+00
      3.497      0.005     7.4157     69.259     37.115  27.676863     2.8300      6.966   353.3877 7.5813e+01     0.6176      3.430      4.975    12.1845 0.0000e+00
      3.497      0.003     7.3775     68.994     37.124  27.726865     2.8956      6.962   353.5625 7.5981e+01     0.6225      3.430      4.975    12.1838 0.0000e+00
      3.497      0.003     7.3445     68.819     37.039  27.727118     2.9275      6.959   353.7115 7.6050e+01     0.6355      3.430      4.975    12.2137 0.0000e+00
      3.497      0.005     7.3227     68.749     36.890  27.680000     2.9309      6.954   354.0712 7.5827e+01     0.6217      3.430      4.975    12.2482 0.0000e+00
      3.498      0.010     7.3201     68.806     36.820  27.665236     2.9181      6.948   354.7282 7.5448e+01     0.6086      3.431      4.976    12.2718 0.0000e+00
      3.499      0.015     7.3377     68.969     36.835  27.675646     2.8918      6.943   355.0298 7.5210e+01     0.6294      3.431      4.976    12.3283 0.0000e+00
      3.503      0.019     7.3690     69.203     36.877  27.678866     2.8796      6.939   354.7927 7.5088e+01     0.6595      3.434      4.980    12.4270 0.0000e+00
      3.512      0.021     7.4058     69.484     36.951  27.704133     2.8717      6.937   354.6151 7.5198e+01     0.6676      3.445      4.996    12.5259 0.0000e+00
      3.522      0.024     7.4359     69.740     36.998  27.727113     2.8606      6.934   354.6889 7.5376e+01     0.6656      3.455      5.010    12.5892 0.0000e+00
      3.527      0.027     7.4584     69.961     36.959  27.702701     2.8551      6.930   354.7382 7.4850e+01     0.6967      3.460      5.018    12.5784 0.0000e+00
      3.531      0.030     7.4803     70.155     36.914  27.662974     2.8523      6.924   354.7811 7.4098e+01     0.7085      3.463      5.023    12.5258 0.0000e+00
      3.535      0.031     7.5049     70.295     36.923  27.627769     2.8541      6.919   354.8632 7.3383e+01     0.6547      3.465      5.025    12.4743 0.0000e+00
      3.545      0.033     7.5294     70.373     36.973  27.594498     2.8494      6.915   355.2149 7.2248e+01     0.5957      3.474      5.039    12.4550 0.0000e+00
      3.560      0.037     7.5455     70.369     37.047  27.578105     2.8408      6.913   355.8492 7.1319e+01     0.5754      3.493      5.066    12.4789 0.0000e+00
      3.570      0.043     7.5538     70.297     37.111  27.556482     2.8513      6.911   356.0802 7.0983e+01     0.5926      3.504      5.081    12.4883 0.0000e+00
      3.576      0.049     7.5629     70.199     37.181  27.523482     2.8578      6.907   355.7716 7.0757e+01     0.6198      3.505      5.083    12.4269 0.0000e+00
      3.586      0.053     7.5749     70.086     37.286  27.496498     2.8457      6.901   355.3873 6.9808e+01     0.6303      3.513      5.095    12.3097 0.0000e+00
      3.601      0.055     7.5804     69.905     37.417  27.484111     2.8340      6.895   355.3909 6.8152e+01     0.6282      3.530      5.121    12.2112 0.0000e+00
      3.621      0.057     7.5687     69.580     37.579  27.500587     2.8168      6.890   356.1591 6.6762e+01     0.6245      3.551      5.151    12.1358 0.0000e+00
      3.640      0.061     7.5396     69.127     37.706  27.505100     2.8035      6.885   357.1903 6.6099e+01     0.6161      3.571      5.180    12.0209 0.0000e+00
      3.655      0.063     7.4997     68.609     37.765  27.475080     2.8014      6.880   357.5339 6.6246e+01     0.6177      3.587      5.203    11.8690 0.0000e+00
      3.665      0.062     7.4516     68.029     37.831  27.455040     2.8101      6.873   357.3884 6.6439e+01     0.6143      3.593      5.212    11.7216 0.0000e+00
      3.678      0.058     7.3915     67.342     37.921  27.453219     2.8353      6.866   357.2381 6.5884e+01     0.6057      3.602      5.225    11.5817 0.0000e+00
      3.699      0.054     7.3150     66.532     37.997  27.452988     2.8571      6.862   357.1801 6.4742e+01     0.6047      3.628      5.261    11.4609 0.0000e+00
      3.719      0.052     7.2239     65.633     38.045  27.452185     2.8617      6.859   357.3750 6.3732e+01     0.6024      3.653      5.297    11.3735 0.0000e+00
      3.731      0.053     7.1277     64.705     38.071  27.443476     2.8730      6.854   357.8734 6.3269e+01     0.6079      3.661      5.309    11.2875 0.0000e+00
      3.736      0.053     7.0396     63.838     38.074  27.411153     2.9021      6.849   358.4747 6.2905e+01     0.6104      3.662      5.311    11.1893 0.0000e+00
      3.744      0.053     6.9636     63.073     38.084  27.378830     2.9198      6.844   358.7947 6.2378e+01     0.6020      3.668      5.321    11.1103 0.0000e+00
      3.759      0.053     6.8916     62.358     38.118  27.370113     2.9216      6.838   358.8164 6.1695e+01     0.5976      3.686      5.346    11.0717 0.0000e+00
      3.779      0.055     6.8242     61.698     38.153  27.369213     2.9327      6.833   358.8232 6.0829e+01     0.6188      3.706      5.374    11.0462 0.0000e+00
      3.797      0.059     6.7706     61.158     38.193  27.367928     2.9626      6.827   358.7913 6.0073e+01     0.6445      3.724      5.402    10.9980 0.0000e+00
      3.811      0.062     6.7342     60.748     38.235  27.354540     2.9884      6.821   358.6885 5.9567e+01     0.6343      3.738      5.422    10.9379 0.0000e+00
      3.821      0.063     6.7099     60.415     38.294  27.334290     2.9964      6.815   358.7853 5.8942e+01     0.6169      3.745      5.432    10.8954 0.0000e+00
      3.835      0.066     6.6934     60.132     38.368  27.313517     2.9862      6.809   359.1008 5.7973e+01     0.6169      3.759      5.452    10.8661 0.0000e+00
      3.854      0.069     6.6824     59.900     38.444  27.293794     2.8835      6.804   359.4921 5.6954e+01     0.6343      3.780      5.484    10.8328 0.0000e+00
      3.874      0.073     6.6739     59.693     38.534  27.286236     2.7107      6.800   359.9027 5.6161e+01     0.6751      3.799      5.510    10.7793 0.0000e+00
      3.895      0.074     6.6667     59.517     38.621  27.285560     2.6243      6.796   360.2794 5.5495e+01     0.6824      3.820      5.539    10.6922 0.0000e+00
      3.916      0.072     6.6587     59.362     38.685  27.285555     2.6106      6.791   360.6050 5.4935e+01     0.6314      3.842      5.572    10.5906 0.0000e+00
      3.935      0.068     6.6544     59.245     38.749  27.286128     2.5271      6.786   360.8287 5.4565e+01     0.6074      3.860      5.599    10.4963 0.0000e+00
      3.951      0.064     6.6620     59.201     38.847  27.292442     2.3678      6.781   360.6602 5.4353e+01     0.6368      3.875      5.622    10.4006 0.0000e+00
      3.966      0.059     6.6779     59.213     38.958  27.298327     2.2746      6.777   360.2024 5.4123e+01     0.6822      3.891      5.642    10.3097 0.0000e+00
      3.980      0.055     6.7014     59.310     39.040  27.293716     2.2736      6.775   360.0263 5.3668e+01     0.6979      3.903      5.660    10.2613 0.0000e+00
      3.993      0.051     6.7426     59.599     39.110  27.300118     2.2817      6.772   360.1662 5.2883e+01     0.6439      3.914      5.678    10.2206 0.0000e+00
      4.006      0.047     6.8109     60.168     39.155  27.312197     2.2816      6.768   360.5175 5.1953e+01     0.6093      3.929      5.698    10.1304 0.0000e+00
      4.019      0.042     6.9037     60.985     39.157  27.312738     2.2814      6.764   360.8315 5.1185e+01     0.6460      3.941      5.716    10.0265 0.0000e+00
      4.030      0.034     7.0178     62.002     39.142  27.306666     2.2884      6.761   360.4350 5.0676e+01     0.6900      3.952      5.733     9.9465 0.0000e+00
      4.038      0.020     7.1550     63.227     39.126  27.302276     2.2917      6.757   359.5098 5.0511e+01     0.6843      3.961      5.745     9.8881 0.0000e+00
      4.044      0.000     7.3029     64.577     39.125  27.323161     2.2847      6.754   359.0237 5.0581e+01     0.6373      3.966      5.751     9.8661 0.0000e+00
      4.048     -0.021     7.4468     65.974     39.102  27.368715     2.2773      6.752   359.1173 5.0764e+01     0.6101      3.973      5.761     9.8721 0.0000e+00
      4.043     -0.036     7.5797     67.369     39.006  27.408637     2.2765      6.749   359.5225 5.1293e+01     0.6308      3.973      5.762     9.8799 0.0000e+00
      4.022     -0.045     7.6978     68.678     38.851  27.424986     2.3299      6.743   360.0519 5.2080e+01     0.6734      3.948      5.727     9.8852 0.0000e+00
      3.993     -0.045     7.8021     69.843     38.713  27.439520     2.4265      6.738   360.1838 5.2618e+01     0.6679      3.911      5.672     9.8957 0.0000e+00
      3.974     -0.040     7.8899     70.806     38.620  27.457488     2.4707      6.734   359.7398 5.2597e+01     0.6244      3.889      5.641     9.9685 0.0000e+00
      3.970     -0.029     7.9510     71.466     38.539  27.451827     2.4692      6.731   359.0720 5.2255e+01     0.6049      3.891      5.645    10.1246 0.0000e+00
      3.974     -0.015     7.9715     71.700     38.483  27.434623     2.4624      6.728   358.6484 5.2007e+01     0.6155      3.897      5.653    10.3023 0.0000e+00
      3.976     -0.004     7.9400     71.428     38.483  27.439995     2.3610      6.726   358.5755 5.1906e+01     0.6315      3.900      5.656    10.4519 0.0000e+00
      3.976      0.001     7.8520     70.656     38.488  27.453281     2.1815      6.725   358.5347 5.1884e+01     0.6448      3.900      5.656    10.5580 0.0000e+00
      3.975      0.001     7.7146     69.478     38.470  27.468276     2.0928      6.724   358.4137 5.1939e+01     0.6548      3.898      5.654    10.6281 0.0000e+00
      3.973      0.004     7.5453     68.056     38.437  27.494340     2.0888      6.723   358.4024 5.2109e+01     0.6308      3.897      5.652    10.6525 0.0000e+00
      3.973      0.010     7.3715     66.613     38.378  27.514474     2.0861      6.720   358.7421 5.2239e+01     0.5988      3.896      5.651    10.6457 0.0000e+00
      3.973      0.019     7.2217     65.360     38.318  27.521282     2.0786      6.718   359.1651 5.2101e+01     0.6030      3.896      5.651    10.6527 0.0000e+00
      3.977      0.028     7.1080     64.376     38.274  27.513206     2.0731      6.717   359.3013 5.1599e+01     0.6201      3.898      5.653    10.6884 0.0000e+00
      3.988      0.035     7.0308     63.678     38.228  27.480348     2.0743      6.714   359.3569 5.0941e+01     0.6532      3.910      5.670    10.7556 0.0000e+00
      4.004      0.041     6.9860     63.242     38.195  27.441501     2.0285      6.711   359.3210 5.0433e+01     0.6684      3.928      5.697    10.8503 0.0000e+00
      4.019      0.046     6.9672     63.022     38.208  27.424487     1.9326      6.710   359.2976 5.0106e+01     0.6207      3.944      5.720    10.9267 0.0000e+00
      4.029      0.049     6.9657     62.932     38.232  27.401607     1.8809      6.710   359.8485 4.9898e+01     0.5949      3.952      5.731    10.9478 0.0000e+00
      4.037      0.051     6.9777     62.876     38.287  27.355313     1.8807      6.708   360.6478 4.9500e+01     0.6308      3.956      5.737    10.9471 0.0000e+00
      4.050      0.053     7.0034     62.821     38.433  27.309148     1.8466      6.705   361.0462 4.8789e+01     0.6579      3.970      5.759    10.9273 0.0000e+00
      4.065      0.056     7.0280     62.714     38.645  27.287755     1.7634      6.701   361.2240 4.8124e+01     0.6484      3.986      5.783    10.8851 0.0000e+00
      4.081      0.060     7.0399     62.546     38.848  27.286955     1.7022      6.697   361.3346 4.7653e+01     0.6381      4.000      5.802    10.8542 0.0000e+00
      4.099      0.062     7.0470     62.403     39.022  27.299331     1.6850      6.694   361.3507 4.7246e+01     0.6548      4.020      5.830    10.7623 0.0000e+00
      4.115      0.063     7.0594     62.355     39.157  27.310287     1.6746      6.692   361.3328 4.6783e+01     0.6673      4.036      5.854    10.5362 0.0000e+00
      4.131      0.064     7.0865     62.488     39.211  27.292334     1.6509      6.689   361.5483 4.6345e+01     0.6365      4.050      5.874    10.2819 0.0000e+00
      4.146      0.066     7.1416     62.911     39.231  27.272711     1.6274      6.684   362.1495 4.5964e+01     0.6183      4.067      5.897    10.1023 0.0000e+00
      4.162      0.070     7.2356     63.678     39.263  27.263488     1.6199      6.678   362.8368 4.5410e+01     0.6611      4.081      5.919     9.9677 0.0000e+00
      4.179      0.075     7.3692     64.764     39.302  27.244287     1.6157      6.671   363.4059 4.4700e+01     0.6960      4.096      5.942     9.8566 0.0000e+00
      4.199      0.081     7.5311     66.079     39.360  27.230999     1.5033      6.665   363.6961 4.3983e+01     0.6740      4.117      5.970     9.7865 0.0000e+00
      4.220      0.086     7.7070     67.532     39.423  27.229754     1.2910      6.661   363.7643 4.3318e+01     0.6402      4.139      6.002     9.7547 0.0000e+00
      4.244      0.090     7.8830     69.008     39.469  27.229188     1.1805      6.658   363.9727 4.2666e+01     0.6225      4.160      6.033     9.7276 0.0000e+00
      4.270      0.092     8.0478     70.403     39.494  27.224122     1.1775      6.654   364.3226 4.2041e+01     0.6121      4.187      6.072     9.6620 0.0000e+00
      4.296      0.092     8.1983     71.685     39.529  27.231985     1.1821      6.651   364.5531 4.1557e+01     0.6071      4.214      6.113     9.5832 0.0000e+00
      4.318      0.090     8.3342     72.850     39.587  27.260745     1.1810      6.649   364.6088 4.1087e+01     0.6223      4.234      6.142     9.5274 0.0000e+00
      4.340      0.087     8.4569     73.907     39.588  27.254344     1.1724      6.647   364.6523 4.0537e+01     0.6428      4.256      6.172     9.4888 0.0000e+00
      4.362      0.082     8.5664     74.851     39.543  27.218082     1.1609      6.645   364.8214 3.9969e+01     0.6421      4.279      6.206     9.4611 0.0000e+00
      4.383      0.077     8.6649     75.701     39.528  27.203292     1.0978      6.643   364.9327 3.9474e+01     0.6444      4.299      6.235     9.4404 0.0000e+00
      4.402      0.073     8.7564     76.493     39.532  27.202516     0.9788      6.641   364.8783 3.9108e+01     0.6401      4.317      6.261     9.4279 0.0000e+00
      4.419      0.068     8.8416     77.234     39.542  27.208692     0.9073      6.641   364.7666 3.8754e+01     0.6207      4.334      6.286     9.4202 0.0000e+00
      4.436      0.063     8.9196     77.914     39.552  27.214462     0.9043      6.639   364.5280 3.8379e+01     0.6237      4.351      6.311     9.4132 0.0000e+00
      4.452      0.057     8.9859     78.490     39.545  27.208783     0.9330      6.637   364.3165 3.8050e+01     0.6457      4.366      6.334     9.4069 0.0000e+00
      4.466      0.050     9.0348     78.914     39.540  27.203532     0.9699      6.636   364.4470 3.7750e+01     0.6421      4.381      6.353     9.4028 0.0000e+00
      4.479      0.045     9.0633     79.162     39.557  27.214462     0.9829      6.634   364.7283 3.7474e+01     0.6109      4.393      6.371     9.4022 0.0000e+00
      4.490      0.043     9.0757     79.269     39.557  27.213942     0.9800      6.633   364.7923 3.7290e+01     0.6036      4.405      6.388     9.4015 0.0000e+00
      4.497      0.044     9.0776     79.284     39.533  27.197250     1.0089      6.633   364.6195 3.7191e+01     0.6452      4.411      6.397     9.3991 0.0000e+00
      4.503      0.048     9.0700     79.214     39.543  27.203126     1.0746      6.633   364.3597 3.6961e+01     0.6869      4.412      6.399     9.3979 0.0000e+00
      4.515      0.054     9.0551     79.081     39.572  27.221494     1.1125      6.632   364.2320 3.6566e+01     0.6496      4.424      6.417     9.3973 0.0000e+00
      4.532      0.061     9.0382     78.931     39.584  27.228834     1.1089      6.631   364.2795 3.6226e+01     0.5614      4.444      6.446     9.3962 0.0000e+00
      4.551      0.069     9.0223     78.793     39.584  27.228369     1.0950      6.630   364.4180 3.5916e+01     0.5354      4.462      6.472     9.3957 0.0000e+00
      4.570      0.076     9.0093     78.680     39.565  27.215878     1.0274      6.629   364.7025 3.5543e+01     0.5800      4.481      6.500     9.3943 0.0000e+00
      4.590      0.082     9.0015     78.612     39.548  27.204797     0.9161      6.627   365.0525 3.5163e+01     0.6124      4.501      6.528     9.3919 0.0000e+00
      4.610      0.085     8.9987     78.586     39.573  27.221391     0.8618      6.624   365.2944 3.4757e+01     0.5912      4.520      6.556     9.3909 0.0000e+00
      4.632      0.085     8.9977     78.572     39.583  27.226019     0.8579      6.621   365.3897 3.4289e+01     0.5679      4.542      6.588     9.3912 0.0000e+00
      4.657      0.084     8.9967     78.557     39.545  27.197251     0.8412      6.619   365.4305 3.3804e+01     0.6055      4.567      6.625     9.3918 0.0000e+00
      4.682      0.081     8.9961     78.545     39.540  27.191048     0.8074      6.619   365.5290 3.3376e+01     0.6487      4.593      6.661     9.3922 0.0000e+00
      4.702      0.079     8.9949     78.529     39.578  27.214516     0.7887      6.618   365.7209 3.3039e+01     0.6324      4.612      6.689     9.3919 0.0000e+00
      4.719      0.076     8.9928     78.507     39.599  27.226998     0.7895      6.615   365.8571 3.2751e+01     0.6224      4.627      6.712     9.3886 0.0000e+00
      4.735      0.071     8.9868     78.452     39.583  27.214970     0.7890      6.612   365.8854 3.2427e+01     0.6502      4.643      6.734     9.3845 0.0000e+00
      4.753      0.065     8.9792     78.387     39.555  27.196086     0.7926      6.609   365.9774 3.2067e+01     0.6630      4.659      6.758     9.3817 0.0000e+00
      4.773      0.059     8.9782     78.381     39.543  27.189169     0.7957      6.607   366.1094 3.1723e+01     0.6542      4.682      6.790     9.3783 0.0000e+00
      4.791      0.052     8.9814     78.414     39.548  27.194837     0.7901      6.606   366.2755 3.1461e+01     0.6355      4.702      6.820     9.3750 0.0000e+00
      4.803      0.044     8.9838     78.438     39.555  27.201126     0.7716      6.606   366.4380 3.1352e+01     0.6207      4.712      6.834     9.3738 0.0000e+00
      4.809      0.038     8.9828     78.431     39.555  27.201701     0.7373      6.606   366.4396 3.1332e+01     0.6276      4.715      6.839     9.3748 0.0000e+00
      4.814      0.033     8.9790     78.396     39.556  27.201796     0.7155      6.606   366.4661 3.1302e+01     0.6583      4.720      6.846     9.3762 0.0000e+00
      4.821      0.033     8.9749     78.356     39.560  27.202268     0.7187      6.605   366.6736 3.1254e+01     0.6553      4.727      6.857     9.3797 0.0000e+00
      4.829      0.036     8.9703     78.315     39.568  27.207412     0.7393      6.604   366.7975 3.1217e+01     0.6222      4.735      6.868     9.3823 0.0000e+00
      4.839      0.039     8.9646     78.275     39.552  27.200495     0.7728      6.604   366.7590 3.1195e+01     0.6242      4.744      6.881     9.3822 0.0000e+00
      4.850      0.039     8.9604     78.256     39.514  27.182126     0.7920      6.603   366.8095 3.1141e+01     0.6190      4.755      6.897     9.3822 0.0000e+00
      4.863      0.037     8.9609     78.274     39.497  27.175824     0.7884      6.602   366.8925 3.1024e+01     0.6205      4.769      6.917     9.3787 0.0000e+00
      4.876      0.032     8.9645     78.304     39.515  27.187804     0.7834      6.602   366.9025 3.0944e+01     0.6418      4.782      6.937     9.3759 0.0000e+00
      4.884      0.027     8.9692     78.335     39.538  27.199974     0.8052      6.601   366.9307 3.1019e+01     0.6318      4.791      6.949     9.3810 0.0000e+00
      4.887      0.022     8.9745     78.371     39.539  27.195970     0.8501      6.601   367.0614 3.1127e+01     0.6225      4.793      6.952     9.3947 0.0000e+00
      4.888      0.022     8.9772     78.386     39.554  27.202889     0.8754      6.600   367.2779 3.1142e+01     0.6205      4.794      6.953     9.4041 0.0000e+00
      4.889      0.026     8.9752     78.363     39.583  27.220122     0.8723      6.596   367.3979 3.1144e+01     0.6392      4.795      6.954     9.4007 0.0000e+00
      4.894      0.032     8.9703     78.318     39.575  27.213834     0.8770      6.591   367.3076 3.1101e+01     0.6652      4.796      6.956     9.3942 0.0000e+00
      4.904      0.039     8.9632     78.255     39.541  27.190366     0.9047      6.588   367.1324 3.0854e+01     0.6598      4.805      6.969     9.3894 0.0000e+00
      4.922      0.044     8.9561     78.192     39.542  27.190365     0.9220      6.587   367.1717 3.0503e+01     0.6649      4.829      7.003     9.3839 0.0000e+00
      4.939      0.047     8.9532     78.164     39.578  27.213824     0.9213      6.585   367.3528 3.0303e+01     0.6660      4.847      7.030     9.3800 0.0000e+00
      4.949      0.047     8.9541     78.168     39.589  27.220008     0.8864      6.583   367.4292 3.0215e+01     0.6430      4.853      7.039     9.3801 0.0000e+00
      4.958      0.047     8.9558     78.182     39.564  27.201631     0.8216      6.582   367.5801 3.0105e+01     0.6307      4.862      7.052     9.3806 0.0000e+00
      4.968      0.049     8.9599     78.214     39.537  27.182127     0.7909      6.581   367.8003 2.9938e+01     0.6398      4.872      7.066     9.3795 0.0000e+00
      4.978      0.054     8.9667     78.267     39.530  27.174686     0.7814      6.580   367.9404 2.9743e+01     0.6615      4.881      7.079     9.3774 0.0000e+00
      4.991      0.060     8.9722     78.307     39.536  27.175150     0.7710      6.578   368.0694 2.9558e+01     0.6796      4.892      7.097     9.3757 0.0000e+00
      5.010      0.067     8.9757     78.332     39.558  27.187733     0.7750      6.577   368.1555 2.9337e+01     0.6755      4.911      7.123     9.3750 0.0000e+00
      5.030      0.073     8.9776     78.346     39.577  27.199832     0.7841      6.576   368.2074 2.9171e+01     0.6429      4.936      7.157     9.3735 0.0000e+00
      5.050      0.076     8.9755     78.326     39.570  27.194428     0.7895      6.575   368.4380 2.8984e+01     0.6209      4.954      7.183     9.3701 0.0000e+00
      5.070      0.077     8.9712     78.287     39.558  27.185898     0.8031      6.573   368.7070 2.8613e+01     0.6223      4.971      7.210     9.3648 0.0000e+00
      5.091      0.074     8.9694     78.267     39.523  27.160193     0.8289      6.572   368.7060 2.8226e+01     0.6300      4.994      7.243     9.3614 0.0000e+00
      5.111      0.069     8.9698     78.266     39.493  27.137619     0.8446      6.571   368.6845 2.7899e+01     0.6529      5.014      7.272     9.3610 0.0000e+00
      5.129      0.064     8.9699     78.264     39.538  27.166949     0.8466      6.571   368.7056 2.7585e+01     0.6539      5.029      7.296     9.3605 0.0000e+00
      5.145      0.059     8.9715     78.278     39.583  27.197334     0.8433      6.572   368.6168 2.7390e+01     0.6426      5.046      7.320     9.3597 0.0000e+00
      5.158      0.054     8.9755     78.312     39.568  27.187502     0.8226      6.572   368.7297 2.7329e+01     0.6390      5.059      7.337     9.3575 0.0000e+00
      5.168      0.053     8.9795     78.346     39.551  27.175073     0.7906      6.572   369.0381 2.7325e+01     0.6101      5.068      7.350     9.3543 0.0000e+00
      5.179      0.053     8.9842     78.386     39.550  27.174047     0.7776      6.571   369.1617 2.7303e+01     0.5986      5.079      7.366     9.3529 0.0000e+00
      5.193      0.052     8.9879     78.418     39.552  27.175089     0.7757      6.571   369.1060 2.7175e+01     0.6207      5.091      7.383     9.3531 0.0000e+00
      5.209      0.051     8.9893     78.431     39.570  27.187675     0.7487      6.571   369.0531 2.6954e+01     0.6341      5.108      7.407     9.3531 0.0000e+00
      5.226      0.051     8.9917     78.451     39.587  27.199228     0.7002      6.571   369.0376 2.6786e+01     0.6383      5.127      7.435     9.3523 0.0000e+00
      5.239      0.050     8.9942     78.472     39.571  27.187788     0.6753      6.569   369.0051 2.6715e+01     0.6409      5.140      7.455     9.3517 0.0000e+00
      5.247      0.046     8.9957     78.485     39.554  27.176348     0.6778      6.568   369.0046 2.6626e+01     0.6353      5.145      7.462     9.3517 0.0000e+00
      5.257      0.040     8.9979     78.505     39.571  27.187902     0.6848      6.568   369.1170 2.6491e+01     0.6321      5.152      7.473     9.3514 0.0000e+00
      5.270      0.034     9.0013     78.535     39.588  27.200489     0.7048      6.568   369.3320 2.6350e+01     0.6319      5.168      7.496     9.3509 0.0000e+00
      5.282      0.027     9.0056     78.575     39.588  27.201538     0.7263      6.568   369.5390 2.6225e+01     0.6331      5.183      7.517     9.3513 0.0000e+00
      5.288      0.021     9.0097     78.612     39.586  27.200592     0.7333      6.568   369.6415 2.6154e+01     0.6473      5.188      7.524     9.3513 0.0000e+00
      5.290      0.015     9.0117     78.629     39.570  27.189047     0.7058      6.569   369.7105 2.6154e+01     0.6513      5.188      7.525     9.3507 0.0000e+00
      5.290      0.011     9.0126     78.637     39.570  27.188943     0.6517      6.569   369.6854 2.6171e+01     0.6506      5.188      7.524     9.3514 0.0000e+00
      5.290      0.013     9.0146     78.657     39.584  27.199334     0.6311      6.568   369.4229 2.6188e+01     0.6684      5.188      7.524     9.3533 0.0000e+00
      5.290      0.019     9.0199     78.705     39.565  27.187684     0.6409      6.566   369.2039 2.6266e+01     0.6839      5.188      7.525     9.3540 0.0000e+00
      5.293      0.026     9.0266     78.763     39.547  27.175089     0.6596      6.564   369.2756 2.6297e+01     0.6850      5.189      7.526     9.3533 0.0000e+00
      5.303      0.033     9.0304     78.796     39.546  27.174048     0.6915      6.563   369.5149 2.6129e+01     0.6512      5.197      7.537     9.3532 0.0000e+00
      5.318      0.039     9.0329     78.820     39.546  27.175092     0.7136      6.563   369.7741 2.5936e+01     0.6111      5.217      7.565     9.3548 0.0000e+00
      5.332      0.047     9.0375     78.864     39.561  27.187715     0.7160      6.562   369.9151 2.5850e+01     0.6271      5.232      7.588     9.3565 0.0000e+00
      5.341      0.056     9.0396     78.884     39.578  27.199676     0.7114      6.559   369.9285 2.5682e+01     0.6616      5.238      7.596     9.3556 0.0000e+00
      5.351      0.062     9.0342     78.833     39.571  27.192709     0.7133      6.556   369.7642 2.5417e+01     0.6621      5.245      7.607     9.3542 0.0000e+00
      5.367      0.065     9.0267     78.760     39.537  27.166982     0.7206      6.553   369.4774 2.5161e+01     0.6334      5.260      7.629     9.3556 0.0000e+00
      5.389      0.066     9.0222     78.715     39.506  27.142601     0.7257      6.551   369.2999 2.4895e+01     0.6189      5.283      7.663     9.3599 0.0000e+00
      5.413      0.063     9.0206     78.697     39.522  27.151909     0.7293      6.550   369.2534 2.4674e+01     0.6406      5.310      7.702     9.3617 0.0000e+00
      5.432      0.056     9.0202     78.691     39.524  27.152524     0.7184      6.550   369.3447 2.4474e+01     0.6516      5.330      7.730     9.3574 0.0000e+00
      5.445      0.045     9.0197     78.688     39.520  27.150038     0.6941      6.551   369.5437 2.4280e+01     0.6604      5.342      7.748     9.3527 0.0000e+00
      5.453      0.033     9.0216     78.708     39.570  27.185349     0.6844      6.552   369.5085 2.4191e+01     0.6856      5.350      7.759     9.3502 0.0000e+00
      5.457      0.024     9.0256     78.751     39.584  27.198481     0.6832      6.553   369.1774 2.4156e+01     0.6819      5.352      7.762     9.3481 0.0000e+00
      5.459      0.023     9.0277     78.779     39.554  27.181816     0.6889      6.553   369.1539 2.4134e+01     0.6460      5.353      7.764     9.3470 0.0000e+00
      5.460      0.030     9.0292     78.795     39.540  27.174360     0.7081      6.553   369.4820 2.4154e+01     0.6171      5.355      7.766     9.3463 0.0000e+00
      5.463      0.042     9.0296     78.794     39.539  27.171823     0.7219      6.550   369.6174 2.4099e+01     0.6379      5.356      7.768     9.3474 0.0000e+00
      5.474      0.054     9.0270     78.762     39.515  27.151138     0.7271      6.547   369.5862 2.3883e+01     0.6834      5.364      7.778     9.3524 0.0000e+00
      5.494      0.064     9.0264     78.747     39.469  27.114754     0.7255      6.545   369.6208 2.3589e+01     0.7403      5.386      7.811     9.3596 0.0000e+00
      5.520      0.071     9.0280     78.753     39.470  27.112889     0.7208      6.545   369.8638 2.3274e+01     0.8078      5.415      7.854     9.3630 0.0000e+00
      5.544      0.073     9.0289     78.758     39.495  27.128592     0.7168      6.544   370.1151 2.3016e+01     0.8274      5.440      7.890     9.3593 0.0000e+00
      5.562      0.071     9.0324     78.787     39.475  27.114123     0.7132      6.544   370.0781 2.2829e+01     0.8256      5.457      7.914     9.3525 0.0000e+00
      5.575      0.067     9.0359     78.817     39.496  27.128435     0.7133      6.544   369.9330 2.2637e+01     0.7866      5.467      7.929     9.3469 0.0000e+00
      5.588      0.065     9.0325     78.786     39.564  27.174643     0.7187      6.544   369.7368 2.2460e+01     0.6911      5.479      7.946     9.3432 0.0000e+00
      5.603      0.066     9.0242     78.710     39.552  27.164831     0.7229      6.544   369.5123 2.2260e+01     0.6471      5.494      7.968     9.3412 0.0000e+00
      5.620      0.070     9.0157     78.632     39.514  27.136794     0.7280      6.541   369.5427 2.1996e+01     0.6514      5.510      7.992     9.3413 0.0000e+00
      5.639      0.075     9.0078     78.561     39.539  27.153137     0.7342      6.539   370.1901 2.1720e+01     0.6510      5.529      8.020     9.3416 0.0000e+00
      5.661      0.079     9.0012     78.501     39.567  27.171940     0.7610      6.537   371.0588 2.1485e+01     0.7038      5.551      8.052     9.3403 0.0000e+00
      5.684      0.082     8.9972     78.465     39.570  27.173650     0.8217      6.535   371.4424 2.1246e+01     0.7712      5.574      8.085     9.3383 0.0000e+00
      5.705      0.085     8.9966     78.460     39.571  27.173806     0.8624      6.534   371.6446 2.0989e+01     0.7937      5.595      8.115     9.3363 0.0000e+00
      5.725      0.086     9.0005     78.493     39.571  27.173821     0.8674      6.532   371.6969 2.0734e+01     0.8538      5.614      8.142     9.3348 0.0000e+00
      5.746      0.085     9.0080     78.559     39.571  27.173822     0.8354      6.527   371.3860 2.0399e+01     0.9184      5.634      8.170     9.3340 0.0000e+00
      5.769      0.080     9.0149     78.619     39.571  27.173822     0.7689      6.525   371.1550 1.9992e+01     0.9040      5.657      8.203     9.3338 0.0000e+00
      5.795      0.073     9.0177     78.643     39.571  27.173822     0.7257      6.525   371.5710 1.9646e+01     0.8622      5.684      8.243     9.3337 0.0000e+00
      5.817      0.067     9.0187     78.652     39.571  27.173823     0.7177      6.523   372.4580 1.9476e+01     0.8398      5.708      8.280     9.3331 0.0000e+00
      5.831      0.063     9.0218     78.679     39.571  27.173832     0.7089      6.520   372.9317 1.9457e+01     0.7862      5.722      8.299     9.3329 0.0000e+00
      5.837      0.059     9.0259     78.715     39.571  27.173937     0.6836      6.519   372.8244 1.9433e+01     0.6722      5.722      8.300     9.3332 0.0000e+00
      5.846      0.057     9.0298     78.750     39.573  27.175092     0.6603      6.519   372.6237 1.9258e+01     0.5905      5.727      8.307     9.3334 0.0000e+00
      5.864      0.059     9.0321     78.771     39.591  27.187790     0.6562      6.519   372.5700 1.8999e+01     0.5918      5.751      8.342     9.3331 0.0000e+00
      5.884      0.066     9.0313     78.764     39.609  27.200480     0.6802      6.519   372.4340 1.8797e+01     0.6278      5.774      8.374     9.3332 0.0000e+00
      5.900      0.074     9.0305     78.757     39.610  27.201530     0.7208      6.518   372.2700 1.8606e+01     0.6281      5.785      8.390     9.3335 0.0000e+00
      5.917      0.081     9.0332     78.780     39.609  27.200480     0.7337      6.517   372.3934 1.8390e+01     0.5957      5.801      8.414     9.3337 0.0000e+00
      5.937      0.086     9.0354     78.798     39.591  27.187775     0.7170      6.517   372.6352 1.8124e+01     0.6015      5.821      8.442     9.3340 0.0000e+00
      5.962      0.091     9.0371     78.812     39.573  27.174920     0.6836      6.517   372.8707 1.7804e+01     0.6680      5.845      8.478     9.3343 0.0000e+00
      5.988      0.097     9.0428     78.861     39.569  27.172047     0.6335      6.516   373.1748 1.7532e+01     0.7585      5.873      8.519     9.3341 0.0000e+00
      6.013      0.102     9.0488     78.913     39.542  27.153036     0.6079      6.513   373.3876 1.7328e+01     0.8117      5.898      8.554     9.3340 0.0000e+00
      6.038      0.106     9.0515     78.935     39.517  27.135553     0.6124      6.509   373.2064 1.7100e+01     0.8224      5.921      8.587     9.3341 0.0000e+00
      6.065      0.109     9.0534     78.951     39.540  27.151153     0.6145      6.507   372.7912 1.6814e+01     0.8273      5.947      8.625     9.3335 0.0000e+00
      6.094      0.111     9.0570     78.982     39.541  27.151151     0.6428      6.505   372.6683 1.6512e+01     0.8402      5.976      8.667     9.3326 0.0000e+00
      6.124      0.111     9.0593     79.001     39.518  27.135536     0.6978      6.505   372.8400 1.6202e+01     0.8552      6.006      8.711     9.3322 0.0000e+00
      6.154      0.111     9.0598     79.006     39.543  27.152854     0.7183      6.504   373.1467 1.5897e+01     0.8568      6.035      8.754     9.3319 0.0000e+00
      6.183      0.109     9.0603     79.011     39.568  27.170044     0.7152      6.504   373.5369 1.5621e+01     0.8595      6.065      8.796     9.3313 0.0000e+00
      6.211      0.105     9.0607     79.014     39.543  27.152880     0.7070      6.505   373.7723 1.5370e+01     0.8274      6.092      8.836     9.3309 0.0000e+00
      6.236      0.101     9.0639     79.042     39.518  27.135822     0.6834      6.505   373.3251 1.5145e+01     0.7430      6.117      8.871     9.3310 0.0000e+00
      6.260      0.099     9.0683     79.081     39.545  27.154284     0.6689      6.505   372.3459 1.4937e+01     0.6931      6.140      8.904     9.3310 0.0000e+00
      6.283      0.098     9.0717     79.111     39.591  27.185617     0.6697      6.504   371.9134 1.4735e+01     0.6824      6.162      8.937     9.3309 0.0000e+00
      6.307      0.098     9.0758     79.147     39.608  27.197172     0.6838      6.504   371.9675 1.4514e+01     0.6747      6.185      8.970     9.3307 0.0000e+00
      6.334      0.098     9.0808     79.190     39.564  27.167000     0.7113      6.504   372.1405 1.4243e+01     0.6603      6.211      9.008     9.3307 0.0000e+00
      6.362      0.098     9.0832     79.210     39.522  27.138299     0.7626      6.504   372.5422 1.3972e+01     0.7232      6.239      9.049     9.3311 0.0000e+00
      6.388      0.095     9.0828     79.208     39.564  27.167641     0.8449      6.505   372.7798 1.3763e+01     0.9766      6.265      9.087     9.3314 0.0000e+00
      6.412      0.089     9.0822     79.203     39.617  27.204271     0.8969      6.505   372.4322 1.3569e+01     1.3132      6.288      9.120     9.3311 0.0000e+00
      6.436      0.083     9.0785     79.170     39.611  27.200207     0.8958      6.505   371.6947 1.3377e+01     1.5278      6.312      9.155     9.3308 0.0000e+00
      6.456      0.078     9.0721     79.114     39.585  27.181995     0.8678      6.504   371.2628 1.3247e+01     1.4954      6.332      9.184     9.3308 0.0000e+00
      6.471      0.076     9.0654     79.055     39.575  27.174566     0.8255      6.503   371.4259 1.3167e+01     1.3184      6.347      9.205     9.3314 0.0000e+00
      6.486      0.075     9.0589     78.997     39.574  27.173876     0.8245      6.502   371.7738 1.3071e+01     1.2800      6.360      9.224     9.3315 0.0000e+00
      6.504      0.075     9.0545     78.958     39.574  27.173657     0.8657      6.500   371.9422 1.2900e+01     1.3061      6.375      9.247     9.3311 0.0000e+00
      6.527      0.077     9.0514     78.930     39.572  27.171920     0.8912      6.499   372.1717 1.2697e+01     1.2368      6.401      9.285     9.3310 0.0000e+00
      6.550      0.082     9.0485     78.905     39.545  27.152871     0.8757      6.499   372.3972 1.2551e+01     1.1749      6.426      9.321     9.3308 0.0000e+00
      6.568      0.086     9.0453     78.878     39.517  27.133836     0.8351      6.499   372.3457 1.2424e+01     1.1069      6.439      9.341     9.3305 0.0000e+00
      6.588      0.090     9.0433     78.859     39.515  27.132262     0.8316      6.498   372.3225 1.2257e+01     1.1769      6.457      9.366     9.3300 0.0000e+00
      6.613      0.093     9.0428     78.855     39.518  27.133842     0.8620      6.496   372.2894 1.2084e+01     1.3810      6.484      9.405     9.3296 0.0000e+00
      6.638      0.097     9.0438     78.863     39.545  27.152938     0.8628      6.494   372.0319 1.1921e+01     1.4076      6.510      9.441     9.3295 0.0000e+00
      6.663      0.098     9.0491     78.909     39.574  27.172663     0.8312      6.493   371.7900 1.1726e+01     1.3772      6.533      9.475     9.3295 0.0000e+00
      6.690      0.097     9.0572     78.981     39.587  27.181838     0.8200      6.493   372.2040 1.1500e+01     1.4092      6.560      9.515     9.3294 0.0000e+00
      6.718      0.094     9.0664     79.061     39.614  27.200363     0.8467      6.494   372.9930 1.1305e+01     1.3679      6.590      9.558     9.3289 0.0000e+00
      6.743      0.089     9.0770     79.155     39.622  27.206149     0.8780      6.496   373.0707 1.1162e+01     1.2442      6.614      9.595     9.3288 0.0000e+00
      6.762      0.083     9.0885     79.256     39.596  27.188309     0.8767      6.496   372.7983 1.1036e+01     1.1342      6.632      9.618     9.3289 0.0000e+00
      6.781      0.078     9.0983     79.341     39.577  27.175147     0.8681      6.497   372.7114 1.0904e+01     1.2586      6.649      9.643     9.3291 0.0000e+00
      6.800      0.075     9.1027     79.378     39.575  27.174002     0.8936      6.498   372.4500 1.0793e+01     1.4966      6.670      9.674     9.3297 0.0000e+00
      6.818      0.073     9.1000     79.356     39.575  27.174466     0.8910      6.498   372.0471 1.0713e+01     1.4795      6.687      9.698     9.3300 0.0000e+00
      6.835      0.072     9.0934     79.299     39.584  27.180753     0.8550      6.498   372.4862 1.0625e+01     1.3260      6.701      9.719     9.3302 0.0000e+00
      6.855      0.069     9.0864     79.239     39.592  27.186525     0.8351      6.499   373.6293 1.0491e+01     1.2275      6.721      9.748     9.3297 0.0000e+00
      6.875      0.065     9.0774     79.163     39.582  27.180752     0.8343      6.500   374.1665 1.0351e+01     1.2044      6.744      9.781     9.3295 0.0000e+00
      6.892      0.062     9.0676     79.080     39.572  27.174454     0.8634      6.501   374.1637 1.0264e+01     1.2608      6.760      9.804     9.3303 0.0000e+00
      6.905      0.060     9.0580     78.997     39.570  27.173880     0.8745      6.502   373.7680 1.0197e+01     1.2383      6.773      9.821     9.3309 0.0000e+00
      6.917      0.057     9.0482     78.912     39.570  27.173813     0.8682      6.502   373.0817 1.0122e+01     1.2377      6.784      9.839     9.3316 0.0000e+00
      6.930      0.056     9.0412     78.851     39.570  27.173638     0.9061      6.502   372.8346 1.0047e+01     1.4061      6.796      9.856     9.3324 0.0000e+00
      6.945      0.057     9.0382     78.822     39.568  27.171764     0.9466      6.502   373.1895 9.9599e+00     1.5344      6.811      9.878     9.3334 0.0000e+00
      6.961      0.058     9.0369     78.808     39.539  27.151155     0.9447      6.502   373.8455 9.8664e+00     1.5371      6.827      9.901     9.3338 0.0000e+00
      6.976      0.059     9.0357     78.794     39.489  27.114945     0.9109      6.502   374.3983 9.7816e+00     1.4383      6.841      9.921     9.3339 0.0000e+00
      6.991      0.060     9.0368     78.803     39.490  27.114950     0.8869      6.502   374.6258 9.7077e+00     1.3172      6.855      9.941     9.3345 0.0000e+00
      7.006      0.061     9.0411     78.839     39.543  27.151210     0.9026      6.503   374.5311 9.6329e+00     1.2937      6.870      9.964     9.3337 0.0000e+00
      7.022      0.062     9.0451     78.874     39.574  27.172378     0.8986      6.503   374.2849 9.5462e+00     1.2457      6.886      9.987     9.3315 0.0000e+00
      7.037      0.064     9.0490     78.908     39.586  27.180393     0.8836      6.502   373.9724 9.4554e+00     1.1035      6.901     10.009     9.3300 0.0000e+00
      7.053      0.066     9.0549     78.958     39.592  27.184619     0.8778      6.501   373.6789 9.3611e+00     1.0081      6.917     10.032     9.3288 0.0000e+00
      7.070      0.067     9.0605     79.006     39.557  27.159970     0.8560      6.500   373.7473 9.2519e+00     1.0696      6.933     10.056     9.3285 0.0000e+00
      7.088      0.067     9.0622     79.021     39.522  27.136357     0.8682      6.500   373.9388 9.1417e+00     1.2351      6.951     10.082     9.3287 0.0000e+00
      7.107      0.067     9.0603     79.005     39.547  27.153107     0.8788      6.500   374.1010 9.0517e+00     1.2710      6.970     10.109     9.3286 0.0000e+00
      7.124      0.067     9.0575     78.979     39.575  27.171999     0.8553      6.500   374.5045 8.9656e+00     1.2290      6.987     10.133     9.3285 0.0000e+00
      7.139      0.067     9.0535     78.944     39.579  27.174284     0.8692      6.500   374.7737 8.8607e+00     1.3065      7.001     10.154     9.3279 0.0000e+00
      7.155      0.068     9.0495     78.909     39.589  27.180739     0.9175      6.500   374.0007 8.7657e+00     1.3848      7.017     10.177     9.3277 0.0000e+00
      7.172      0.069     9.0485     78.900     39.598  27.186536     0.9434      6.500   372.7297 8.6851e+00     1.4119      7.033     10.201     9.3275 0.0000e+00
      7.190      0.072     9.0509     78.920     39.589  27.180878     0.9341      6.499   372.4841 8.5848e+00     1.3598      7.051     10.226     9.3270 0.0000e+00
      7.209      0.074     9.0555     78.960     39.582  27.175830     0.9160      6.499   373.1813 8.4693e+00     1.2735      7.070     10.253     9.3267 0.0000e+00
      7.229      0.076     9.0632     79.026     39.602  27.189002     0.9265      6.498   374.0186 8.3507e+00     1.3143      7.088     10.281     9.3265 0.0000e+00
      7.250      0.078     9.0732     79.114     39.637  27.213142     0.9600      6.497   374.5196 8.2347e+00     1.3043      7.110     10.312     9.3263 0.0000e+00
      7.270      0.080     9.0803     79.176     39.637  27.213710     0.9628      6.495   374.5923 8.1246e+00     1.1524      7.130     10.341     9.3261 0.0000e+00
      7.289      0.081     9.0839     79.208     39.611  27.195867     0.9235      6.493   373.7796 8.0136e+00     1.0645      7.148     10.368     9.3260 0.0000e+00
      7.309      0.081     9.0854     79.220     39.600  27.187900     0.8985      6.492   372.4369 7.8982e+00     1.1262      7.167     10.396     9.3260 0.0000e+00
      7.331      0.081     9.0830     79.200     39.589  27.180878     0.9173      6.491   372.0384 7.7819e+00     1.2578      7.189     10.427     9.3259 0.0000e+00
      7.353      0.080     9.0804     79.179     39.579  27.174467     0.9205      6.491   372.3162 7.6739e+00     1.2830      7.212     10.460     9.3258 0.0000e+00
      7.374      0.078     9.0822     79.195     39.578  27.173885     0.8829      6.492   372.6985 7.5779e+00     1.2169      7.233     10.489     9.3260 0.0000e+00
      7.393      0.077     9.0860     79.228     39.578  27.173832     0.8763      6.492   373.3059 7.5001e+00     1.2828      7.251     10.516     9.3261 0.0000e+00
      7.412      0.075     9.0875     79.241     39.578  27.173827     0.9140      6.492   373.8085 7.4196e+00     1.4684      7.269     10.542     9.3265 0.0000e+00
      7.429      0.075     9.0881     79.246     39.579  27.173826     0.9345      6.492   373.5279 7.3301e+00     1.5692      7.286     10.567     9.3269 0.0000e+00
      7.448      0.076     9.0884     79.248     39.579  27.173811     0.9127      6.492   372.4949 7.2523e+00     1.4951      7.303     10.592     9.3272 0.0000e+00
      7.468      0.077     9.0879     79.243     39.579  27.173655     0.8703      6.492   371.9009 7.1644e+00     1.3956      7.323     10.621     9.3273 0.0000e+00
      7.488      0.079     9.0879     79.242     39.576  27.171938     0.8721      6.491   371.9388 7.0742e+00     1.4356      7.344     10.652     9.3270 0.0000e+00
      7.508      0.080     9.0873     79.237     39.549  27.153046     0.9169      6.491   372.0067 7.0072e+00     1.4900      7.363     10.679     9.3266 0.0000e+00
      7.529      0.079     9.0855     79.222     39.524  27.135728     0.9161      6.490   372.1183 6.9272e+00     1.4120      7.383     10.708     9.3263 0.0000e+00
      7.551      0.077     9.0848     79.215     39.549  27.153046     0.8714      6.490   372.6004 6.8206e+00     1.2864      7.406     10.741     9.3262 0.0000e+00
      7.572      0.074     9.0859     79.225     39.577  27.171938     0.8445      6.490   373.1889 6.7259e+00     1.3137      7.427     10.771     9.3263 0.0000e+00
      7.590      0.072     9.0886     79.249     39.579  27.173654     0.8573      6.490   373.2978 6.6682e+00     1.4982      7.444     10.797     9.3263 0.0000e+00
      7.606      0.071     9.0911     79.272     39.579  27.173796     0.8889      6.490   373.2290 6.6277e+00     1.5945      7.459     10.818     9.3262 0.0000e+00
      7.621      0.069     9.0901     79.263     39.579  27.173659     0.8963      6.490   372.9599 6.5707e+00     1.5325      7.473     10.838     9.3259 0.0000e+00
      7.639      0.069     9.0869     79.233     39.576  27.171995     0.9098      6.491   372.3670 6.4962e+00     1.5412      7.490     10.864     9.3260 0.0000e+00
      7.659      0.069     9.0866     79.230     39.550  27.153674     0.9598      6.491   372.0825 6.4118e+00     1.6700      7.512     10.895     9.3263 0.0000e+00
      7.677      0.070     9.0878     79.240     39.534  27.142640     0.9860      6.491   372.9624 6.3400e+00     1.6246      7.530     10.921     9.3265 0.0000e+00
      7.694      0.070     9.0847     79.213     39.568  27.165574     0.9413      6.491   374.5729 6.2765e+00     1.3279      7.545     10.943     9.3264 0.0000e+00
      7.710      0.069     9.0789     79.163     39.585  27.176976     0.8792      6.491   375.2935 6.1818e+00     1.0739      7.561     10.966     9.3263 0.0000e+00
      7.728      0.067     9.0730     79.111     39.550  27.153504     0.8785      6.491   375.2225 6.0851e+00     1.0861      7.579     10.992     9.3259 0.0000e+00
      7.747      0.065     9.0678     79.066     39.524  27.135770     0.9142      6.491   374.7472 6.0084e+00     1.2317      7.597     11.019     9.3255 0.0000e+00
      7.764      0.064     9.0646     79.038     39.549  27.153050     0.9158      6.490   373.9343 5.9409e+00     1.2771      7.614     11.043     9.3255 0.0000e+00
      7.779      0.064     9.0613     79.008     39.577  27.171939     0.8987      6.490   373.6531 5.8928e+00     1.3295      7.629     11.064     9.3256 0.0000e+00
      7.793      0.064     9.0558     78.960     39.581  27.173657     0.8906      6.490   374.5313 5.8430e+00     1.4390      7.643     11.084     9.3258 0.0000e+00
      7.807      0.066     9.0534     78.939     39.581  27.173812     0.8826      6.490   376.0346 5.7808e+00     1.4716      7.657     11.105     9.3257 0.0000e+00
      7.824      0.069     9.0562     78.964     39.581  27.173827     0.8842      6.490   376.7727 5.7190e+00     1.4492      7.672     11.128     9.3254 0.0000e+00
      7.843      0.073     9.0591     78.988     39.581  27.173828     0.8734      6.489   376.5725 5.6560e+00     1.3821      7.691     11.154     9.3251 0.0000e+00
      7.863      0.076     9.0597     78.994     39.581  27.173828     0.8704      6.487   376.1949 5.5895e+00     1.3916      7.710     11.182     9.3249 0.0000e+00
      7.884      0.077     9.0566     78.967     39.581  27.173828     0.9036      6.487   376.0784 5.5145e+00     1.5036      7.731     11.213     9.3249 0.0000e+00
      7.905      0.077     9.0511     78.919     39.581  27.173826     0.9171      6.487   376.1104 5.4397e+00     1.5459      7.752     11.244     9.3249 0.0000e+00
      7.925      0.076     9.0480     78.892     39.581  27.173811     0.8767      6.487   376.0661 5.3708e+00     1.4755      7.773     11.274     9.3248 0.0000e+00
      7.944      0.074     9.0480     78.892     39.581  27.173639     0.8200      6.487   376.4033 5.3016e+00     1.3541      7.792     11.301     9.3247 0.0000e+00
      7.962      0.072     9.0481     78.892     39.578  27.171751     0.8286      6.486   377.0901 5.2484e+00     1.3607      7.809     11.326     9.3247 0.0000e+00
      7.979      0.072     9.0490     78.900     39.548  27.150986     0.9067      6.486   377.3149 5.2060e+00     1.4328      7.825     11.350     9.3246 0.0000e+00
      7.997      0.073     9.0537     78.940     39.493  27.113060     0.9466      6.485   377.2286 5.1508e+00     1.3716      7.842     11.374     9.3245 0.0000e+00
      8.015      0.074     9.0621     79.014     39.465  27.094178     0.9159      6.484   377.3370 5.0898e+00     1.3527      7.859     11.399     9.3244 0.0000e+00
      8.034      0.077     9.0724     79.104     39.493  27.113174     0.8946      6.482   376.9911 5.0352e+00     1.4187      7.878     11.426     9.3243 0.0000e+00
      8.054      0.079     9.0815     79.183     39.550  27.152246     0.9279      6.481   376.3158 4.9862e+00     1.4982      7.898     11.455     9.3243 0.0000e+00
      8.076      0.079     9.0870     79.231     39.598  27.185606     0.9783      6.481   376.3130 4.9241e+00     1.5812      7.920     11.487     9.3243 0.0000e+00
      8.098      0.077     9.0904     79.261     39.618  27.199039     0.9801      6.481   376.5273 4.8526e+00     1.5368      7.941     11.518     9.3242 0.0000e+00
      8.118      0.074     9.0928     79.281     39.602  27.187666     0.9582      6.481   376.4982 4.7873e+00     1.5411      7.961     11.547     9.3242 0.0000e+00
      8.137      0.070     9.0931     79.284     39.584  27.175087     0.9716      6.482   376.7356 4.7228e+00     1.6638      7.980     11.574     9.3243 0.0000e+00
      8.153      0.066     9.0926     79.279     39.582  27.173944     0.9578      6.482   377.2462 4.6790e+00     1.5865      7.997     11.598     9.3244 0.0000e+00
      8.168      0.065     9.0917     79.271     39.582  27.173840     0.8930      6.483   376.5623 4.6607e+00     1.3387      8.010     11.618     9.3241 0.0000e+00
      8.182      0.065     9.0915     79.270     39.582  27.173830     0.8581      6.484   374.8338 4.6327e+00     1.2312      8.024     11.637     9.3239 0.0000e+00
      8.197      0.066     9.0943     79.294     39.582  27.173829     0.8671      6.484   374.1569 4.5773e+00     1.3252      8.037     11.658     9.3237 0.0000e+00
      8.214      0.068     9.0988     79.333     39.582  27.173829     0.8825      6.483   374.2299 4.5131e+00     1.4676      8.055     11.682     9.3236 0.0000e+00
      8.234      0.071     9.1034     79.374     39.581  27.173829     0.8599      6.482   374.5979 4.4632e+00     1.4577      8.074     11.710     9.3239 0.0000e+00
      8.254      0.073     9.1081     79.416     39.581  27.173828     0.8152      6.480   375.3369 4.4192e+00     1.3276      8.094     11.740     9.3241 0.0000e+00
      8.273      0.074     9.1127     79.456     39.581  27.173813     0.8199      6.480   375.5067 4.3646e+00     1.3289      8.113     11.767     9.3241 0.0000e+00
      8.291      0.074     9.1158     79.484     39.581  27.173658     0.8702      6.480   374.6717 4.3100e+00     1.4118      8.131     11.794     9.3242 0.0000e+00
      8.310      0.073     9.1168     79.492     39.578  27.171949     0.9091      6.480   373.3291 4.2634e+00     1.3534      8.150     11.821     9.3243 0.0000e+00
      8.329      0.072     9.1161     79.486     39.551  27.153147     0.8947      6.481   372.6955 4.2124e+00     1.2028      8.168     11.847     9.3245 0.0000e+00
      8.347      0.072     9.1141     79.468     39.528  27.136818     0.8533      6.481   373.0330 4.1651e+00     1.0868      8.186     11.872     9.3248 0.0000e+00
      8.364      0.072     9.1091     79.424     39.569  27.165013     0.8588      6.481   373.5380 4.1306e+00     1.1098      8.202     11.896     9.3248 0.0000e+00
      8.382      0.071     9.0991     79.335     39.587  27.176558     0.8873      6.480   373.8118 4.0905e+00     1.1754      8.220     11.922     9.3246 0.0000e+00
      8.401      0.071     9.0870     79.229     39.547  27.149413     0.8942      6.480   374.1925 4.0383e+00     1.1175      8.238     11.948     9.3246 0.0000e+00
      8.421      0.071     9.0783     79.154     39.554  27.154292     0.8965      6.480   374.6132 3.9856e+00     1.0811      8.258     11.977     9.3242 0.0000e+00
      8.439      0.070     9.0720     79.099     39.580  27.172053     0.9146      6.479   374.5104 3.9322e+00     1.2236      8.277     12.004     9.3239 0.0000e+00
      8.455      0.069     9.0670     79.054     39.583  27.173668     0.9670      6.478   374.1542 3.8790e+00     1.4365      8.291     12.025     9.3236 0.0000e+00
      8.472      0.068     9.0639     79.026     39.583  27.173815     0.9781      6.478   373.7486 3.8309e+00     1.4271      8.307     12.048     9.3234 0.0000e+00
      8.490      0.067     9.0619     79.009     39.584  27.173829     0.9300      6.478   373.3054 3.7847e+00     1.2628      8.326     12.075     9.3234 0.0000e+00
      8.507      0.066     9.0629     79.017     39.584  27.173831     0.9181      6.478   373.1842 3.7462e+00     1.2818      8.343     12.101     9.3232 0.0000e+00
      8.524      0.065     9.0649     79.034     39.584  27.173840     0.9347      6.478   374.0897 3.7117e+00     1.4125      8.359     12.123     9.3230 0.0000e+00
      8.540      0.064     9.0636     79.023     39.584  27.173943     0.9293      6.478   375.4776 3.6686e+00     1.4084      8.374     12.146     9.3226 0.0000e+00
      8.557      0.063     9.0583     78.977     39.586  27.175074     0.8989      6.478   375.6835 3.6275e+00     1.2627      8.392     12.172     9.3221 0.0000e+00
      8.573      0.064     9.0518     78.920     39.604  27.187512     0.8614      6.478   375.3741 3.6014e+00     1.1158      8.407     12.194     9.3220 0.0000e+00
      8.588      0.066     9.0491     78.896     39.618  27.197340     0.8607      6.478   375.4365 3.5753e+00     1.1886      8.421     12.214     9.3221 0.0000e+00
      8.603      0.070     9.0496     78.901     39.574  27.166903     0.9000      6.477   375.1473 3.5399e+00     1.3499      8.436     12.235     9.3219 0.0000e+00
      8.620      0.074     9.0533     78.932     39.530  27.136992     0.9040      6.475   374.6302 3.4948e+00     1.3261      8.452     12.258     9.3219 0.0000e+00
      8.640      0.079     9.0593     78.985     39.554  27.153174     0.8643      6.473   375.3794 3.4458e+00     1.2669      8.472     12.288     9.3220 0.0000e+00
      8.663      0.083     9.0624     79.013     39.582  27.172064     0.8696      6.473   377.1509 3.4016e+00     1.3356      8.496     12.322     9.3219 0.0000e+00
      8.687      0.086     9.0651     79.036     39.586  27.174902     0.9312      6.472   377.9809 3.3653e+00     1.4553      8.518     12.356     9.3219 0.0000e+00
      8.709      0.087     9.0688     79.069     39.604  27.187482     0.9569      6.471   378.0146 3.3343e+00     1.4323      8.541     12.388     9.3220 0.0000e+00
      8.731      0.087     9.0699     79.078     39.618  27.197172     0.9239      6.470   377.6452 3.2962e+00     1.3023      8.562     12.417     9.3220 0.0000e+00
      8.753      0.084     9.0692     79.073     39.570  27.165071     0.9092      6.469   376.8703 3.2640e+00     1.2869      8.583     12.448     9.3220 0.0000e+00
      8.776      0.079     9.0711     79.090     39.500  27.116839     0.9258      6.468   376.4743 3.2359e+00     1.3680      8.607     12.483     9.3219 0.0000e+00
      8.798      0.074     9.0745     79.120     39.507  27.121992     0.9312      6.467   376.9877 3.1961e+00     1.3675      8.627     12.513     9.3220 0.0000e+00
      8.818      0.070     9.0764     79.137     39.568  27.163870     0.9104      6.467   378.1732 3.1506e+00     1.2500      8.648     12.543     9.3221 0.0000e+00
      8.833      0.068     9.0764     79.136     39.590  27.178698     0.8766      6.468   378.8486 3.1125e+00     1.1981      8.665     12.567     9.3227 0.0000e+00
      8.844      0.069     9.0715     79.093     39.583  27.174274     0.8989      6.468   378.8724 3.0935e+00     1.3206      8.672     12.578     9.3231 0.0000e+00
      8.856      0.073     9.0630     79.019     39.583  27.173881     0.9687      6.467   378.8912 3.0706e+00     1.4492      8.682     12.592     9.3232 0.0000e+00
      8.876      0.078     9.0545     78.944     39.583  27.173949     0.9755      6.465   378.8182 3.0286e+00     1.4097      8.703     12.624     9.3234 0.0000e+00
      8.901      0.083     9.0471     78.879     39.585  27.175091     0.9267      6.464   378.3340 2.9894e+00     1.3011      8.729     12.661     9.3233 0.0000e+00
      8.926      0.088     9.0399     78.817     39.604  27.187685     0.9030      6.464   377.7687 2.9490e+00     1.3263      8.754     12.697     9.3231 0.0000e+00
      8.950      0.090     9.0341     78.767     39.621  27.199229     0.9280      6.464   377.7478 2.9074e+00     1.4401      8.778     12.732     9.3229 0.0000e+00
      8.973      0.089     9.0337     78.763     39.604  27.187669     0.9707      6.464   377.9091 2.8807e+00     1.4260      8.801     12.764     9.3228 0.0000e+00
      8.995      0.088     9.0391     78.810     39.586  27.174919     0.9691      6.464   378.0847 2.8502e+00     1.3089      8.821     12.794     9.3224 0.0000e+00
      9.016      0.086     9.0448     78.858     39.581  27.172056     0.9451      6.464   378.4951 2.8115e+00     1.3360      8.842     12.824     9.3223 0.0000e+00
      9.038      0.086     9.0458     78.867     39.554  27.153060     0.9466      6.464   378.7412 2.7760e+00     1.4788      8.863     12.855     9.3224 0.0000e+00
      9.060      0.086     9.0452     78.862     39.529  27.135733     0.9512      6.463   377.9632 2.7408e+00     1.5405      8.885     12.887     9.3223 0.0000e+00
      9.082      0.086     9.0461     78.870     39.554  27.153049     0.9461      6.462   376.5735 2.7130e+00     1.4705      8.907     12.917     9.3223 0.0000e+00
      9.104      0.085     9.0486     78.892     39.582  27.171927     0.9306      6.463   376.1347 2.6988e+00     1.3353      8.927     12.948     9.3223 0.0000e+00
      9.126      0.083     9.0513     78.916     39.584  27.173487     0.9293      6.465   376.7015 2.6856e+00     1.3406      8.950     12.981     9.3220 0.0000e+00
      9.148      0.080     9.0522     78.924     39.581  27.171916     0.9578      6.465   377.4892 2.6571e+00     1.4736      8.971     13.012     9.3219 0.0000e+00
      9.168      0.077     9.0530     78.931     39.554  27.152934     0.9627      6.466   377.9154 2.6250e+00     1.4777      8.992     13.042     9.3221 0.0000e+00
      9.188      0.074     9.0580     78.974     39.527  27.134473     0.9430      6.466   377.8966 2.5939e+00     1.4207      9.011     13.069     9.3223 0.0000e+00
      9.205      0.070     9.0646     79.031     39.534  27.139196     0.9397      6.465   377.0037 2.5494e+00     1.4260      9.027     13.092     9.3224 0.0000e+00
      9.221      0.067     9.0689     79.069     39.544  27.146543     0.9595      6.465   375.4651 2.5096e+00     1.4497      9.043     13.116     9.3223 0.0000e+00
      9.238      0.066     9.0717     79.093     39.563  27.159806     0.9984      6.466   374.8667 2.4853e+00     1.5244      9.060     13.140     9.3222 0.0000e+00
      9.255      0.067     9.0722     79.097     39.582  27.172557     0.9965      6.466   375.1027 2.4631e+00     1.5045      9.077     13.164     9.3221 0.0000e+00
      9.270      0.068     9.0703     79.081     39.584  27.173721     0.9560      6.465   375.3078 2.4451e+00     1.4232      9.091     13.187     9.3220 0.0000e+00
      9.286      0.069     9.0674     79.055     39.584  27.173879     0.9405      6.465   375.6253 2.4304e+00     1.4876      9.105     13.206     9.3219 0.0000e+00
      9.305      0.068     9.0649     79.034     39.585  27.174461     0.9180      6.466   376.1892 2.4059e+00     1.4896      9.123     13.232     9.3221 0.0000e+00
      9.327      0.064     9.0627     79.014     39.594  27.180759     0.8956      6.467   376.1028 2.3775e+00     1.3866      9.146     13.266     9.3221 0.0000e+00
      9.347      0.060     9.0597     78.987     39.603  27.186532     0.8904      6.467   375.1824 2.3550e+00     1.3708      9.168     13.297     9.3222 0.0000e+00
      9.361      0.057     9.0567     78.961     39.594  27.180759     0.8831      6.466   374.6976 2.3380e+00     1.3900      9.183     13.317     9.3221 0.0000e+00
      9.370      0.056     9.0542     78.940     39.585  27.174461     0.9091      6.465   374.8011 2.3291e+00     1.4365      9.189     13.328     9.3220 0.0000e+00
      9.377      0.058     9.0522     78.923     39.584  27.173887     0.9190      6.465   374.9712 2.3149e+00     1.4444      9.194     13.334     9.3219 0.0000e+00
      9.389      0.062     9.0500     78.904     39.584  27.173821     0.8739      6.464   375.2059 2.2843e+00     1.3633      9.204     13.349     9.3219 0.0000e+00
      9.409      0.069     9.0489     78.894     39.584  27.173661     0.8508      6.463   375.5736 2.2474e+00     1.3403      9.226     13.382     9.3219 0.0000e+00
      9.433      0.075     9.0496     78.900     39.581  27.171943     0.8788      6.461   375.8894 2.2249e+00     1.4109      9.252     13.419     9.3219 0.0000e+00
      9.455      0.080     9.0510     78.912     39.554  27.153051     0.9184      6.461   375.8408 2.2138e+00     1.5156      9.273     13.449     9.3217 0.0000e+00
      9.475      0.081     9.0518     78.919     39.529  27.135734     0.9157      6.461   375.5887 2.1910e+00     1.5074      9.292     13.476     9.3216 0.0000e+00
      9.495      0.079     9.0493     78.898     39.554  27.153056     0.8740      6.461   375.2493 2.1625e+00     1.4032      9.312     13.506     9.3217 0.0000e+00
      9.515      0.074     9.0452     78.862     39.582  27.172001     0.8740      6.461   374.8349 2.1281e+00     1.4152      9.332     13.536     9.3216 0.0000e+00
      9.534      0.068     9.0430     78.844     39.585  27.174291     0.9159      6.462   374.6224 2.0871e+00     1.4391      9.350     13.561     9.3217 0.0000e+00
      9.553      0.060     9.0415     78.830     39.594  27.180754     0.9116      6.462   375.1758 2.0636e+00     1.3560      9.369     13.587     9.3218 0.0000e+00
      9.569      0.051     9.0383     78.802     39.603  27.186645     0.8588      6.462   376.1905 2.0596e+00     1.2961      9.386     13.613     9.3217 0.0000e+00
      9.580      0.042     9.0341     78.766     39.596  27.182018     0.8195      6.462   376.5664 2.0549e+00     1.3556      9.397     13.629     9.3219 0.0000e+00
      9.587      0.035     9.0326     78.753     39.605  27.188316     0.8324      6.463   376.5372 2.0335e+00     1.4959      9.403     13.637     9.3220 0.0000e+00
      9.593      0.030     9.0349     78.774     39.621  27.199289     0.8489      6.464   376.3541 1.9991e+00     1.4972      9.406     13.644     9.3221 0.0000e+00
      9.599      0.026     9.0369     78.794     39.602  27.187692     0.7897      6.466   375.8146 1.9636e+00     1.3404      9.412     13.651     9.3221 0.0000e+00
      9.606      0.024     9.0363     78.791     39.582  27.175102     0.7226      6.467   375.3495 1.9249e+00     1.3090      9.420     13.661     9.3220 0.0000e+00
      9.613      0.023     9.0354     78.785     39.579  27.174061     0.7087      6.467   375.2043 1.8816e+00     1.3620      9.427     13.673     9.3220 0.0000e+00
      9.619 -9.990e-29 -9.990e-29 -9.990e-29 -9.990e-29 -9.990e-29 -9.990e-29 -9.990e-29 -9.990e-29 1.8458e+00 -9.990e-29      9.435     13.684     9.3221 0.0000e+00
      9.624 -9.990e-29 -9.990e-29 -9.990e-29 -9.990e-29 -9.990e-29 -9.990e-29 -9.990e-29 -9.990e-29 1.8262e+00 -9.990e-29      9.439     13.690     9.3233 0.0000e+00
      9.627 -9.990e-29 -9.990e-29 -9.990e-29 -9.990e-29 -9.990e-29 -9.990e-29 -9.990e-29 -9.990e-29 1.8214e+00 -9.990e-29      9.441     13.692     9.3259 0.0000e+00
      9.627 -9.990e-29 -9.990e-29 -9.990e-29 -9.990e-29 -9.990e-29 -9.990e-29 -9.990e-29 -9.990e-29 1.8224e+00 -9.990e-29      9.441     13.693     9.3273 0.0000e+00
