* Sea-Bird SBE19plus  Data File:
* FileName = C:\DATA\051418_fcr_0005.hex
* Software version 2.6.3.104 SB_Terminal.dll
* Temperature SN = 7809
* Conductivity SN = 7809
* System UpLoad Time = May 14 2018 15:32:07
* <ApplicationData>
* <Seaterm232>
* <SoftwareVersion>2.6.3.104</SoftwareVersion>
* <BuildDate>30-Jun-2017</BuildDate>
* </Seaterm232>
* </ApplicationData>
* cast   5 14 May 2018 17:04:52 samples 3253 to 4198, avg = 1, stop = mag switch
# nquan = 15
# nvalues = 804                         
# units = specified
# name 0 = depFM: Depth [fresh water, m]
# name 1 = dz/dtM: Descent Rate [m/s]
# name 2 = sbeox0Mg/L: Oxygen, SBE 43 [mg/l]
# name 3 = sbeox0PS: Oxygen, SBE 43 [% saturation]
# name 4 = specc: Specific Conductance [uS/cm]
# name 5 = c0uS/cm: Conductivity [uS/cm]
# name 6 = flECO-AFL: Fluorescence, WET Labs ECO-AFL/FL [mg/m^3]
# name 7 = ph: pH
# name 8 = orp: Oxidation Reduction Potential [mV]
# name 9 = par/sat/log: PAR/Logarithmic, Satlantic
# name 10 = turbWETntu0: Turbidity, WET Labs ECO [NTU]
# name 11 = prdM: Pressure, Strain Gauge [db]
# name 12 = prdE: Pressure, Strain Gauge [psi]
# name 13 = tv290C: Temperature [ITS-90, deg C]
# name 14 = flag:  0.000e+00
# span 0 =     -0.562,      7.351       
# span 1 =     -0.150,      0.242       
# span 2 =     4.7893,    10.3949       
# span 3 =     57.497,    109.737       
# span 4 =     24.744,     39.717       
# span 5 =  24.991378,  38.094523       
# span 6 =    -0.2466,     3.8106       
# span 7 =      6.490,      7.489       
# span 8 =   269.2218,   545.5438       
# span 9 = 2.0173e+01, 2.6782e+03       
# span 10 =    -0.0317,    15.9100      
# span 11 =     -0.552,      7.210      
# span 12 =     -0.800,     10.457      
# span 13 =     9.2290,    25.9278      
# span 14 = 0.0000e+00, 0.0000e+00      
# interval = seconds: 0.25
# start_time = May 14 2018 17:04:52 [Instrument's time stamp, header]
# bad_flag = -9.990e-29
# <Sensors count="9" >
#   <sensor Channel="1" >
#     <!-- Count, Temperature -->
#     <TemperatureSensor SensorID="58" >
#       <SerialNumber>7809</SerialNumber>
#       <CalibrationDate>09-Mar-18</CalibrationDate>
#       <A0>1.21093245e-003</A0>
#       <A1>2.84356597e-004</A1>
#       <A2>-1.94507398e-006</A2>
#       <A3>2.12806664e-007</A3>
#       <Slope>1.00000000</Slope>
#       <Offset>0.0000</Offset>
#     </TemperatureSensor>
#   </sensor>
#   <sensor Channel="2" >
#     <!-- Frequency 0, Conductivity -->
#     <ConductivitySensor SensorID="3" >
#       <SerialNumber>7809</SerialNumber>
#       <CalibrationDate>09-Mar-18</CalibrationDate>
#       <UseG_J>1</UseG_J>
#       <!-- Cell const and series R are applicable only for wide range sensors. -->
#       <SeriesR>0.0000</SeriesR>
#       <CellConst>2000.0000</CellConst>
#       <ConductivityType>0</ConductivityType>
#       <Coefficients equation="0" >
#         <A>0.00000000e+000</A>
#         <B>0.00000000e+000</B>
#         <C>0.00000000e+000</C>
#         <D>0.00000000e+000</D>
#         <M>0.0</M>
#         <CPcor>-9.57000000e-008</CPcor>
#       </Coefficients>
#       <Coefficients equation="1" >
#         <G>-1.00672082e+000</G>
#         <H>1.26906489e-001</H>
#         <I>-1.40584351e-004</I>
#         <J>2.47837121e-005</J>
#         <CPcor>-9.57000000e-008</CPcor>
#         <CTcor>3.2500e-006</CTcor>
#         <!-- WBOTC not applicable unless ConductivityType = 1. -->
#         <WBOTC>0.00000000e+000</WBOTC>
#       </Coefficients>
#       <Slope>1.00000000</Slope>
#       <Offset>0.00000</Offset>
#     </ConductivitySensor>
#   </sensor>
#   <sensor Channel="3" >
#     <!-- Count, Pressure, Strain Gauge -->
#     <PressureSensor SensorID="46" >
#       <SerialNumber>7809</SerialNumber>
#       <CalibrationDate>07-Mar-18</CalibrationDate>
#       <PA0>-4.08176359e-002</PA0>
#       <PA1>4.85188419e-004</PA1>
#       <PA2>-3.51168169e-012</PA2>
#       <PTEMPA0>-5.37806900e+001</PTEMPA0>
#       <PTEMPA1>5.36620721e+001</PTEMPA1>
#       <PTEMPA2>4.87214332e-002</PTEMPA2>
#       <PTCA0>5.25213435e+005</PTCA0>
#       <PTCA1>1.79532409e+000</PTCA1>
#       <PTCA2>-2.84353509e-001</PTCA2>
#       <PTCB0>2.51668750e+001</PTCB0>
#       <PTCB1>3.75000000e-004</PTCB1>
#       <PTCB2>0.00000000e+000</PTCB2>
#       <Offset>0.000000</Offset>
#     </PressureSensor>
#   </sensor>
#   <sensor Channel="4" >
#     <!-- A/D voltage 0, pH -->
#     <pH_Sensor SensorID="43" >
#       <SerialNumber>0363</SerialNumber>
#       <CalibrationDate>16-Mar-18</CalibrationDate>
#       <Slope>4.6194</Slope>
#       <Offset>2.5947</Offset>
#     </pH_Sensor>
#   </sensor>
#   <sensor Channel="5" >
#     <!-- A/D voltage 1, Oxidation Reduction Potential -->
#     <OxidationReductionPotentialSensor SensorID="41" >
#       <SerialNumber>0363</SerialNumber>
#       <CalibrationDate>16-Mar-18</CalibrationDate>
#       <B>2.499480</B>
#       <M>-0.496195</M>
#       <Offset>0.0</Offset>
#     </OxidationReductionPotentialSensor>
#   </sensor>
#   <sensor Channel="6" >
#     <!-- A/D voltage 2, Oxygen, SBE 43 -->
#     <OxygenSensor SensorID="38" >
#       <SerialNumber>0434</SerialNumber>
#       <CalibrationDate>13-Mar-18</CalibrationDate>
#       <Use2007Equation>1</Use2007Equation>
#       <CalibrationCoefficients equation="0" >
#         <!-- Coefficients for Owens-Millard equation. -->
#         <Boc>0.0000</Boc>
#         <Soc>0.0000e+000</Soc>
#         <offset>0.0000</offset>
#         <Pcor>0.00e+000</Pcor>
#         <Tcor>0.0000</Tcor>
#         <Tau>0.0</Tau>
#       </CalibrationCoefficients>
#       <CalibrationCoefficients equation="1" >
#         <!-- Coefficients for Sea-Bird equation - SBE calibration in 2007 and later. -->
#         <Soc>4.5718e-001</Soc>
#         <offset>-0.6113</offset>
#         <A>-4.0649e-003</A>
#         <B> 2.0945e-004</B>
#         <C>-3.3182e-006</C>
#         <D0> 2.5826e+000</D0>
#         <D1> 1.92634e-004</D1>
#         <D2>-4.64803e-002</D2>
#         <E> 3.6000e-002</E>
#         <Tau20> 1.2200</Tau20>
#         <H1>-3.3000e-002</H1>
#         <H2> 5.0000e+003</H2>
#         <H3> 1.4500e+003</H3>
#       </CalibrationCoefficients>
#     </OxygenSensor>
#   </sensor>
#   <sensor Channel="7" >
#     <!-- A/D voltage 3, PAR/Logarithmic, Satlantic -->
#     <PARLog_SatlanticSensor SensorID="76" >
#       <SerialNumber>1122</SerialNumber>
#       <CalibrationDate>22-Jun-2017</CalibrationDate>
#       <a0>9.6090e-001</a0>
#       <a1>8.0780e-001</a1>
#       <Im>1.3589e+000</Im>
#       <Multiplier>1.0000e+000</Multiplier>
#     </PARLog_SatlanticSensor>
#   </sensor>
#   <sensor Channel="8" >
#     <!-- A/D voltage 4, Fluorometer, WET Labs ECO-AFL/FL -->
#     <FluoroWetlabECO_AFL_FL_Sensor SensorID="20" >
#       <SerialNumber>FLNTURT-2496</SerialNumber>
#       <CalibrationDate>25-Jan-2017</CalibrationDate>
#       <ScaleFactor>5.30000000e+001</ScaleFactor>
#       <!-- Dark output -->
#       <Vblank>0.0560</Vblank>
#     </FluoroWetlabECO_AFL_FL_Sensor>
#   </sensor>
#   <sensor Channel="9" >
#     <!-- A/D voltage 5, Turbidity Meter, WET Labs, ECO-NTU -->
#     <TurbidityMeter SensorID="67" >
#       <SerialNumber>FLNTURT-2496</SerialNumber>
#       <CalibrationDate>25-Jan-2017</CalibrationDate>
#       <ScaleFactor>176.000000</ScaleFactor>
#       <!-- Dark output -->
#       <DarkVoltage>0.072000</DarkVoltage>
#     </TurbidityMeter>
#   </sensor>
# </Sensors>
# datcnv_date = May 14 2018 15:34:57, 7.26.7.114 [datcnv_vars = 14]
# datcnv_in = C:\DATA\051418_fcr45.hex C:\DATA\SBE19plusV2_7809.xmlcon
# datcnv_skipover = 0
# datcnv_ox_hysteresis_correction = yes
# datcnv_ox_tau_correction = yes
# filter_date = May 14 2018 15:35:17, 7.26.7.114
# filter_in = C:\DATA\051418_fcr45.cnv
# filter_low_pass_tc_A = 0.030
# filter_low_pass_tc_B = 0.150
# filter_low_pass_A_vars = prdM prdE tv290C
# filter_low_pass_B_vars = depFM dz/dtM sbeox0Mg/L sbeox0PS specc c0uS/cm flECO-AFL ph orp par/sat/log turbWETntu0
# alignctd_date = May 14 2018 15:35:42, 7.26.7.114
# alignctd_in = C:\DATA\051418_fcr45.cnv
# alignctd_adv = dz/dtM 1.000, sbeox0Mg/L 1.000, sbeox0PS 1.000, specc 1.000, c0uS/cm 1.000, flECO-AFL 1.000, ph 1.000, orp 1.000, turbWETntu0 1.000                                                                                 
# file_type = ascii
*END*
     -0.562      0.055     8.0194     97.898     24.744  24.991378    -0.2466      6.617   545.5438 1.2101e+03    -0.0317     -0.552     -0.800    25.4054 0.0000e+00
     -0.561      0.105     8.0039     97.934     34.194  34.610836    -0.2461      6.974   309.4318 7.4358e+02     0.0413     -0.550     -0.798    25.4046 0.0000e+00
     -0.549      0.156     7.9849     97.989     35.983  36.531116    -0.2221      7.159   283.4150 4.9870e+02     0.3926     -0.552     -0.800    25.4087 0.0000e+00
     -0.501      0.198     7.9758     98.087     35.955  36.586045     0.0054      7.208   274.4260 5.2802e+02     4.4292     -0.513     -0.743    25.4043 0.0000e+00
     -0.409      0.227     7.9857     98.273     35.890  36.545602     0.4375      7.194   270.8691 9.3487e+02    11.8593     -0.401     -0.582    25.4318 0.0000e+00
     -0.312      0.242     8.0127     98.568     35.910  36.550357     0.6922      7.169   270.3510 1.7592e+03    15.8882     -0.292     -0.423    25.5769 0.0000e+00
     -0.246      0.238     8.0516     98.968     35.970  36.579974     0.7238      7.130   270.5707 2.3238e+03    15.9100     -0.232     -0.337    25.7740 0.0000e+00
     -0.202      0.213     8.0968     99.443     36.070  36.649551     0.6909      7.075   271.1154 2.0478e+03    11.9705     -0.199     -0.288    25.9054 0.0000e+00
     -0.162      0.170     8.1408     99.939     36.129  36.692783     0.6348      7.028   271.6025 1.6788e+03     4.7251     -0.161     -0.234    25.9278 0.0000e+00
     -0.118      0.120     8.1726    100.355     36.085  36.657993     0.6151      7.004   271.8148 2.0821e+03     0.8174     -0.115     -0.166    25.8911 0.0000e+00
     -0.077      0.073     8.1878    100.598     36.079  36.673602     0.6269      7.003   271.7040 2.3190e+03     0.4591     -0.070     -0.101    25.8454 0.0000e+00
     -0.055      0.030     8.1893    100.639     36.275  36.881541     0.6299      7.015   271.2950 1.7759e+03     0.3934     -0.042     -0.061    25.7917 0.0000e+00
     -0.060     -0.011     8.1749    100.452     36.470  37.075843     0.6149      7.029   270.9992 1.1807e+03     0.3894     -0.050     -0.073    25.7562 0.0000e+00
     -0.088     -0.048     8.1448    100.077     36.450  37.053594     0.6020      7.049   271.1387 1.2187e+03     0.4411     -0.085     -0.123    25.7801 0.0000e+00
     -0.119     -0.078     8.1052     99.607     36.385  36.993689     0.6030      7.077   271.5182 1.4332e+03     0.4993     -0.122     -0.177    25.8299 0.0000e+00
     -0.141     -0.094     8.0622     99.113     36.426  37.050337     0.5908      7.103   271.7169 1.1069e+03     0.4519     -0.141     -0.204    25.8384 0.0000e+00
     -0.159     -0.094     8.0202     98.630     36.527  37.166807     0.5545      7.124   271.7335 1.0760e+03     0.3260     -0.150     -0.217    25.8219 0.0000e+00
     -0.185     -0.083     7.9845     98.209     36.610  37.258467     0.5415      7.145   271.8050 1.3238e+03     0.2288     -0.179     -0.260    25.8173 0.0000e+00
     -0.215     -0.065     7.9584     97.893     36.681  37.332760     0.5520      7.164   271.8073 9.7805e+02     0.1919     -0.215     -0.312    25.8267 0.0000e+00
     -0.238     -0.039     7.9413     97.684     36.776  37.429812     0.5349      7.179   271.4175 1.0104e+03     0.2460     -0.237     -0.344    25.8506 0.0000e+00
     -0.248     -0.004     7.9306     97.544     36.890  37.542539     0.4918      7.191   270.9637 1.6065e+03     0.3337     -0.246     -0.356    25.8748 0.0000e+00
     -0.247      0.038     7.9131     97.301     36.973  37.615754     0.4623      7.206   270.9666 1.4763e+03     0.3672     -0.247     -0.358    25.8820 0.0000e+00
     -0.232      0.076     7.8620     96.634     37.052  37.679763     0.4631      7.223   270.9365 1.0261e+03     0.3764     -0.234     -0.340    25.8828 0.0000e+00
     -0.198      0.105     7.7622     95.371     37.257  37.871735     0.5190      7.238   270.4270 1.3475e+03     0.3534     -0.200     -0.289    25.8843 0.0000e+00
     -0.152      0.125     7.6249     93.648     37.492  38.094523     0.6140      7.249   269.9695 1.8731e+03     0.2723     -0.147     -0.213    25.8829 0.0000e+00
     -0.111      0.138     7.4659     91.628     37.513  38.086415     0.6655      7.256   269.7935 1.6141e+03     0.2202     -0.103     -0.149    25.8655 0.0000e+00
     -0.080      0.138     7.2999     89.458     37.265  37.773665     0.6649      7.261   269.7612 1.3601e+03     0.2112     -0.079     -0.114    25.8383 0.0000e+00
     -0.050      0.128     7.1503     87.421     36.889  37.298821     0.6524      7.271   269.7499 1.8212e+03     0.1943     -0.054     -0.079    25.8188 0.0000e+00
     -0.013      0.113     7.0354     85.778     36.624  36.918952     0.6525      7.284   269.4846 2.0748e+03     0.1992     -0.014     -0.021    25.8030 0.0000e+00
      0.025      0.098     6.9657     84.695     36.616  36.801547     0.6665      7.298   269.2218 1.7721e+03     0.2082      0.032      0.046    25.7739 0.0000e+00
      0.048      0.087     6.9505     84.312     36.739  36.832003     0.6734      7.309   269.3259 1.3988e+03     0.1813      0.053      0.077    25.6942 0.0000e+00
      0.059      0.079     6.9799     84.517     36.757  36.778860     0.6810      7.310   269.5382 1.5079e+03     0.1789      0.057      0.081    25.5557 0.0000e+00
      0.069      0.074     7.0181     84.862     36.637  36.603575     0.6761      7.308   269.5521 1.9682e+03     0.2100      0.066      0.095    25.3959 0.0000e+00
      0.084      0.073     7.0378     85.004     36.506  36.427725     0.6412      7.324   269.6656 1.9324e+03     0.2219      0.081      0.117    25.2390 0.0000e+00
      0.104      0.075     7.0349     84.894     36.417  36.304250     0.6182      7.351   270.0505 1.5080e+03     0.2310      0.099      0.144    25.1078 0.0000e+00
      0.129      0.076     7.0092     84.522     36.332  36.190511     0.6087      7.372   270.3330 1.3978e+03     0.2293      0.125      0.181    25.0160 0.0000e+00
      0.157      0.070     6.9691     83.976     36.239  36.068856     0.5729      7.387   270.3289 1.5476e+03     0.2624      0.157      0.228    24.9445 0.0000e+00
      0.179      0.057     6.9360     83.508     36.178  35.976693     0.5255      7.398   270.2586 1.3776e+03     0.3866      0.179      0.260    24.8824 0.0000e+00
      0.191      0.040     6.9226     83.281     36.199  35.965451     0.5039      7.408   270.2566 1.0186e+03     0.4800      0.189      0.274    24.8364 0.0000e+00
      0.195      0.021     6.9376     83.407     36.384  36.123451     0.4952      7.411   270.3056 1.1149e+03     0.4757      0.193      0.281    24.8011 0.0000e+00
      0.194     -0.004     6.9935     84.044     36.641  36.362462     0.5125      7.401   270.4206 1.3028e+03     0.4566      0.191      0.278    24.7613 0.0000e+00
      0.190     -0.034     7.0890     85.180     36.662  36.377868     0.5752      7.390   270.5287 1.1250e+03     0.4628      0.185      0.269    24.7153 0.0000e+00
      0.187     -0.070     7.2038     86.569     36.461  36.182672     0.6192      7.392   270.5805 1.2284e+03     0.4586      0.183      0.266    24.6680 0.0000e+00
      0.178     -0.107     7.3101     87.861     36.306  36.035135     0.6128      7.404   270.6168 1.9235e+03     0.4368      0.184      0.267    24.6307 0.0000e+00
      0.147     -0.136     7.3759     88.671     36.316  36.055059     0.5708      7.416   270.5374 2.4425e+03     0.3215      0.155      0.225    24.6093 0.0000e+00
      0.092     -0.150     7.3858     88.846     36.471  36.233017     0.5158      7.426   270.3948 2.3703e+03     0.1015      0.092      0.133    24.6005 0.0000e+00
      0.027     -0.148     7.3676     88.730     36.601  36.408178     0.4817      7.436   270.5282 2.1373e+03    -0.0255      0.025      0.036    24.6108 0.0000e+00
     -0.029     -0.129     7.3582     88.735     36.599  36.457849     0.4704      7.444   270.8594 2.0386e+03    -0.0237     -0.040     -0.057    24.6229 0.0000e+00
     -0.060     -0.096     7.3661     88.953     36.539  36.452520     0.4794      7.451   271.1290 2.0525e+03     0.0004     -0.071     -0.104    24.6249 0.0000e+00
     -0.064     -0.056     7.3839     89.298     36.499  36.470874     0.5359      7.454   271.3790 2.1022e+03     0.0527     -0.063     -0.092    24.6537 0.0000e+00
     -0.061     -0.020     7.3994     89.600     36.467  36.489288     0.6204      7.453   271.6450 2.1160e+03     0.1510     -0.059     -0.085    24.7292 0.0000e+00
     -0.061      0.004     7.3999     89.685     36.427  36.484663     0.6651      7.452   271.8499 2.0889e+03     0.2121     -0.061     -0.088    24.8033 0.0000e+00
     -0.057      0.013     7.3788     89.479     36.399  36.478528     0.6720      7.447   271.9632 2.0217e+03     0.2121     -0.058     -0.084    24.8714 0.0000e+00
     -0.048      0.012     7.3303     88.917     36.388  36.478660     0.6575      7.438   272.0691 1.5267e+03     0.2731     -0.046     -0.066    24.9606 0.0000e+00
     -0.040      0.009     7.2481     87.928     36.392  36.486283     0.6278      7.429   272.2691 7.3455e+02     0.4005     -0.036     -0.052    25.0346 0.0000e+00
     -0.039      0.007     7.1374     86.585     36.413  36.507173     0.6164      7.425   272.4895 9.1945e+02     0.4707     -0.037     -0.053    25.0796 0.0000e+00
     -0.043      0.002     7.0106     85.042     36.448  36.540670     0.6208      7.430   272.5833 1.9643e+03     0.4814     -0.043     -0.062    25.1077 0.0000e+00
     -0.046     -0.006     6.8820     83.477     36.483  36.573655     0.6158      7.440   272.5425 2.5306e+03     0.4383     -0.048     -0.069    25.1217 0.0000e+00
     -0.045     -0.012     6.7660     82.069     36.498  36.588374     0.6026      7.450   272.5982 2.5815e+03     0.3758     -0.044     -0.063    25.1264 0.0000e+00
     -0.044     -0.014     6.6681     80.886     36.499  36.591586     0.5991      7.460   272.9130 2.5833e+03     0.3976     -0.040     -0.058    25.1251 0.0000e+00
     -0.049     -0.013     6.5836     79.863     36.519  36.612496     0.6010      7.468   273.2509 2.5798e+03     0.4571     -0.046     -0.067    25.1207 0.0000e+00
     -0.059     -0.012     6.5083     78.951     36.556  36.650623     0.5889      7.473   273.5000 2.5658e+03     0.4243     -0.058     -0.085    25.1162 0.0000e+00
     -0.066     -0.011     6.4437     78.171     36.575  36.671423     0.5630      7.477   273.7746 2.5557e+03     0.2761     -0.068     -0.098    25.1165 0.0000e+00
     -0.067     -0.009     6.3905     77.532     36.574  36.673427     0.5447      7.481   273.9893 2.5528e+03     0.1607     -0.067     -0.098    25.1211 0.0000e+00
     -0.063     -0.005     6.3480     77.022     36.573  36.674850     0.5432      7.484   274.1168 2.5359e+03     0.1582     -0.061     -0.089    25.1219 0.0000e+00
     -0.062     -0.001     6.3097     76.561     36.584  36.688632     0.5628      7.486   274.3696 2.4245e+03     0.2457     -0.059     -0.086    25.1214 0.0000e+00
     -0.064      0.002     6.2668     76.042     36.607  36.713012     0.5986      7.486   274.8090 2.0405e+03     0.3943     -0.063     -0.092    25.1244 0.0000e+00
     -0.066      0.003     6.2143     75.409     36.608  36.715531     0.6168      7.486   275.1284 1.4171e+03     0.4592     -0.065     -0.095    25.1291 0.0000e+00
     -0.065      0.002     6.1579     74.728     36.611  36.719096     0.6080      7.487   275.2196 9.5557e+02     0.4198     -0.064     -0.092    25.1346 0.0000e+00
     -0.062      0.002     6.1035     74.070     36.646  36.756119     0.5943      7.488   275.3095 9.8442e+02     0.4066     -0.062     -0.089    25.1366 0.0000e+00
     -0.060      0.002     6.0450     73.363     36.670  36.782026     0.5981      7.489   275.4413 1.3638e+03     0.4225     -0.059     -0.085    25.1378 0.0000e+00
     -0.059      0.001     5.9808     72.587     36.665  36.778236     0.6072      7.489   275.6084 1.7551e+03     0.4283     -0.058     -0.084    25.1405 0.0000e+00
     -0.060      0.000     5.9167     71.811     36.660  36.773826     0.6039      7.488   275.7809 2.0696e+03     0.4460     -0.059     -0.085    25.1429 0.0000e+00
     -0.061     -0.001     5.8580     71.101     36.677  36.792231     0.6044      7.486   275.8065 2.2424e+03     0.4530     -0.059     -0.086    25.1451 0.0000e+00
     -0.062     -0.003     5.8072     70.487     36.693  36.810192     0.5946      7.484   275.8321 2.3134e+03     0.3915     -0.060     -0.088    25.1470 0.0000e+00
     -0.062     -0.003     5.7624     69.945     36.683  36.800412     0.5582      7.482   276.0896 2.4476e+03     0.2826     -0.062     -0.089    25.1485 0.0000e+00
     -0.063     -0.002     5.7210     69.443     36.683  36.801039     0.5326      7.482   276.4258 2.5380e+03     0.2043     -0.061     -0.088    25.1500 0.0000e+00
     -0.064     -0.001     5.6823     68.972     36.700  36.817768     0.5330      7.482   276.6271 2.5382e+03     0.1774     -0.063     -0.090    25.1516 0.0000e+00
     -0.065     -0.001     5.6459     68.530     36.694  36.812109     0.5450      7.481   276.6301 2.5442e+03     0.2024     -0.065     -0.094    25.1536 0.0000e+00
     -0.064     -0.001     5.6111     68.108     36.677  36.796144     0.5582      7.481   276.6342 2.5590e+03     0.2614     -0.063     -0.090    25.1555 0.0000e+00
     -0.063     -0.001     5.5772     67.696     36.697  36.815314     0.5546      7.481   276.8495 2.5634e+03     0.2800     -0.061     -0.088    25.1556 0.0000e+00
     -0.064     -0.000     5.5442     67.296     36.735  36.853316     0.5380      7.482   277.1677 2.5530e+03     0.2444     -0.062     -0.091    25.1552 0.0000e+00
     -0.065     -0.000     5.5119     66.904     36.757  36.874475     0.5507      7.482   277.3843 2.5368e+03     0.1965     -0.064     -0.093    25.1552 0.0000e+00
     -0.065     -0.001     5.4812     66.532     36.762  36.880559     0.5976      7.482   277.4048 2.5220e+03     0.1905     -0.064     -0.093    25.1550 0.0000e+00
     -0.064     -0.002     5.4546     66.210     36.744  36.863348     0.6269      7.482   277.4143 2.5232e+03     0.2327     -0.063     -0.091    25.1548 0.0000e+00
     -0.064     -0.002     5.4317     65.932     36.737  36.856959     0.6200      7.482   277.5858 2.5477e+03     0.2490     -0.061     -0.089    25.1544 0.0000e+00
     -0.064     -0.002     5.4114     65.686     36.747  36.866835     0.5883      7.482   277.7578 2.5531e+03     0.2342     -0.062     -0.090    25.1540 0.0000e+00
     -0.067     -0.003     5.3925     65.457     36.736  36.855711     0.5560      7.482   277.8584 2.5311e+03     0.2371     -0.066     -0.095    25.1547 0.0000e+00
     -0.068     -0.003     5.3743     65.237     36.730  36.849511     0.5505      7.482   278.0277 2.5069e+03     0.2541     -0.068     -0.099    25.1568 0.0000e+00
     -0.068     -0.002     5.3568     65.026     36.735  36.855400     0.5590      7.483   278.1703 2.4588e+03     0.2558     -0.067     -0.097    25.1575 0.0000e+00
     -0.068     -0.001     5.3393     64.814     36.742  36.863387     0.5571      7.484   278.2920 2.4095e+03     0.2271     -0.066     -0.096    25.1570 0.0000e+00
     -0.069     -0.000     5.3212     64.593     36.762  36.882550     0.5464      7.484   278.5526 2.3598e+03     0.2135     -0.067     -0.098    25.1569 0.0000e+00
     -0.069      0.001     5.3015     64.354     36.776  36.896522     0.5494      7.484   278.8260 2.2634e+03     0.2439     -0.068     -0.099    25.1576 0.0000e+00
     -0.068      0.001     5.2803     64.095     36.784  36.905281     0.5660      7.485   278.9302 2.1824e+03     0.2581     -0.067     -0.098    25.1587 0.0000e+00
     -0.067      0.002     5.2579     63.823     36.804  36.924921     0.5720      7.485   278.8659 2.1929e+03     0.2327     -0.066     -0.096    25.1586 0.0000e+00
     -0.067      0.002     5.2355     63.553     36.822  36.943421     0.5765      7.485   278.8231 2.2649e+03     0.2107     -0.065     -0.094    25.1579 0.0000e+00
     -0.067      0.001     5.2158     63.315     36.817  36.938376     0.5921      7.483   278.9289 2.3536e+03     0.2062     -0.066     -0.095    25.1580 0.0000e+00
     -0.066      0.000     5.1992     63.114     36.806  36.927452     0.6041      7.483   279.0269 2.4501e+03     0.2088     -0.065     -0.093    25.1582 0.0000e+00
     -0.066 2.3694e-08     5.1835     62.924     36.816  36.938388     0.6119      7.482   279.0619 2.5247e+03     0.2114     -0.064     -0.092    25.1582 0.0000e+00
     -0.067 2.6063e-07     5.1676     62.730     36.821  36.943548     0.6313      7.481   279.1800 2.5467e+03     0.2082     -0.065     -0.094    25.1582 0.0000e+00
     -0.067 6.3318e-07     5.1521     62.543     36.803  36.926319     0.6639      7.480   279.4219 2.5340e+03     0.2006     -0.066     -0.096    25.1590 0.0000e+00
     -0.067      0.000     5.1389     62.384     36.798  36.920653     0.6848      7.480   279.7500 2.5122e+03     0.2104     -0.066     -0.095    25.1600 0.0000e+00
     -0.066      0.000     5.1288     62.263     36.815  36.938565     0.6813      7.480   279.9637 2.4780e+03     0.2351     -0.064     -0.093    25.1602 0.0000e+00
     -0.066      0.001     5.1188     62.141     36.828  36.952322     0.6583      7.479   279.9402 2.3697e+03     0.2254     -0.064     -0.093    25.1604 0.0000e+00
     -0.066      0.001     5.1067     61.993     36.836  36.959934     0.6268      7.478   279.8960 2.1520e+03     0.1848     -0.064     -0.093    25.1607 0.0000e+00
     -0.066      0.001     5.0946     61.846     36.843  36.967077     0.6128      7.478   280.0320 2.0086e+03     0.1705     -0.065     -0.094    25.1614 0.0000e+00
     -0.065      0.001     5.0836     61.714     36.851  36.975162     0.6183      7.476   280.2085 2.0894e+03     0.2058     -0.064     -0.093    25.1621 0.0000e+00
     -0.065      0.001     5.0731     61.587     36.869  36.994164     0.6380      7.471   280.3093 2.2451e+03     0.2753     -0.063     -0.091    25.1619 0.0000e+00
     -0.065      0.002     5.0626     61.460     36.881  37.006244     0.6586      7.467   280.3901 2.3720e+03     0.3701     -0.064     -0.092    25.1615 0.0000e+00
     -0.065      0.002     5.0541     61.356     36.870  36.994175     0.6559      7.463   280.4974 2.4936e+03     0.4357     -0.064     -0.093    25.1618 0.0000e+00
     -0.064      0.001     5.0473     61.274     36.850  36.975289     0.6513      7.461   280.6604 2.5666e+03     0.4287     -0.062     -0.090    25.1624 0.0000e+00
     -0.063      0.001     5.0394     61.179     36.843  36.968464     0.6678      7.459   280.8122 2.5673e+03     0.3770     -0.061     -0.089    25.1626 0.0000e+00
     -0.063      0.001     5.0314     61.083     36.849  36.975186     0.6893      7.458   280.9552 2.5394e+03     0.2984     -0.062     -0.090    25.1627 0.0000e+00
     -0.063      0.001     5.0241     60.993     36.867  36.993041     0.6914      7.453   281.0992 2.5162e+03     0.2410     -0.062     -0.089    25.1636 0.0000e+00
     -0.062      0.000     5.0163     60.900     36.868  36.993771     0.6830      7.447   281.1766 2.4902e+03     0.2333     -0.061     -0.089    25.1643 0.0000e+00
     -0.062     -0.001     5.0087     60.808     36.858  36.984010     0.6892      7.442   281.2034 2.4606e+03     0.2349     -0.061     -0.088    25.1644 0.0000e+00
     -0.062     -0.001     5.0013     60.718     36.875  37.002074     0.6932      7.441   281.3373 2.4341e+03     0.2294     -0.061     -0.088    25.1645 0.0000e+00
     -0.062     -0.001     4.9944     60.635     36.894  37.021604     0.6848      7.442   281.5907 2.4213e+03     0.2279     -0.060     -0.087    25.1645 0.0000e+00
     -0.064     -0.002     4.9886     60.565     36.902  37.029571     0.6794      7.444   281.7720 2.4448e+03     0.2174     -0.062     -0.091    25.1643 0.0000e+00
     -0.065     -0.002     4.9830     60.499     36.907  37.034873     0.6740      7.445   281.8089 2.4786e+03     0.1945     -0.064     -0.093    25.1650 0.0000e+00
     -0.064     -0.002     4.9788     60.449     36.893  37.022187     0.6745      7.447   281.8641 2.4851e+03     0.1951     -0.063     -0.092    25.1663 0.0000e+00
     -0.064     -0.002     4.9767     60.424     36.874  37.003245     0.6856      7.448   282.0093 2.4762e+03     0.2242     -0.063     -0.091    25.1666 0.0000e+00
     -0.065     -0.001     4.9750     60.404     36.867  36.996423     0.6890      7.447   282.1012 2.4767e+03     0.2408     -0.064     -0.092    25.1662 0.0000e+00
     -0.066     -0.001     4.9737     60.388     36.873  37.003230     0.6795      7.444   282.2011 2.4934e+03     0.2133     -0.065     -0.095    25.1675 0.0000e+00
     -0.066     -0.001     4.9714     60.361     36.891  37.022023     0.6616      7.439   282.4427 2.5012e+03     0.2268     -0.066     -0.095    25.1699 0.0000e+00
     -0.065     -0.000     4.9661     60.299     36.902  37.033061     0.6390      7.434   282.6999 2.4887e+03     0.3429     -0.064     -0.093    25.1708 0.0000e+00
     -0.065 -4.249e-07     4.9609     60.236     36.878  37.009649     0.6169      7.429   282.8150 2.4842e+03     0.4276     -0.064     -0.093    25.1709 0.0000e+00
     -0.065     -0.000     4.9563     60.180     36.861  36.993054     0.6054      7.426   282.8021 2.4818e+03     0.4273     -0.064     -0.093    25.1711 0.0000e+00
     -0.065     -0.000     4.9494     60.097     36.890  37.022989     0.6104      7.426   282.8025 2.4530e+03     0.3999     -0.064     -0.093    25.1715 0.0000e+00
     -0.066     -0.001     4.9423     60.012     36.919  37.053960     0.6227      7.426   282.9061 2.4182e+03     0.4017     -0.065     -0.094    25.1724 0.0000e+00
     -0.066     -0.001     4.9386     59.969     36.914  37.049889     0.6257      7.422   283.1081 2.4232e+03     0.4495     -0.066     -0.096    25.1733 0.0000e+00
     -0.066     -0.000     4.9385     59.969     36.901  37.037295     0.6188      7.414   283.3507 2.4518e+03     0.4582     -0.065     -0.095    25.1737 0.0000e+00
     -0.067 1.8784e-08     4.9403     59.991     36.893  37.028748     0.6118      7.404   283.5172 2.4463e+03     0.3851     -0.065     -0.094    25.1736 0.0000e+00
     -0.067 2.0662e-07     4.9418     60.011     36.874  37.010065     0.6061      7.394   283.5731 2.4275e+03     0.2673     -0.066     -0.096    25.1749 0.0000e+00
     -0.066      0.000     4.9417     60.010     36.865  37.001980     0.6059      7.386   283.5966 2.4341e+03     0.1943     -0.066     -0.096    25.1774 0.0000e+00
     -0.066      0.000     4.9391     59.978     36.857  36.994529     0.6089      7.384   283.6281 2.4318e+03     0.2034     -0.064     -0.094    25.1782 0.0000e+00
     -0.067      0.001     4.9340     59.918     36.846  36.983498     0.6056      7.388   283.6096 2.4220e+03     0.2253     -0.065     -0.096    25.1779 0.0000e+00
     -0.067      0.001     4.9279     59.844     36.858  36.995653     0.5841      7.395   283.6313 2.4372e+03     0.2147     -0.066     -0.096    25.1790 0.0000e+00
     -0.066      0.001     4.9220     59.772     36.876  37.014444     0.5513      7.401   283.7190 2.4428e+03     0.1975     -0.065     -0.094    25.1797 0.0000e+00
     -0.066      0.001     4.9158     59.697     36.882  37.020125     0.5408      7.406   283.8091 2.4021e+03     0.2000     -0.065     -0.094    25.1796 0.0000e+00
     -0.065      0.001     4.9085     59.609     36.862  37.000818     0.5568      7.409   283.9463 2.3407e+03     0.2140     -0.064     -0.093    25.1800 0.0000e+00
     -0.065      0.001     4.9015     59.525     36.833  36.971573     0.5798      7.413   284.0872 2.3061e+03     0.2147     -0.064     -0.093    25.1808 0.0000e+00
     -0.065      0.001     4.8935     59.427     36.845  36.984165     0.5980      7.416   284.3087 2.3160e+03     0.2087     -0.064     -0.092    25.1818 0.0000e+00
     -0.065      0.001     4.8842     59.314     36.887  37.026009     0.6030      7.417   284.5588 2.3325e+03     0.2020     -0.064     -0.093    25.1824 0.0000e+00
     -0.065      0.000     4.8774     59.233     36.893  37.032829     0.6031      7.418   284.6167 2.3287e+03     0.1950     -0.064     -0.093    25.1827 0.0000e+00
     -0.064     -0.001     4.8748     59.202     36.863  37.003092     0.5990      7.420   284.5782 2.3433e+03     0.2469     -0.063     -0.092    25.1828 0.0000e+00
     -0.064     -0.001     4.8745     59.199     36.844  36.984100     0.5718      7.421   284.6097 2.3668e+03     0.3401     -0.062     -0.090    25.1825 0.0000e+00
     -0.065      0.000     4.8742     59.195     36.853  36.993777     0.5408      7.422   284.6528 2.3460e+03     0.4065     -0.063     -0.090    25.1822 0.0000e+00
     -0.067 -1.846e-08     4.8726     59.176     36.853  36.993039     0.5372      7.419   284.7555 2.2985e+03     0.4090     -0.066     -0.096    25.1830 0.0000e+00
     -0.067 -2.030e-07     4.8713     59.161     36.835  36.975183     0.5471      7.416   284.9918 2.2575e+03     0.3401     -0.067     -0.096    25.1843 0.0000e+00
     -0.065 -2.029e-07     4.8739     59.194     36.827  36.968461     0.5495      7.415   285.1865 2.2051e+03     0.2448     -0.064     -0.092    25.1843 0.0000e+00
     -0.064 -1.678e-08     4.8789     59.256     36.833  36.975291     0.5476      7.416   285.3026 2.1454e+03     0.1724     -0.062     -0.090    25.1833 0.0000e+00
     -0.064 -2.913e-11     4.8822     59.296     36.852  36.994236     0.5431      7.418   285.4490 2.1189e+03     0.1668     -0.063     -0.091    25.1832 0.0000e+00
     -0.065 -3.204e-10     4.8821     59.294     36.864  37.006940     0.5409      7.420   285.4945 2.1265e+03     0.2070     -0.064     -0.093    25.1845 0.0000e+00
     -0.065 -3.524e-09     4.8785     59.251     36.859  37.001837     0.5489      7.422   285.3357 2.1731e+03     0.2317     -0.064     -0.094    25.1865 0.0000e+00
     -0.065 -3.877e-08     4.8732     59.187     36.852  36.996067     0.5566      7.425   285.3357 2.2714e+03     0.2212     -0.064     -0.093    25.1872 0.0000e+00
     -0.065 -4.265e-07     4.8679     59.124     36.856  37.000708     0.5515      7.428   285.5814 2.3799e+03     0.2025     -0.064     -0.093    25.1868 0.0000e+00
     -0.065     -0.000     4.8632     59.068     36.849  36.994423     0.5420      7.427   285.7249 2.4491e+03     0.1888     -0.063     -0.092    25.1867 0.0000e+00
     -0.065     -0.000     4.8587     59.016     36.837  36.983612     0.5431      7.422   285.7808 2.4626e+03     0.1763     -0.064     -0.093    25.1874 0.0000e+00
     -0.065     -0.001     4.8554     58.977     36.850  36.997047     0.5459      7.412   285.8271 2.4218e+03     0.1743     -0.063     -0.092    25.1887 0.0000e+00
     -0.065     -0.001     4.8534     58.953     36.882  37.029811     0.5482      7.399   285.8538 2.3702e+03     0.1645     -0.062     -0.091    25.1898 0.0000e+00
     -0.066     -0.001     4.8520     58.937     36.914  37.062131     0.5526      7.388   285.8455 2.3469e+03     0.1492     -0.065     -0.094    25.1909 0.0000e+00
     -0.067     -0.001     4.8505     58.920     36.921  37.070186     0.5529      7.382   285.8128 2.3212e+03     0.2024     -0.066     -0.095    25.1928 0.0000e+00
     -0.067     -0.001     4.8499     58.915     36.913  37.063682     0.5517      7.377   285.8883 2.3068e+03     0.3194     -0.066     -0.095    25.1939 0.0000e+00
     -0.066     -0.000     4.8518     58.940     36.895  37.047021     0.5478      7.376   286.0705 2.3382e+03     0.3743     -0.065     -0.094    25.1941 0.0000e+00
     -0.065 -1.860e-08     4.8552     58.983     36.843  36.995796     0.5430      7.378   286.2954 2.3636e+03     0.3768     -0.064     -0.093    25.1944 0.0000e+00
     -0.065 -2.046e-07     4.8574     59.008     36.800  36.952532     0.5572      7.382   286.4566 2.3718e+03     0.3502     -0.064     -0.093    25.1955 0.0000e+00
     -0.066 -2.015e-07     4.8556     58.986     36.817  36.968597     0.5907      7.385   286.5563 2.4124e+03     0.2659     -0.064     -0.094    25.1978 0.0000e+00
     -0.067 1.8318e-08     4.8485     58.899     36.848  36.999452     0.6091      7.388   286.6404 2.4674e+03     0.2129     -0.066     -0.095    25.2005 0.0000e+00
     -0.067 4.0473e-07     4.8385     58.778     36.856  37.007982     0.6039      7.393   286.6999 2.5036e+03     0.2283     -0.066     -0.096    25.2015 0.0000e+00
     -0.067      0.000     4.8290     58.665     36.856  37.008198     0.6011      7.401   286.7590 2.5335e+03     0.2684     -0.066     -0.096    25.2007 0.0000e+00
     -0.066      0.000     4.8219     58.580     36.848  37.002071     0.6028      7.408   286.8383 2.5560e+03     0.3016     -0.063     -0.093    25.1997 0.0000e+00
     -0.065      0.001     4.8158     58.505     36.843  36.997419     0.5968      7.413   286.9705 2.5547e+03     0.2936     -0.062     -0.090    25.1989 0.0000e+00
     -0.065      0.001     4.8071     58.400     36.861  37.015475     0.5943      7.417   286.9811 2.5414e+03     0.2322     -0.064     -0.092    25.1990 0.0000e+00
     -0.066      0.000     4.7977     58.286     36.876  37.029811     0.5810      7.422   286.9671 2.5418e+03     0.2315     -0.065     -0.095    25.2005 0.0000e+00
     -0.066 -1.878e-08     4.7917     58.213     36.827  36.980186     0.5555      7.427   287.1443 2.5583e+03     0.3462     -0.065     -0.095    25.2022 0.0000e+00
     -0.065 -2.066e-07     4.7893     58.182     36.519  36.669557     0.5527      7.432   287.3176 2.5699e+03     0.4288     -0.064     -0.093    25.2026 0.0000e+00
     -0.065      0.000     4.7946     58.221     35.937  36.069101     0.5563      7.436   287.4273 2.5667e+03     0.4372     -0.064     -0.093    25.2024 0.0000e+00
     -0.065      0.000     4.8678     59.020     35.555  35.627810     0.5441      7.439   287.5240 2.5618e+03     0.4165     -0.064     -0.093    25.2022 0.0000e+00
     -0.065     -0.001     5.1398     62.163     35.546  35.526380     0.5251      7.442   287.5400 2.5604e+03     0.3316     -0.064     -0.093    25.2036 0.0000e+00
     -0.066     -0.001     5.6668     68.397     35.641  35.541328     0.5099      7.443   287.5355 2.5511e+03     0.2344     -0.065     -0.094    25.2033 0.0000e+00
     -0.067     -0.001     6.3492     76.547     35.699  35.554337     0.5069      7.443   287.5557 2.5397e+03     0.2180     -0.066     -0.095    25.2030 0.0000e+00
     -0.067     -0.001     7.0500     84.945     35.726  35.556554     0.5079      7.442   287.6113 2.5362e+03     0.2246     -0.066     -0.095    25.1254 0.0000e+00
     -0.066     -0.000     7.6730     92.422     35.751  35.568108     0.4937      7.441   287.6914 2.5233e+03     0.1925     -0.065     -0.094    24.9510 0.0000e+00
     -0.066 -4.249e-07     8.1564     98.230     35.756  35.566965     0.4733      7.441   287.7499 2.5050e+03     0.1652     -0.064     -0.093    24.8325 0.0000e+00
     -0.067      0.000     8.4808    102.126     35.736  35.542722     0.4721      7.441   287.8032 2.5109e+03     0.1689     -0.065     -0.095    24.7855 0.0000e+00
     -0.067      0.000     8.6447    104.086     35.726  35.529072     0.4795      7.440   287.8193 2.5212e+03     0.2071     -0.065     -0.095    24.7506 0.0000e+00
     -0.067     -0.001     8.6537    104.183     35.731  35.528957     0.4809      7.440   287.8585 2.5101e+03     0.2308     -0.065     -0.095    24.7357 0.0000e+00
     -0.066     -0.001     8.5516    102.948     35.746  35.541328     0.4791      7.443   288.0181 2.5084e+03     0.1810     -0.066     -0.095    24.7295 0.0000e+00
     -0.066     -0.000     8.4066    101.202     35.756  35.551608     0.4765      7.444   288.2011 2.5216e+03     0.1536     -0.064     -0.093    24.7246 0.0000e+00
     -0.067      0.000     8.2670     99.521     35.731  35.526199     0.4767      7.444   288.1786 2.5157e+03     0.2043     -0.065     -0.095    24.7180 0.0000e+00
     -0.067      0.001     8.1526     98.141     35.694  35.488200     0.4817      7.444   288.0900 2.4979e+03     0.2451     -0.067     -0.097    24.7103 0.0000e+00
     -0.067      0.001     8.0708     97.148     35.681  35.473290     0.4812      7.443   288.1629 2.4866e+03     0.2500     -0.067     -0.097    24.7063 0.0000e+00
     -0.066      0.001     8.0178     96.508     35.682  35.472969     0.4713      7.440   288.2855 2.4598e+03     0.2325     -0.065     -0.094    24.7070 0.0000e+00
     -0.064      0.001     7.9819     96.076     35.693  35.484308     0.4723      7.436   288.4539 2.4192e+03     0.1868     -0.063     -0.091    24.7098 0.0000e+00
     -0.064      0.002     7.9551     95.754     35.692  35.483352     0.4834      7.432   288.5643 2.4236e+03     0.1561     -0.062     -0.091    24.7075 0.0000e+00
     -0.065      0.002     7.9374     95.539     35.671  35.461408     0.4864      7.431   288.5873 2.4780e+03     0.1657     -0.064     -0.093    24.7007 0.0000e+00
     -0.065      0.001     7.9265     95.406     35.684  35.473071     0.4810      7.431   288.7325 2.5163e+03     0.1813     -0.065     -0.094    24.6991 0.0000e+00
     -0.064      0.000     7.9176     95.300     35.708  35.497325     0.4743      7.431   288.8565 2.5258e+03     0.1918     -0.064     -0.092    24.7010 0.0000e+00
     -0.063 -1.695e-08     7.9119     95.234     35.710  35.500570     0.4695      7.432   288.8829 2.5249e+03     0.2006     -0.061     -0.089    24.7011 0.0000e+00
     -0.062 -1.865e-07     7.9114     95.233     35.720  35.512319     0.4686      7.433   288.9654 2.4947e+03     0.1958     -0.060     -0.087    24.6999 0.0000e+00
     -0.064      0.000     7.9124     95.249     35.718  35.512339     0.4720      7.434   289.0799 2.4440e+03     0.1949     -0.062     -0.090    24.6984 0.0000e+00
     -0.065      0.000     7.9120     95.248     35.705  35.500809     0.4739      7.434   289.1487 2.4315e+03     0.2214     -0.064     -0.093    24.6982 0.0000e+00
     -0.065     -0.001     7.9128     95.262     35.702  35.499959     0.4730      7.435   289.1942 2.4686e+03     0.2413     -0.064     -0.092    24.6999 0.0000e+00
     -0.064     -0.001     7.9150     95.294     35.702  35.502068     0.4796      7.435   289.2868 2.4965e+03     0.2821     -0.063     -0.091    24.7035 0.0000e+00
     -0.064     -0.001     7.9149     95.299     35.724  35.526311     0.4899      7.434   289.3221 2.4876e+03     0.3790     -0.062     -0.090    24.7073 0.0000e+00
     -0.065     -0.001     7.9074     95.212     35.736  35.538995     0.4876      7.432   289.2756 2.4868e+03     0.4360     -0.063     -0.092    24.7088 0.0000e+00
     -0.066     -0.002     7.8929     95.037     35.725  35.528392     0.4788      7.431   289.3274 2.5000e+03     0.4235     -0.065     -0.094    24.7101 0.0000e+00
     -0.066     -0.002     7.8796     94.875     35.723  35.525147     0.4755      7.430   289.5180 2.4778e+03     0.3497     -0.065     -0.094    24.7144 0.0000e+00
     -0.066     -0.001     7.8731     94.795     35.698  35.499757     0.4750      7.429   289.6875 2.4532e+03     0.2457     -0.065     -0.094    24.7184 0.0000e+00
     -0.067      0.000     7.8701     94.758     35.673  35.475497     0.4730      7.427   289.7425 2.4618e+03     0.2035     -0.066     -0.095    24.7200 0.0000e+00
     -0.067 -2.000e-08     7.8654     94.703     35.683  35.485898     0.4698      7.426   289.7524 2.4673e+03     0.2058     -0.066     -0.095    24.7195 0.0000e+00
     -0.066 -2.200e-07     7.8599     94.643     35.694  35.498477     0.4823      7.426   289.7210 2.4700e+03     0.2127     -0.065     -0.094    24.7182 0.0000e+00
     -0.066 -1.861e-07     7.8552     94.590     35.694  35.500549     0.5134      7.426   289.7933 2.4840e+03     0.2247     -0.065     -0.094    24.7172 0.0000e+00
     -0.066 3.8950e-07     7.8516     94.547     35.704  35.510950     0.5336      7.426   290.0233 2.5040e+03     0.2293     -0.065     -0.094    24.7160 0.0000e+00
     -0.067      0.000     7.8523     94.554     35.691  35.497195     0.5334      7.425   290.1788 2.5196e+03     0.2072     -0.065     -0.095    24.7172 0.0000e+00
     -0.067      0.000     7.8590     94.633     35.656  35.461279     0.5214      7.422   290.2981 2.5327e+03     0.2017     -0.066     -0.096    24.7206 0.0000e+00
     -0.067      0.001     7.8690     94.750     35.654  35.457814     0.4986      7.419   290.4336 2.5443e+03     0.2234     -0.066     -0.096    24.7229 0.0000e+00
     -0.066      0.001     7.8759     94.826     35.654  35.455305     0.4873      7.415   290.6125 2.5310e+03     0.2264     -0.064     -0.094    24.7238 0.0000e+00
     -0.066      0.001     7.8728     94.779     35.634  35.430938     0.5034      7.412   290.8255 2.5068e+03     0.2375     -0.064     -0.093    24.7237 0.0000e+00
     -0.066      0.001     7.8602     94.616     35.625  35.417279     0.5095      7.410   290.8583 2.5045e+03     0.2350     -0.064     -0.093    24.7215 0.0000e+00
     -0.066      0.001     7.8455     94.434     35.626  35.417183     0.5058      7.410   290.7514 2.5105e+03     0.2271     -0.064     -0.093    24.7193 0.0000e+00
     -0.066      0.000     7.8337     94.294     35.638  35.429772     0.5230      7.410   290.7375 2.5039e+03     0.2645     -0.065     -0.094    24.7169 0.0000e+00
     -0.065 1.8628e-08     7.8274     94.221     35.650  35.442457     0.5430      7.409   290.8622 2.4963e+03     0.2891     -0.064     -0.093    24.7094 0.0000e+00
     -0.065 2.0491e-07     7.8299     94.253     35.650  35.443516     0.5456      7.408   290.9678 2.4939e+03     0.2506     -0.063     -0.092    24.7005 0.0000e+00
     -0.065 2.0493e-07     7.8417     94.398     35.649  35.442581     0.5170      7.409   291.0681 2.4844e+03     0.1960     -0.063     -0.091    24.6986 0.0000e+00
     -0.065 1.8935e-08     7.8580     94.593     35.637  35.431147     0.4824      7.409   291.2141 2.4816e+03     0.1776     -0.064     -0.093    24.7017 0.0000e+00
     -0.066 5.0800e-09     7.8758     94.806     35.638  35.432303     0.4769      7.408   291.3567 2.4945e+03     0.1814     -0.064     -0.093    24.7036 0.0000e+00
     -0.066 3.7407e-08     7.8959     95.048     35.663  35.456556     0.4869      7.406   291.5018 2.4955e+03     0.2111     -0.064     -0.093    24.7046 0.0000e+00
     -0.065 4.0979e-07     7.9154     95.284     35.675  35.470309     0.4938      7.406   291.5066 2.4804e+03     0.2311     -0.064     -0.093    24.7054 0.0000e+00
     -0.065      0.000     7.9274     95.433     35.675  35.471550     0.4866      7.406   291.4146 2.4711e+03     0.2098     -0.064     -0.093    24.7057 0.0000e+00
     -0.065      0.000     7.9298     95.463     35.675  35.471568     0.4726      7.405   291.5071 2.4772e+03     0.2293     -0.065     -0.094    24.7045 0.0000e+00
     -0.065      0.001     7.9248     95.402     35.674  35.470527     0.4725      7.405   291.6799 2.4851e+03     0.2526     -0.063     -0.092    24.7033 0.0000e+00
     -0.065      0.001     7.9180     95.319     35.663  35.458960     0.4941      7.404   291.6967 2.4785e+03     0.2160     -0.063     -0.091    24.7057 0.0000e+00
     -0.065      0.001     7.9158     95.292     35.663  35.458752     0.5231      7.403   291.7953 2.4699e+03     0.2147     -0.064     -0.093    24.7088 0.0000e+00
     -0.065      0.001     7.9170     95.306     35.673  35.468002     0.5379      7.405   292.0120 2.4707e+03     0.2372     -0.064     -0.092    24.7085 0.0000e+00
     -0.064      0.000     7.9146     95.277     35.648  35.443757     0.5443      7.407   292.0807 2.4773e+03     0.2132     -0.063     -0.091    24.7075 0.0000e+00
     -0.064      0.000     7.9014     95.118     35.624  35.419693     0.5450      7.408   292.1088 2.4905e+03     0.1989     -0.063     -0.091    24.7076 0.0000e+00
     -0.064      0.000     7.8779     94.834     35.636  35.431136     0.5373      7.409   292.0937 2.5002e+03     0.2172     -0.063     -0.091    24.7069 0.0000e+00
     -0.065     -0.001     7.8538     94.542     35.661  35.455075     0.5343      7.411   292.0699 2.5031e+03     0.2208     -0.063     -0.092    24.7064 0.0000e+00
     -0.065     -0.001     7.8371     94.340     35.662  35.455056     0.5367      7.413   292.1649 2.5053e+03     0.2127     -0.063     -0.092    24.7070 0.0000e+00
     -0.065     -0.001     7.8304     94.255     35.639  35.430907     0.5386      7.415   292.2964 2.4966e+03     0.2107     -0.064     -0.092    24.7071 0.0000e+00
     -0.066      0.000     7.8320     94.270     35.627  35.417172     0.5383      7.416   292.4556 2.4897e+03     0.1657     -0.065     -0.094    24.7062 0.0000e+00
     -0.066 -1.892e-08     7.8397     94.360     35.626  35.416028     0.5338      7.417   292.5406 2.5013e+03     0.1265     -0.064     -0.093    24.7055 0.0000e+00
     -0.065 -2.081e-07     7.8535     94.525     35.628  35.417070     0.5294      7.418   292.5496 2.4998e+03     0.1637     -0.064     -0.093    24.7048 0.0000e+00
     -0.064 -2.420e-07     7.8740     94.774     35.641  35.429762     0.5310      7.419   292.5642 2.4750e+03     0.1878     -0.063     -0.091    24.7019 0.0000e+00
     -0.064 -4.284e-07     7.8959     95.041     35.652  35.442457     0.5349      7.420   292.6319 2.4535e+03     0.2051     -0.062     -0.089    24.6997 0.0000e+00
     -0.065     -0.000     7.9103     95.219     35.650  35.443518     0.5306      7.421   292.7661 2.4547e+03     0.2503     -0.063     -0.091    24.6986 0.0000e+00
     -0.066     -0.000     7.9159     95.292     35.647  35.442591     0.5246      7.421   292.7236 2.4748e+03     0.2458     -0.065     -0.092    24.6970 0.0000e+00
     -0.066     -0.001     7.9167     95.304     35.636  35.431260     0.5273      7.422   292.6351 2.4862e+03     0.2122     -0.066     -0.094    24.6972 0.0000e+00
     -0.065     -0.001     7.9156     95.290     35.638  35.433551     0.5350      7.422   292.8139 2.4813e+03     0.2097     -0.064     -0.093    24.7001 0.0000e+00
     -0.065     -0.001     7.9132     95.261     35.675  35.470299     0.5446      7.422   293.0783 2.4688e+03     0.2157     -0.063     -0.091    24.7041 0.0000e+00
     -0.065     -0.001     7.9077     95.197     35.699  35.494447     0.5426      7.422   293.1648 2.4598e+03     0.1928     -0.063     -0.091    24.7073 0.0000e+00
     -0.066     -0.001     7.8997     95.102     35.674  35.471434     0.5381      7.421   293.1716 2.4681e+03     0.1771     -0.064     -0.094    24.7078 0.0000e+00
     -0.066     -0.001     7.8927     95.017     35.649  35.446139     0.5728      7.421   293.2466 2.4788e+03     0.2092     -0.065     -0.095    24.7073 0.0000e+00
     -0.066     -0.001     7.8887     94.964     35.648  35.442704     0.6308      7.418   293.2979 2.4689e+03     0.2450     -0.065     -0.094    24.7076 0.0000e+00
     -0.066      0.000     7.8851     94.911     35.639  35.429889     0.6603      7.411   293.3612 2.4605e+03     0.2444     -0.065     -0.094    24.7083 0.0000e+00
     -0.067      0.001     7.8796     94.835     35.631  35.418226     0.6635      7.403   293.4948 2.4644e+03     0.2322     -0.065     -0.095    24.7098 0.0000e+00
     -0.067      0.001     7.8739     94.760     35.644  35.428733     0.6609      7.395   293.5370 2.4647e+03     0.2807     -0.066     -0.095    24.7102 0.0000e+00
     -0.066      0.001     7.8709     94.718     35.648  35.429879     0.6646      7.390   293.4417 2.4752e+03     0.3729     -0.065     -0.094    24.7071 0.0000e+00
     -0.065      0.000     7.8724     94.733     35.652  35.432074     0.6723      7.388   293.3756 2.4721e+03     0.4314     -0.063     -0.092    24.7011 0.0000e+00
     -0.065     -0.001     7.8794     94.816     35.676  35.455267     0.6711      7.386   293.4256 2.4542e+03     0.4384     -0.063     -0.091    24.6953 0.0000e+00
     -0.065     -0.001     7.8934     94.982     35.676  35.456221     0.6687      7.383   293.4438 2.4814e+03     0.4267     -0.062     -0.091    24.6906 0.0000e+00
     -0.067     -0.001     7.9117     95.197     35.666  35.443614     0.6704      7.382   293.3377 2.5193e+03     0.4125     -0.064     -0.093    24.6882 0.0000e+00
     -0.068     -0.001     7.9245     95.342     35.656  35.429869     0.6736      7.382   293.3482 2.5381e+03     0.4188     -0.068     -0.099    24.6863 0.0000e+00
     -0.068      0.000     7.9251     95.344     35.645  35.417070     0.6793      7.383   293.4846 2.5560e+03     0.4728     -0.067     -0.098    24.6848 0.0000e+00
     -0.068      0.001     7.9165     95.240     35.645  35.415896     0.6839      7.385   293.6097 2.5295e+03     0.4854     -0.066     -0.096    24.6858 0.0000e+00
     -0.068      0.003     7.9037     95.085     35.645  35.415675     0.6836      7.387   293.7426 2.4693e+03     0.4493     -0.068     -0.098    24.6832 0.0000e+00
     -0.066      0.004     7.8927     94.948     35.646  35.414406     0.6751      7.390   293.8861 2.3441e+03     0.4324     -0.064     -0.093    24.6760 0.0000e+00
     -0.063      0.004     7.8876     94.874     35.636  35.400547     0.6741      7.394   294.0549 2.0975e+03     0.4344     -0.061     -0.088    24.6719 0.0000e+00
     -0.062      0.004     7.8831     94.803     35.618  35.375141     0.6900      7.394   294.0626 1.9167e+03     0.4430     -0.061     -0.089    24.6725 0.0000e+00
     -0.062      0.003     7.8773     94.705     35.616  35.361293     0.6926      7.393   293.9788 1.9499e+03     0.3835     -0.062     -0.090    24.6737 0.0000e+00
     -0.061      0.002     7.8752     94.647     35.628  35.360140     0.6786      7.392   293.9879 2.1254e+03     0.2646     -0.060     -0.088    24.6705 0.0000e+00
     -0.060      0.000     7.8783     94.662     35.639  35.361181     0.6771      7.393   294.0013 2.3533e+03     0.2266     -0.058     -0.085    24.6641 0.0000e+00
     -0.059     -0.001     7.8857     94.745     35.654  35.373875     0.6827      7.396   293.9688 2.5280e+03     0.2590     -0.057     -0.083    24.6554 0.0000e+00
     -0.060     -0.003     7.8955     94.870     35.664  35.386568     0.6631      7.399   293.8528 2.5938e+03     0.2592     -0.059     -0.085    24.6383 0.0000e+00
     -0.061     -0.004     7.9042     94.985     35.660  35.387616     0.6246      7.400   293.8032 2.5942e+03     0.2300     -0.061     -0.088    24.6160 0.0000e+00
     -0.063     -0.005     7.9092     95.057     35.654  35.386556     0.6031      7.398   293.9713 2.5687e+03     0.2105     -0.062     -0.090    24.6016 0.0000e+00
     -0.065     -0.005     7.9107     95.079     35.639  35.373748     0.6143      7.391   294.1642 2.5164e+03     0.2070     -0.064     -0.093    24.5991 0.0000e+00
     -0.067     -0.005     7.9092     95.055     35.628  35.359805     0.6313      7.385   294.2431 2.3941e+03     0.1876     -0.067     -0.097    24.6051 0.0000e+00
     -0.067     -0.004     7.9057     94.998     35.619  35.345011     0.6249      7.381   294.3229 2.2041e+03     0.1588     -0.067     -0.096    24.6127 0.0000e+00
     -0.067     -0.002     7.9015     94.933     35.602  35.321905     0.6105      7.379   294.5273 2.0611e+03     0.1648     -0.065     -0.094    24.6186 0.0000e+00
     -0.068      0.000     7.9007     94.904     35.623  35.334505     0.6044      7.376   294.7358 2.0152e+03     0.1978     -0.066     -0.097    24.6247 0.0000e+00
     -0.069      0.002     7.9043     94.929     35.666  35.370306     0.6065      7.373   294.6925 2.0426e+03     0.2224     -0.069     -0.100    24.6197 0.0000e+00
     -0.069      0.003     7.9077     94.962     35.672  35.373638     0.6077      7.373   294.6052 2.1908e+03     0.2179     -0.069     -0.099    24.6077 0.0000e+00
     -0.066      0.004     7.9066     94.950     35.673  35.374784     0.6098      7.374   294.6270 2.4067e+03     0.2047     -0.064     -0.093    24.6025 0.0000e+00
     -0.063      0.004     7.9030     94.910     35.681  35.384164     0.6137      7.374   294.6123 2.5385e+03     0.1853     -0.062     -0.089    24.5897 0.0000e+00
     -0.063      0.003     7.8995     94.873     35.655  35.360017     0.6087      7.376   294.6849 2.5793e+03     0.1663     -0.062     -0.090    24.5761 0.0000e+00
     -0.062      0.002     7.8975     94.850     35.631  35.336902     0.6142      7.380   294.8171 2.5901e+03     0.1892     -0.060     -0.089    24.5749 0.0000e+00
     -0.061      0.002     7.8982     94.858     35.654  35.358768     0.6436      7.385   294.8346 2.5839e+03     0.2172     -0.059     -0.087    24.5753 0.0000e+00
     -0.062      0.002     7.8987     94.867     35.664  35.370317     0.6697      7.389   294.7240 2.5708e+03     0.2301     -0.061     -0.090    24.5776 0.0000e+00
     -0.063      0.001     7.8968     94.848     35.641  35.349499     0.6724      7.392   294.5981 2.5585e+03     0.2236     -0.063     -0.092    24.5813 0.0000e+00
     -0.063     -0.001     7.8959     94.843     35.651  35.361152     0.6582      7.394   294.6027 2.5454e+03     0.1991     -0.063     -0.091    24.5817 0.0000e+00
     -0.060     -0.003     7.8984     94.879     35.672  35.384165     0.6360      7.398   294.7795 2.5233e+03     0.2090     -0.059     -0.086    24.5808 0.0000e+00
     -0.059     -0.004     7.9022     94.934     35.657  35.373666     0.6152      7.400   295.0154 2.4512e+03     0.2214     -0.056     -0.081    24.5814 0.0000e+00
     -0.063     -0.005     7.9045     94.971     35.641  35.361265     0.6086      7.399   295.1324 2.3894e+03     0.2267     -0.060     -0.088    24.5854 0.0000e+00
     -0.068     -0.005     7.9054     94.986     35.639  35.361273     0.6306      7.397   295.1617 2.4477e+03     0.2429     -0.070     -0.100    24.5885 0.0000e+00
     -0.070     -0.003     7.9034     94.962     35.652  35.373759     0.6690      7.393   295.2833 2.5362e+03     0.2649     -0.070     -0.101    24.5901 0.0000e+00
     -0.069      0.002     7.8929     94.837     35.662  35.385195     0.6870      7.385   295.4834 2.4637e+03     0.2786     -0.067     -0.097    24.5967 0.0000e+00
     -0.069      0.007     7.8701     94.560     35.651  35.372510     0.6819      7.376   295.6029 2.1937e+03     0.2251     -0.066     -0.096    24.6033 0.0000e+00
     -0.069      0.011     7.8409     94.195     35.632  35.347417     0.6630      7.367   295.6952 1.9702e+03     0.1671     -0.070     -0.102    24.6050 0.0000e+00
     -0.064      0.010     7.8189     93.915     35.627  35.335879     0.6335      7.362   295.8248 1.8442e+03     0.1885     -0.065     -0.094    24.6040 0.0000e+00
     -0.054      0.007     7.8143     93.853     35.654  35.360038     0.6183      7.362   295.7937 1.6232e+03     0.2088     -0.051     -0.074    24.6053 0.0000e+00
     -0.049      0.005     7.8287     94.034     35.676  35.385426     0.6178      7.367   295.5763 1.5212e+03     0.1991     -0.045     -0.065    24.6061 0.0000e+00
     -0.051      0.002     7.8549     94.367     35.671  35.388765     0.6267      7.373   295.4340 1.7843e+03     0.2238     -0.049     -0.070    24.5968 0.0000e+00
     -0.057     -0.001     7.8821     94.716     35.675  35.400417     0.6525      7.378   295.5356 2.1904e+03     0.2635     -0.057     -0.082    24.5838 0.0000e+00
     -0.061     -0.002     7.9020     94.972     35.666  35.399280     0.6728      7.383   295.7732 2.4439e+03     0.2521     -0.062     -0.089    24.5790 0.0000e+00
     -0.061     -0.001     7.9077     95.048     35.638  35.375037     0.6701      7.387   295.8982 2.4696e+03     0.2077     -0.060     -0.087    24.5849 0.0000e+00
     -0.058      0.001     7.8976     94.923     35.626  35.361389     0.6569      7.390   295.9274 2.3289e+03     0.2150     -0.057     -0.083    24.5980 0.0000e+00
     -0.054      0.002     7.8765     94.658     35.631  35.361295     0.6507      7.392   295.9540 2.1233e+03     0.2484     -0.053     -0.077    24.6104 0.0000e+00
     -0.053      0.002     7.8550     94.394     35.646  35.373896     0.6591      7.393   295.9624 1.8880e+03     0.2455     -0.050     -0.073    24.6213 0.0000e+00
     -0.053      0.001     7.8414     94.232     35.658  35.386694     0.6761      7.393   296.1147 1.6441e+03     0.2407     -0.051     -0.074    24.6276 0.0000e+00
     -0.055     -0.001     7.8360     94.177     35.656  35.389003     0.6815      7.392   296.3332 1.4698e+03     0.2212     -0.054     -0.079    24.6229 0.0000e+00
     -0.057     -0.001     7.8385     94.217     35.665  35.401822     0.6876      7.390   296.3670 1.3520e+03     0.1933     -0.056     -0.081    24.6143 0.0000e+00
     -0.057     -0.000     7.8506     94.374     35.674  35.414649     0.7132      7.387   296.3514 1.2489e+03     0.2078     -0.056     -0.081    24.6098 0.0000e+00
     -0.056      0.001     7.8728     94.657     35.670  35.417063     0.7341      7.383   296.4881 1.2039e+03     0.2134     -0.055     -0.080    24.6122 0.0000e+00
     -0.055      0.002     7.8978     94.979     35.675  35.431017     0.7371      7.377   296.6440 1.2653e+03     0.2004     -0.054     -0.079    24.6194 0.0000e+00
     -0.055      0.002     7.9140     95.198     35.690  35.456328     0.7227      7.373   296.6015 1.4244e+03     0.2026     -0.053     -0.078    24.6253 0.0000e+00
     -0.054      0.002     7.9210     95.307     35.694  35.469031     0.7070      7.373   296.4904 1.6730e+03     0.2404     -0.052     -0.076    24.6301 0.0000e+00
     -0.053      0.002     7.9274     95.402     35.674  35.457576     0.7043      7.374   296.5049 1.9684e+03     0.2911     -0.051     -0.074    24.6394 0.0000e+00
     -0.053      0.001     7.9337     95.491     35.656  35.444879     0.6898      7.377   296.6055 2.1886e+03     0.2969     -0.052     -0.075    24.6523 0.0000e+00
     -0.053     -0.001     7.9362     95.524     35.652  35.442569     0.6237      7.378   296.6737 2.2550e+03     0.3105     -0.052     -0.076    24.6667 0.0000e+00
     -0.053     -0.003     7.9337     95.488     35.642  35.429647     0.5295      7.378   296.7278 2.1979e+03     0.3643     -0.051     -0.074    24.6811 0.0000e+00
     -0.053     -0.004     7.9288     95.416     35.633  35.415674     0.4881      7.377   296.8298 2.0500e+03     0.4286     -0.051     -0.074    24.6914 0.0000e+00
     -0.055     -0.004     7.9266     95.376     35.623  35.400661     0.4903      7.376   296.8734 1.7714e+03     0.4778     -0.053     -0.078    24.6996 0.0000e+00
     -0.057     -0.003     7.9297     95.389     35.608  35.375159     0.5014      7.376   296.8248 1.4113e+03     0.5008     -0.056     -0.082    24.7030 0.0000e+00
     -0.058     -0.002     7.9343     95.405     35.610  35.361408     0.5219      7.377   296.6726 1.1014e+03     0.4938     -0.058     -0.084    24.6970 0.0000e+00
     -0.058     -0.001     7.9354     95.374     35.628  35.361412     0.5351      7.378   296.4957 9.1647e+02     0.4535     -0.058     -0.084    24.6886 0.0000e+00
     -0.057      0.001     7.9319     95.306     35.653  35.375167     0.5421      7.379   296.4922 8.8046e+02     0.4715     -0.056     -0.081    24.6824 0.0000e+00
     -0.056      0.002     7.9226     95.198     35.677  35.400669     0.5509      7.381   296.5444 1.1750e+03     0.4977     -0.055     -0.079    24.6719 0.0000e+00
     -0.056      0.002     7.9079     95.044     35.682  35.415670     0.5857      7.383   296.5249 1.8488e+03     0.4342     -0.054     -0.079    24.6475 0.0000e+00
     -0.055      0.001     7.8935     94.897     35.685  35.429518     0.6416      7.384   296.5139 2.4034e+03     0.4055     -0.054     -0.078    24.6158 0.0000e+00
     -0.055      0.000     7.8832     94.793     35.689  35.441075     0.6661      7.384   296.6699 2.5172e+03     0.4255     -0.054     -0.079    24.5976 0.0000e+00
     -0.056 4.2961e-07     7.8774     94.728     35.674  35.428370     0.6709      7.381   296.8624 2.2975e+03     0.4321     -0.054     -0.079    24.6029 0.0000e+00
     -0.056      0.000     7.8739     94.674     35.653  35.402954     0.6812      7.376   296.6910 1.9791e+03     0.3946     -0.056     -0.080    24.6205 0.0000e+00
     -0.056      0.000     7.8715     94.622     35.648  35.387857     0.6811      7.373   296.4033 1.9954e+03     0.2761     -0.055     -0.080    24.6365 0.0000e+00
     -0.056      0.001     7.8721     94.606     35.643  35.372855     0.6689      7.373   296.3092 2.3058e+03     0.1899     -0.054     -0.079    24.6496 0.0000e+00
     -0.055      0.001     7.8735     94.602     35.627  35.348593     0.6623      7.372   296.3281 2.1012e+03     0.1765     -0.055     -0.079    24.6539 0.0000e+00
     -0.055      0.001     7.8730     94.581     35.633  35.348585     0.6567      7.372   296.3731 1.7364e+03     0.1746     -0.054     -0.078    24.6449 0.0000e+00
     -0.054      0.000     7.8758     94.611     35.659  35.372741     0.6290      7.372   296.3383 2.0921e+03     0.1977     -0.053     -0.077    24.6286 0.0000e+00
     -0.054     -0.001     7.8850     94.733     35.668  35.386580     0.6030      7.371   296.4238 2.4924e+03     0.2119     -0.053     -0.077    24.6145 0.0000e+00
     -0.055     -0.001     7.8979     94.906     35.663  35.388878     0.6081      7.371   296.6314 2.5407e+03     0.1940     -0.054     -0.078    24.6036 0.0000e+00
     -0.056     -0.001     7.9119     95.086     35.670  35.400540     0.6360      7.372   296.6977 2.5528e+03     0.1946     -0.055     -0.079    24.5921 0.0000e+00
     -0.056     -0.001     7.9248     95.242     35.669  35.400541     0.6650      7.374   296.7082 2.5526e+03     0.2193     -0.055     -0.080    24.5894 0.0000e+00
     -0.056      0.000     7.9335     95.348     35.657  35.388888     0.6730      7.374   296.7588 2.5455e+03     0.2181     -0.055     -0.080    24.5989 0.0000e+00
     -0.056      0.000     7.9372     95.394     35.654  35.386683     0.6691      7.373   296.7939 2.5371e+03     0.1798     -0.055     -0.080    24.6115 0.0000e+00
     -0.056     -0.001     7.9353     95.369     35.642  35.373884     0.6738      7.372   296.7887 2.5359e+03     0.1833     -0.054     -0.079    24.6188 0.0000e+00
     -0.056     -0.003     7.9278     95.271     35.632  35.361181     0.6829      7.373   296.7815 2.5548e+03     0.2301     -0.054     -0.078    24.6175 0.0000e+00
     -0.056     -0.006     7.9184     95.145     35.637  35.360131     0.6870      7.374   296.7926 2.5906e+03     0.2272     -0.054     -0.078    24.6174 0.0000e+00
     -0.057     -0.010     7.9108     95.039     35.643  35.361181     0.6872      7.375   296.8366 2.6126e+03     0.2096     -0.057     -0.081    24.6202 0.0000e+00
     -0.059     -0.011     7.9036     94.949     35.658  35.373876     0.6856      7.376   296.9702 2.6142e+03     0.2913     -0.058     -0.084    24.6189 0.0000e+00
     -0.064     -0.010     7.8977     94.885     35.668  35.386581     0.6951      7.375   297.0312 2.6133e+03     0.4220     -0.060     -0.087    24.6149 0.0000e+00
     -0.072     -0.008     7.8947     94.855     35.666  35.387746     0.7191      7.375   296.9719 2.6126e+03     0.4773     -0.072     -0.106    24.6069 0.0000e+00
     -0.075     -0.005     7.8940     94.849     35.666  35.387975     0.7280      7.376   297.0275 2.6071e+03     0.4712     -0.078     -0.112    24.5955 0.0000e+00
     -0.072     -0.002     7.8981     94.901     35.666  35.389348     0.7191      7.376   297.1006 2.5994e+03     0.4704     -0.069     -0.100    24.5928 0.0000e+00
     -0.069      0.002     7.9048     94.989     35.678  35.404343     0.7035      7.376   297.0823 2.5928e+03     0.5294     -0.066     -0.096    24.6003 0.0000e+00
     -0.069      0.006     7.9061     95.017     35.711  35.442245     0.6860      7.376   297.1503 2.5852e+03     0.6340     -0.067     -0.098    24.6049 0.0000e+00
     -0.069      0.007     7.8971     94.932     35.726  35.466496     0.6826      7.375   297.3200 2.5729e+03     0.6980     -0.067     -0.098    24.6041 0.0000e+00
     -0.067      0.006     7.8801     94.759     35.690  35.443501     0.6809      7.374   297.4139 2.4904e+03     0.6627     -0.067     -0.096    24.6050 0.0000e+00
     -0.064      0.006     7.8597     94.539     35.654  35.418310     0.6749      7.374   297.3379 2.2078e+03     0.5122     -0.062     -0.090    24.6099 0.0000e+00
     -0.061      0.006     7.8395     94.306     35.648  35.416020     0.6738      7.373   297.1768 1.7306e+03     0.3429     -0.059     -0.086    24.6151 0.0000e+00
     -0.059      0.005     7.8228     94.103     35.649  35.415811     0.6771      7.373   297.1011 1.4828e+03     0.2946     -0.058     -0.084    24.6272 0.0000e+00
     -0.059      0.003     7.8118     93.966     35.651  35.415783     0.6873      7.375   297.1105 1.8338e+03     0.2945     -0.057     -0.083    24.6501 0.0000e+00
     -0.059      0.002     7.8097     93.937     35.652  35.415675     0.7056      7.377   297.0330 2.3546e+03     0.2500     -0.057     -0.083    24.6674 0.0000e+00
     -0.059      0.002     7.8194     94.052     35.651  35.414509     0.7229      7.379   296.9378 2.5496e+03     0.2453     -0.058     -0.084    24.6711 0.0000e+00
     -0.060      0.005     7.8349     94.237     35.640  35.401682     0.7223      7.379   296.9048 2.5406e+03     0.2676     -0.059     -0.086    24.6681 0.0000e+00
     -0.060      0.012     7.8484     94.394     35.628  35.387623     0.7168      7.378   296.8070 2.5276e+03     0.2456     -0.059     -0.085    24.6635 0.0000e+00
     -0.059      0.021     7.8592     94.513     35.616  35.371558     0.7116      7.373   296.7020 2.5288e+03     0.1615     -0.058     -0.084    24.6626 0.0000e+00
     -0.054      0.031     7.8687     94.596     35.591  35.334478     0.6958      7.367   296.6674 2.5348e+03     0.0450     -0.056     -0.081    24.6624 0.0000e+00
     -0.043      0.039     7.8787     94.656     35.601  35.320403     0.6915      7.362   296.7326 2.5437e+03    -0.0039     -0.044     -0.063    24.6606 0.0000e+00
     -0.027      0.046     7.8906     94.736     35.635  35.328383     0.6964      7.361   296.8880 2.5330e+03     0.0283     -0.028     -0.040    24.6577 0.0000e+00
     -0.010      0.052     7.9026     94.840     35.627  35.303888     0.6909      7.362   296.9115 2.4163e+03     0.1600     -0.009     -0.011    24.6547 0.0000e+00
      0.003      0.056     7.9135     94.938     35.614  35.278292     0.6795      7.362   296.6725 2.1739e+03     0.3372      0.005      0.008    24.6432 0.0000e+00
      0.013      0.057     7.9255     95.038     35.627  35.272963     0.6694      7.361   296.2357 1.8849e+03     0.4007      0.009      0.014    24.6006 0.0000e+00
      0.028      0.057     7.9405     95.166     35.614  35.239425     0.6694      7.360   295.9312 1.7002e+03     0.4091      0.026      0.038    24.5549 0.0000e+00
      0.044      0.056     7.9548     95.286     35.585  35.190363     0.6794      7.360   295.9169 1.6321e+03     0.4379      0.045      0.065    24.5399 0.0000e+00
      0.060      0.055     7.9603     95.311     35.599  35.187891     0.6894      7.360   296.0632 1.6569e+03     0.4442      0.058      0.085    24.5271 0.0000e+00
      0.075      0.054     7.9537     95.213     35.629  35.209509     0.6982      7.360   296.2370 1.7906e+03     0.4544      0.075      0.108    24.4978 0.0000e+00
      0.088      0.052     7.9419     95.068     35.619  35.197653     0.7037      7.360   296.2976 1.7245e+03     0.4698      0.088      0.127    24.4682 0.0000e+00
      0.100      0.052     7.9362     94.991     35.596  35.171580     0.7089      7.358   296.3655 1.4829e+03     0.4475      0.097      0.142    24.4384 0.0000e+00
      0.111      0.056     7.9397     95.007     35.583  35.148338     0.7068      7.354   296.5421 1.5044e+03     0.3677      0.107      0.157    24.4099 0.0000e+00
      0.122      0.061     7.9445     95.013     35.562  35.107190     0.6873      7.350   296.7119 2.0108e+03     0.2683      0.118      0.171    24.4009 0.0000e+00
      0.137      0.068     7.9440     94.936     35.538  35.055147     0.6748      7.347   296.7839 2.6782e+03     0.2528      0.132      0.192    24.4046 0.0000e+00
      0.157      0.076     7.9406     94.817     35.542  35.027208     0.6754      7.344   296.8960 2.6116e+03     0.2723      0.155      0.224    24.4016 0.0000e+00
      0.179      0.086     7.9401     94.739     35.568  35.023414     0.6773      7.341   297.2080 2.0036e+03     0.2594      0.176      0.255    24.3881 0.0000e+00
      0.202      0.095     7.9416     94.694     35.579  35.009234     0.6792      7.342   297.6298 1.6757e+03     0.2498      0.197      0.286    24.3600 0.0000e+00
      0.227      0.100     7.9378     94.599     35.573  34.982758     0.6789      7.346   297.9525 1.5752e+03     0.2164      0.222      0.322    24.3151 0.0000e+00
      0.254      0.102     7.9264     94.424     35.563  34.957340     0.6832      7.350   298.2709 1.6698e+03     0.1913      0.248      0.360    24.2683 0.0000e+00
      0.283      0.102     7.9126     94.230     35.575  34.955969     0.6859      7.354   298.8115 1.5228e+03     0.2819      0.278      0.404    24.2260 0.0000e+00
      0.313      0.100     7.9045     94.108     35.595  34.966154     0.6830      7.356   299.4133 1.0518e+03     0.4270      0.309      0.449    24.1894 0.0000e+00
      0.338      0.097     7.9060     94.103     35.592  34.953438     0.6850      7.358   299.9539 9.1957e+02     0.4811      0.333      0.483    24.1629 0.0000e+00
      0.360      0.094     7.9139     94.170     35.578  34.929241     0.6825      7.359   300.5295 1.3618e+03     0.4478      0.352      0.511    24.1411 0.0000e+00
      0.381      0.090     7.9207     94.216     35.591  34.927658     0.6808      7.361   301.1245 1.7366e+03     0.3601      0.372      0.540    24.1239 0.0000e+00
      0.403      0.088     7.9204     94.178     35.611  34.934274     0.6917      7.362   301.5555 1.4304e+03     0.2749      0.395      0.571    24.1112 0.0000e+00
      0.428      0.087     7.9155     94.089     35.571  34.882177     0.6949      7.362   301.7835 1.4017e+03     0.2424      0.420      0.610    24.0986 0.0000e+00
      0.450      0.086     7.9142     94.025     35.513  34.805895     0.6830      7.362   301.9884 1.6517e+03     0.2409      0.442      0.642    24.0846 0.0000e+00
      0.471      0.085     7.9172     93.988     35.511  34.774162     0.6768      7.363   302.2267 1.3816e+03     0.2571      0.460      0.667    24.0623 0.0000e+00
      0.493      0.083     7.9183     93.926     35.520  34.752530     0.6840      7.364   302.5135 1.1011e+03     0.2546      0.484      0.702    24.0400 0.0000e+00
      0.513      0.080     7.9144     93.815     35.528  34.734858     0.6872      7.365   302.8745 1.0088e+03     0.2413      0.506      0.732    24.0314 0.0000e+00
      0.533      0.077     7.9070     93.679     35.565  34.751001     0.6791      7.365   303.1500 9.1939e+02     0.2493      0.521      0.755    24.0051 0.0000e+00
      0.553      0.074     7.8989     93.553     35.584  34.757128     0.6777      7.365   303.2629 1.1549e+03     0.2593      0.542      0.787    23.9557 0.0000e+00
      0.573      0.073     7.8892     93.421     35.580  34.745408     0.6883      7.364   303.4653 1.9334e+03     0.3014      0.563      0.817    23.9122 0.0000e+00
      0.591      0.073     7.8736     93.222     35.576  34.736317     0.6884      7.361   303.8758 2.2286e+03     0.3919      0.580      0.841    23.8746 0.0000e+00
      0.606      0.074     7.8539     92.972     35.556  34.710718     0.6785      7.358   304.2697 1.6081e+03     0.4379      0.594      0.862    23.8455 0.0000e+00
      0.622      0.074     7.8371     92.742     35.548  34.689965     0.6792      7.354   304.5281 1.0810e+03     0.4308      0.607      0.881    23.8303 0.0000e+00
      0.642      0.074     7.8236     92.535     35.553  34.675938     0.6969      7.350   304.6773 8.0881e+02     0.3973      0.629      0.912    23.8217 0.0000e+00
      0.666      0.073     7.8141     92.372     35.567  34.668119     0.7180      7.349   304.7829 8.2929e+02     0.3375      0.654      0.949    23.8149 0.0000e+00
      0.688      0.070     7.8131     92.313     35.577  34.658922     0.7221      7.349   304.8587 1.1964e+03     0.3188      0.676      0.981    23.8085 0.0000e+00
      0.705      0.065     7.8189     92.334     35.566  34.628221     0.7193      7.349   304.9908 1.5504e+03     0.2934      0.694      1.007    23.7918 0.0000e+00
      0.718      0.061     7.8249     92.358     35.572  34.614486     0.7206      7.349   305.3473 1.7404e+03     0.2749      0.705      1.023    23.7604 0.0000e+00
      0.729      0.059     7.8304     92.386     35.527  34.556338     0.7290      7.348   305.7282 1.5274e+03     0.3690      0.714      1.036    23.7285 0.0000e+00
      0.741      0.059     7.8389     92.432     35.424  34.433293     0.7389      7.346   305.9822 1.3149e+03     0.4553      0.727      1.053    23.7050 0.0000e+00
      0.755      0.062     7.8461     92.412     35.431  34.397085     0.7392      7.345   306.1819 1.3331e+03     0.4335      0.739      1.072    23.6774 0.0000e+00
      0.774      0.066     7.8409     92.241     35.517  34.436088     0.7317      7.343   306.3355 1.0472e+03     0.3492      0.758      1.100    23.6430 0.0000e+00
      0.794      0.070     7.8209     91.940     35.438  34.333146     0.7226      7.341   306.5489 7.2570e+02     0.2598      0.780      1.131    23.6309 0.0000e+00
      0.813      0.073     7.8023     91.647     35.168  34.041630     0.7205      7.341   306.7834 7.0928e+02     0.2377      0.798      1.158    23.6132 0.0000e+00
      0.832      0.075     7.8085     91.542     34.896  33.706112     0.7158      7.340   306.9336 8.2635e+02     0.2649      0.816      1.184    23.5382 0.0000e+00
      0.849      0.077     7.8446     91.653     34.696  33.388637     0.7118      7.340   307.0751 8.9964e+02     0.2527      0.832      1.206    23.4561 0.0000e+00
      0.867      0.080     7.8939     91.812     34.593  33.124588     0.7177      7.339   307.2031 8.4620e+02     0.2124      0.848      1.229    23.4330 0.0000e+00
      0.889      0.084     7.9400     91.876     34.581  32.926846     0.7228      7.338   307.3631 9.4305e+02     0.2054      0.871      1.263    23.4200 0.0000e+00
      0.912      0.088     7.9869     91.953     34.615  32.775873     0.7269      7.338   307.5463 1.0723e+03     0.2285      0.896      1.300    23.3178 0.0000e+00
      0.934      0.090     8.0493     92.254     34.703  32.696233     0.7313      7.337   307.6118 8.5929e+02     0.2476      0.915      1.327    23.1306 0.0000e+00
      0.959      0.088     8.1335     92.884     34.805  32.662334     0.7486      7.335   307.6393 7.6736e+02     0.2235      0.940      1.363    22.8860 0.0000e+00
      0.985      0.083     8.2328     93.789     34.854  32.619876     0.7801      7.334   307.7063 9.5601e+02     0.2118      0.969      1.406    22.5972 0.0000e+00
      1.008      0.077     8.3381     94.844     34.852  32.563829     0.7900      7.333   307.9047 1.0270e+03     0.2588      0.990      1.436    22.3278 0.0000e+00
      1.026      0.071     8.4533     96.033     34.826  32.492705     0.7853      7.331   308.2313 1.0428e+03     0.2728      1.006      1.460    22.0891 0.0000e+00
      1.041      0.066     8.5860     97.384     34.782  32.394985     0.7875      7.331   308.3859 9.4710e+02     0.2891      1.021      1.482    21.8924 0.0000e+00
      1.054      0.061     8.7249     98.780     34.787  32.334901     0.7805      7.329   308.4837 7.0398e+02     0.3651      1.033      1.499    21.7717 0.0000e+00
      1.068      0.061     8.8434     99.970     34.849  32.337751     0.7740      7.326   308.7252 6.2183e+02     0.4285      1.047      1.519    21.7077 0.0000e+00
      1.083      0.063     8.9283    100.810     34.857  32.302357     0.7822      7.322   308.8977 7.0310e+02     0.4760      1.062      1.541    21.6555 0.0000e+00
      1.099      0.067     8.9898    101.381     34.820  32.224458     0.8067      7.318   309.0198 7.1584e+02     0.5120      1.078      1.564    21.5686 0.0000e+00
      1.117      0.071     9.0418    101.825     34.803  32.157957     0.8407      7.314   309.1688 7.3748e+02     0.4975      1.095      1.588    21.4626 0.0000e+00
      1.137      0.074     9.0927    102.250     34.763  32.069834     0.8524      7.313   309.2363 8.0152e+02     0.4529      1.115      1.616    21.3824 0.0000e+00
      1.158      0.075     9.1422    102.641     34.733  31.984558     0.8472      7.313   309.3206 8.0077e+02     0.4606      1.135      1.648    21.3311 0.0000e+00
      1.178      0.075     9.1836    102.904     34.773  31.952457     0.8515      7.315   309.4993 7.9106e+02     0.4993      1.155      1.676    21.2745 0.0000e+00
      1.198      0.074     9.2179    103.097     34.827  31.935644     0.8492      7.316   309.5897 7.4241e+02     0.4937      1.175      1.705    21.1930 0.0000e+00
      1.217      0.071     9.2504    103.312     34.852  31.908198     0.8386      7.317   309.5536 7.7575e+02     0.4535      1.194      1.732    21.1240 0.0000e+00
      1.234      0.067     9.2845    103.570     34.862  31.874588     0.8420      7.319   309.5789 8.4479e+02     0.4105      1.210      1.755    21.0505 0.0000e+00
      1.250      0.063     9.3226    103.874     34.877  31.846772     0.8531      7.323   309.6377 6.6869e+02     0.4015      1.226      1.779    20.9354 0.0000e+00
      1.265      0.060     9.3608    104.201     34.890  31.825860     0.8725      7.326   309.7487 5.1401e+02     0.4355      1.242      1.801    20.8319 0.0000e+00
      1.280      0.059     9.3967    104.540     34.897  31.812227     0.9010      7.327   309.9739 5.2247e+02     0.4564      1.255      1.821    20.7677 0.0000e+00
      1.294      0.060     9.4318    104.873     34.915  31.808937     0.9133      7.328   310.1241 5.9798e+02     0.4396      1.269      1.840    20.7114 0.0000e+00
      1.308      0.061     9.4665    105.147     34.931  31.786052     0.9109      7.328   310.2744 6.7744e+02     0.4461      1.283      1.861    20.6485 0.0000e+00
      1.323      0.064     9.4955    105.301     34.928  31.726002     0.9547      7.326   310.5859 6.4468e+02     0.4736      1.297      1.881    20.5929 0.0000e+00
      1.339      0.068     9.5117    105.279     34.924  31.654396     1.0481      7.324   310.8789 6.9987e+02     0.4672      1.313      1.904    20.5719 0.0000e+00
      1.358      0.072     9.5147    105.102     34.963  31.618796     1.1031      7.323   311.0637 8.4695e+02     0.4302      1.331      1.930    20.5592 0.0000e+00
      1.379      0.074     9.5071    104.838     35.024  31.613017     1.1137      7.320   311.1862 8.1293e+02     0.4225      1.352      1.959    20.5023 0.0000e+00
      1.399      0.075     9.4913    104.529     35.043  31.584433     1.1486      7.317   311.3274 6.8723e+02     0.4965      1.372      1.991    20.4157 0.0000e+00
      1.418      0.075     9.4735    104.213     35.024  31.527174     1.2127      7.315   311.5659 6.8961e+02     0.6232      1.391      2.018    20.3171 0.0000e+00
      1.437      0.074     9.4648    103.974     35.039  31.492237     1.2455      7.315   311.6614 7.1156e+02     0.7035      1.409      2.043    20.2076 0.0000e+00
      1.455      0.072     9.4735    103.912     35.084  31.479502     1.2411      7.315   311.7077 6.6006e+02     0.6734      1.427      2.070    20.1150 0.0000e+00
      1.473      0.071     9.4991    104.039     35.094  31.436635     1.2336      7.314   311.9538 5.9369e+02     0.5646      1.444      2.095    20.0593 0.0000e+00
      1.491      0.070     9.5359    104.295     35.058  31.354924     1.2282      7.313   312.2274 5.3231e+02     0.4556      1.461      2.119    20.0106 0.0000e+00
      1.509      0.069     9.5790    104.623     34.998  31.253588     1.2314      7.313   312.3491 5.8990e+02     0.4238      1.480      2.146    19.9366 0.0000e+00
      1.527      0.066     9.6223    104.954     34.951  31.163959     1.2357      7.314   312.3935 6.5854e+02     0.4543      1.497      2.172    19.8563 0.0000e+00
      1.545      0.064     9.6603    105.232     34.927  31.096778     1.2058      7.316   312.5053 6.3106e+02     0.5196      1.515      2.198    19.7832 0.0000e+00
      1.561      0.061     9.6921    105.447     34.881  31.012823     1.1453      7.318   312.5824 6.6001e+02     0.6028      1.533      2.224    19.7127 0.0000e+00
      1.575      0.059     9.7211    105.632     34.815  30.910914     1.1113      7.318   312.6373 6.3979e+02     0.6373      1.545      2.241    19.6451 0.0000e+00
      1.588      0.059     9.7544    105.854     34.760  30.817170     1.1072      7.318   312.7379 5.4567e+02     0.6317      1.557      2.257    19.5769 0.0000e+00
      1.602      0.060     9.7962    106.163     34.687  30.704906     1.1143      7.318   312.9392 5.2831e+02     0.6264      1.571      2.278    19.5100 0.0000e+00
      1.618      0.061     9.8420    106.511     34.587  30.569599     1.1690      7.319   313.1784 5.3308e+02     0.6340      1.586      2.300    19.4507 0.0000e+00
      1.634      0.063     9.8877    106.846     34.512  30.451266     1.2542      7.321   313.2210 5.2402e+02     0.6621      1.602      2.324    19.3908 0.0000e+00
      1.652      0.065     9.9394    107.222     34.467  30.353704     1.2989      7.323   313.1964 5.2803e+02     0.6921      1.620      2.349    19.3246 0.0000e+00
      1.669      0.065     9.9996    107.674     34.453  30.278999     1.3049      7.325   313.3105 5.0474e+02     0.6905      1.636      2.374    19.2549 0.0000e+00
      1.686      0.065    10.0619    108.144     34.488  30.246499     1.3188      7.327   313.4820 4.6780e+02     0.6738      1.653      2.398    19.1879 0.0000e+00
      1.703      0.064    10.1175    108.569     34.514  30.214690     1.3467      7.330   313.6355 4.9075e+02     0.6738      1.670      2.422    19.1177 0.0000e+00
      1.718      0.062    10.1634    108.929     34.485  30.148344     1.3571      7.333   313.7895 5.0348e+02     0.6897      1.685      2.444    19.0297 0.0000e+00
      1.734      0.060    10.2049    109.260     34.447  30.079321     1.3531      7.335   313.8819 4.5902e+02     0.6823      1.700      2.466    18.9391 0.0000e+00
      1.749      0.060    10.2444    109.558     34.418  30.015149     1.3721      7.336   313.8924 4.5207e+02     0.6465      1.716      2.489    18.8417 0.0000e+00
      1.764      0.061    10.2749    109.736     34.388  29.943946     1.4124      7.337   313.9165 4.7075e+02     0.6538      1.731      2.510    18.7566 0.0000e+00
      1.777      0.063    10.2892    109.737     34.338  29.853411     1.4359      7.339   314.0011 4.6368e+02     0.6789      1.742      2.527    18.7052 0.0000e+00
      1.791      0.067    10.2912    109.602     34.269  29.745993     1.4351      7.341   314.2266 4.5823e+02     0.6757      1.756      2.547    18.6582 0.0000e+00
      1.809      0.072    10.2870    109.381     34.234  29.661173     1.4301      7.341   314.4927 4.5646e+02     0.6761      1.774      2.572    18.6064 0.0000e+00
      1.829      0.076    10.2741    109.069     34.214  29.589844     1.4315      7.340   314.5506 4.4236e+02     0.6829      1.793      2.599    18.5327 0.0000e+00
      1.851      0.079    10.2555    108.698     34.193  29.518537     1.4340      7.339   314.5822 4.4031e+02     0.6968      1.816      2.632    18.4633 0.0000e+00
      1.873      0.080    10.2438    108.369     34.242  29.497483     1.4322      7.339   314.7897 4.4666e+02     0.6920      1.837      2.664    18.4040 0.0000e+00
      1.895      0.078    10.2440    108.156     34.352  29.525713     1.4463      7.340   314.9085 4.3334e+02     0.6557      1.858      2.695    18.3135 0.0000e+00
      1.916      0.074    10.2510    108.057     34.433  29.542248     1.4754      7.342   314.8138 4.1550e+02     0.6549      1.879      2.726    18.2343 0.0000e+00
      1.934      0.069    10.2607    108.027     34.439  29.506829     1.4994      7.347   314.6776 4.1091e+02     0.6815      1.896      2.751    18.1708 0.0000e+00
      1.950      0.065    10.2689    107.986     34.379  29.414934     1.5167      7.351   314.6377 4.0435e+02     0.6722      1.913      2.775    18.0704 0.0000e+00
      1.965      0.064    10.2761    107.904     34.325  29.320162     1.5186      7.354   314.8474 4.1269e+02     0.6340      1.928      2.796    17.9616 0.0000e+00
      1.978      0.064    10.2844    107.801     34.310  29.249931     1.5036      7.355   315.1485 4.4072e+02     0.6167      1.940      2.813    17.8857 0.0000e+00
      1.993      0.066    10.2864    107.637     34.245  29.137238     1.4913      7.355   315.3531 4.4520e+02     0.6462      1.954      2.833    17.8340 0.0000e+00
      2.010      0.071    10.2768    107.375     34.111  28.973573     1.4991      7.354   315.5999 4.7933e+02     0.6852      1.970      2.857    17.7824 0.0000e+00
      2.030      0.076    10.2595    107.021     34.039  28.858565     1.5153      7.352   315.7235 5.0811e+02     0.6910      1.990      2.887    17.7126 0.0000e+00
      2.051      0.080    10.2390    106.602     34.075  28.826150     1.5581      7.350   315.6428 4.4373e+02     0.6557      2.012      2.918    17.6197 0.0000e+00
      2.074      0.081    10.2206    106.194     34.166  28.835580     1.6310      7.350   315.6578 3.8374e+02     0.6242      2.034      2.950    17.5296 0.0000e+00
      2.096      0.081    10.2106    105.891     34.251  28.845492     1.6703      7.351   315.8187 4.0258e+02     0.6463      2.055      2.982    17.4675 0.0000e+00
      2.116      0.079    10.2113    105.736     34.279  28.818917     1.6835      7.352   315.9532 4.3104e+02     0.6785      2.075      3.010    17.3948 0.0000e+00
      2.135      0.075    10.2228    105.717     34.269  28.768205     1.7173      7.354   315.9941 4.1019e+02     0.6784      2.093      3.036    17.2948 0.0000e+00
      2.155      0.070    10.2466    105.812     34.292  28.740296     1.7663      7.357   316.0538 3.7503e+02     0.6439      2.113      3.065    17.1940 0.0000e+00
      2.173      0.066    10.2801    105.981     34.352  28.735423     1.8083      7.360   316.1586 3.7026e+02     0.6282      2.132      3.093    17.0981 0.0000e+00
      2.189      0.062    10.3164    106.176     34.387  28.709219     1.8298      7.363   316.2286 3.9556e+02     0.6416      2.147      3.114    17.0251 0.0000e+00
      2.203      0.060    10.3520    106.379     34.409  28.677400     1.8328      7.365   316.2988 3.9560e+02     0.6222      2.160      3.133    16.9743 0.0000e+00
      2.216      0.059    10.3814    106.547     34.447  28.668155     1.8358      7.365   316.4043 3.6825e+02     0.6080      2.173      3.151    16.9066 0.0000e+00
      2.230      0.060    10.3949    106.582     34.477  28.660882     1.8384      7.365   316.4728 3.6321e+02     0.6215      2.187      3.172    16.8205 0.0000e+00
      2.244      0.063    10.3910    106.437     34.506  28.652929     1.8373      7.364   316.5242 3.5616e+02     0.6326      2.201      3.191    16.7385 0.0000e+00
      2.262      0.066    10.3734    106.130     34.532  28.635450     1.8395      7.363   316.6812 3.4788e+02     0.6515      2.217      3.216    16.6630 0.0000e+00
      2.281      0.070    10.3458    105.714     34.512  28.576509     1.8385      7.360   316.9093 3.9990e+02     0.6674      2.237      3.245    16.6008 0.0000e+00
      2.299      0.072    10.3114    105.232     34.482  28.511739     1.8341      7.358   317.0443 4.5050e+02     0.6416      2.255      3.269    16.5619 0.0000e+00
      2.317      0.073    10.2709    104.685     34.503  28.487279     1.8331      7.357   317.0232 4.0660e+02     0.6145      2.271      3.293    16.5210 0.0000e+00
      2.337      0.073    10.2261    104.095     34.534  28.471215     1.8260      7.355   316.9986 3.5864e+02     0.6452      2.292      3.324    16.4579 0.0000e+00
      2.357      0.072    10.1819    103.522     34.548  28.444464     1.8120      7.352   317.0906 3.5358e+02     0.7074      2.312      3.353    16.3955 0.0000e+00
      2.376      0.068    10.1421    103.009     34.558  28.417792     1.8114      7.352   317.1900 3.4506e+02     0.7245      2.330      3.379    16.3408 0.0000e+00
      2.393      0.063    10.1083    102.573     34.575  28.402678     1.8189      7.352   317.2537 3.4433e+02     0.6990      2.348      3.406    16.2789 0.0000e+00
      2.409      0.057    10.0801    102.208     34.589  28.388693     1.8198      7.350   317.3440 3.5081e+02     0.7053      2.364      3.428    16.2162 0.0000e+00
      2.423      0.050    10.0571    101.909     34.599  28.375670     1.8029      7.350   317.4213 3.4713e+02     0.7092      2.378      3.448    16.1599 0.0000e+00
      2.434      0.045    10.0405    101.680     34.619  28.372198     1.7706      7.350   317.5002 3.4235e+02     0.6849      2.388      3.463    16.1095 0.0000e+00
      2.443      0.042    10.0300    101.517     34.609  28.346685     1.7512      7.350   317.6097 3.5375e+02     0.6562      2.396      3.476    16.0677 0.0000e+00
      2.452      0.041    10.0271    101.435     34.599  28.321172     1.7530      7.350   317.7128 3.6090e+02     0.6370      2.405      3.488    16.0317 0.0000e+00
      2.462      0.042    10.0354    101.469     34.614  28.317699     1.7461      7.349   317.8007 3.5815e+02     0.6351      2.414      3.501    16.0016 0.0000e+00
      2.472      0.044    10.0513    101.580     34.618  28.304675     1.7140      7.347   317.9833 3.5676e+02     0.6337      2.424      3.516    15.9744 0.0000e+00
      2.483      0.048    10.0668    101.681     34.623  28.290689     1.6952      7.344   318.2002 3.4527e+02     0.6199      2.435      3.532    15.9479 0.0000e+00
      2.496      0.052    10.0816    101.768     34.629  28.275567     1.7031      7.342   318.2722 3.2867e+02     0.6202      2.448      3.550    15.9233 0.0000e+00
      2.511      0.056    10.0990    101.878     34.621  28.248813     1.7176      7.341   318.3376 3.2637e+02     0.6684      2.462      3.571    15.9005 0.0000e+00
      2.526      0.060    10.1190    102.017     34.612  28.221191     1.7323      7.338   318.4753 3.3775e+02     0.6830      2.477      3.593    15.8788 0.0000e+00
      2.542      0.062    10.1405    102.165     34.607  28.195563     1.7338      7.334   318.5606 3.3895e+02     0.6447      2.493      3.616    15.8542 0.0000e+00
      2.558      0.063    10.1595    102.274     34.636  28.192932     1.7360      7.332   318.5936 3.2701e+02     0.6323      2.509      3.639    15.8230 0.0000e+00
      2.576      0.063    10.1687    102.284     34.664  28.189341     1.7683      7.331   318.7028 3.1582e+02     0.6557      2.526      3.663    15.7918 0.0000e+00
      2.593      0.062    10.1630    102.150     34.648  28.152112     1.8112      7.329   318.8481 3.1932e+02     0.6837      2.544      3.689    15.7654 0.0000e+00
      2.608      0.062    10.1437    101.866     34.648  28.123766     1.8317      7.327   318.9746 3.2477e+02     0.6947      2.559      3.711    15.7357 0.0000e+00
      2.622      0.063    10.1175    101.495     34.663  28.100583     1.8334      7.325   319.1136 3.1527e+02     0.6976      2.572      3.730    15.6945 0.0000e+00
      2.637      0.064    10.0891    101.095     34.661  28.062265     1.8311      7.323   319.1511 3.1285e+02     0.6884      2.586      3.751    15.6539 0.0000e+00
      2.653      0.065    10.0606    100.693     34.681  28.041415     1.8773      7.320   319.1711 3.1116e+02     0.6762      2.601      3.772    15.6256 0.0000e+00
      2.670      0.067    10.0345    100.312     34.726  28.038945     1.9701      7.316   319.2681 3.0697e+02     0.6717      2.618      3.796    15.5853 0.0000e+00
      2.690      0.068    10.0095     99.944     34.765  28.032356     2.0156      7.313   319.3781 3.1566e+02     0.6637      2.638      3.827    15.5305 0.0000e+00
      2.709      0.068     9.9811     99.549     34.801  28.025208     2.0135      7.311   319.5541 3.2032e+02     0.6410      2.657      3.854    15.4786 0.0000e+00
      2.726      0.069     9.9494     99.129     34.832  28.015975     2.0177      7.307   319.7621 3.1248e+02     0.6418      2.674      3.878    15.4245 0.0000e+00
      2.741      0.070     9.9126     98.666     34.832  27.984178     2.0202      7.303   320.0004 3.0128e+02     0.6726      2.689      3.901    15.3673 0.0000e+00
      2.756      0.072     9.8708     98.149     34.841  27.958209     2.0073      7.298   320.1987 2.9886e+02     0.6478      2.701      3.917    15.3126 0.0000e+00
      2.774      0.075     9.8333     97.666     34.883  27.955947     2.0089      7.293   320.1802 3.0047e+02     0.6164      2.718      3.941    15.2598 0.0000e+00
      2.796      0.077     9.8047     97.268     34.932  27.956787     2.0858      7.288   320.1209 2.9467e+02     0.6589      2.742      3.978    15.2111 0.0000e+00
      2.819      0.078     9.7812     96.926     34.992  27.968316     2.2104      7.283   320.2562 2.8753e+02     0.7045      2.766      4.011    15.1679 0.0000e+00
      2.840      0.077     9.7583     96.593     35.036  27.968299     2.2750      7.281   320.5254 2.8199e+02     0.6790      2.785      4.040    15.1220 0.0000e+00
      2.860      0.074     9.7303     96.219     35.062  27.956549     2.2882      7.280   320.7089 2.7794e+02     0.6255      2.806      4.070    15.0678 0.0000e+00
      2.878      0.070     9.6922     95.755     35.095  27.953203     2.3062      7.277   320.8403 2.7536e+02     0.6065      2.824      4.096    15.0111 0.0000e+00
      2.893      0.068     9.6438     95.200     35.096  27.927805     2.3262      7.272   321.0818 2.7036e+02     0.6333      2.838      4.115    14.9604 0.0000e+00
      2.908      0.069     9.5868     94.576     35.092  27.903429     2.3379      7.263   321.3055 2.6527e+02     0.6742      2.851      4.135    14.9089 0.0000e+00
      2.924      0.071     9.5211     93.877     35.126  27.912447     2.3466      7.253   321.5656 2.6643e+02     0.6736      2.866      4.157    14.8608 0.0000e+00
      2.942      0.074     9.4494     93.105     35.151  27.909826     2.4126      7.246   321.8179 2.6769e+02     0.6571      2.884      4.183    14.8206 0.0000e+00
      2.964      0.078     9.3812     92.336     35.146  27.871711     2.5297      7.238   321.8607 2.6426e+02     0.6578      2.905      4.214    14.7810 0.0000e+00
      2.986      0.079     9.3248     91.657     35.151  27.832557     2.5952      7.230   321.9112 2.6110e+02     0.6520      2.929      4.248    14.7507 0.0000e+00
      3.008      0.078     9.2796     91.076     35.193  27.817364     2.6067      7.225   322.0844 2.5733e+02     0.6170      2.950      4.278    14.7322 0.0000e+00
      3.028      0.075     9.2443     90.600     35.249  27.814956     2.6140      7.220   322.1471 2.6012e+02     0.6010      2.970      4.307    14.7041 0.0000e+00
      3.047      0.070     9.2176     90.241     35.278  27.803386     2.7200      7.215   322.0666 2.6455e+02     0.6405      2.990      4.336    14.6523 0.0000e+00
      3.064      0.063     9.1975     89.974     35.311  27.804427     2.9323      7.211   322.0577 2.5618e+02     0.6683      3.006      4.359    14.5892 0.0000e+00
      3.079      0.055     9.1840     89.766     35.376  27.827521     3.0484      7.208   322.0401 2.4606e+02     0.6619      3.020      4.380    14.5176 0.0000e+00
      3.094      0.049     9.1755     89.595     35.417  27.828574     3.0576      7.204   322.0263 2.4188e+02     0.6549      3.035      4.403    14.4436 0.0000e+00
      3.106      0.044     9.1645     89.422     35.433  27.817118     3.1546      7.202   322.1486 2.4333e+02     0.7058      3.047      4.420    14.3958 0.0000e+00
      3.114      0.042     9.1514     89.266     35.444  27.815982     3.3382      7.199   322.2289 2.4956e+02     0.8200      3.053      4.429    14.3696 0.0000e+00
      3.120      0.042     9.1360     89.097     35.451  27.814828     3.4310      7.195   322.1361 2.5851e+02     0.8754      3.058      4.436    14.3324 0.0000e+00
      3.129      0.044     9.1125     88.807     35.465  27.803154     3.4411      7.193   322.0595 2.5921e+02     0.8567      3.067      4.449    14.2792 0.0000e+00
      3.142      0.049     9.0869     88.432     35.523  27.801814     3.5335      7.190   322.1630 2.4780e+02     0.8073      3.079      4.466    14.2391 0.0000e+00
      3.157      0.055     9.0637     88.037     35.598  27.798568     3.7023      7.186   322.2695 2.4340e+02     0.7362      3.095      4.489    14.2325 0.0000e+00
      3.173      0.061     9.0394     87.622     35.638  27.763824     3.8005      7.183   322.4002 2.4090e+02     0.7298      3.111      4.513    14.2353 0.0000e+00
      3.189      0.067     9.0115     87.185     35.717  27.762658     3.8106      7.178   322.6242 2.3731e+02     0.7604      3.127      4.535    14.2079 0.0000e+00
      3.205      0.072     8.9833     86.757     35.820  27.784400     3.7138      7.171   322.9996 2.3959e+02     0.7709      3.143      4.558    14.1372 0.0000e+00
      3.223      0.076     8.9555     86.333     35.880  27.772642     3.5409      7.161   323.4119 2.3472e+02     0.8259      3.159      4.582    14.0425 0.0000e+00
      3.243      0.079     8.9241     85.870     35.926  27.747421     3.4569      7.153   323.5651 2.2868e+02     0.9069      3.180      4.612    13.9461 0.0000e+00
      3.267      0.079     8.8877     85.359     35.987  27.733383     3.4430      7.145   323.7331 2.2865e+02     0.9262      3.204      4.647    13.8588 0.0000e+00
      3.291      0.079     8.8448     84.793     36.059  27.729833     3.3358      7.137   324.0661 2.2713e+02     0.8758      3.228      4.682    13.7813 0.0000e+00
      3.311      0.078     8.7968     84.189     36.098  27.704432     3.1533      7.131   324.3228 2.2475e+02     0.8458      3.248      4.710    13.7019 0.0000e+00
      3.327      0.078     8.7446     83.559     36.132  27.680192     3.0643      7.124   324.5993 2.2065e+02     0.8698      3.264      4.733    13.6150 0.0000e+00
      3.343      0.078     8.6891     82.903     36.210  27.690692     3.0602      7.114   325.0863 2.1487e+02     0.8904      3.278      4.755    13.5286 0.0000e+00
      3.363      0.080     8.6328     82.237     36.295  27.704333     3.0668      7.103   325.4798 2.1487e+02     0.8821      3.297      4.783    13.4454 0.0000e+00
      3.384      0.085     8.5737     81.545     36.380  27.718069     3.1164      7.093   325.6563 2.1704e+02     0.8607      3.318      4.813    13.3675 0.0000e+00
      3.407      0.088     8.5104     80.818     36.462  27.729714     3.1906      7.084   325.8443 2.1375e+02     0.8456      3.339      4.843    13.3005 0.0000e+00
      3.432      0.089     8.4439     80.066     36.511  27.718069     3.2293      7.076   326.0321 2.0627e+02     0.8517      3.365      4.880    13.2340 0.0000e+00
      3.459      0.087     8.3727     79.286     36.550  27.704222     3.2348      7.070   326.1206 2.0012e+02     0.9044      3.394      4.922    13.1621 0.0000e+00
      3.482      0.083     8.2978     78.495     36.575  27.689237     3.1841      7.065   326.2250 1.9793e+02     0.9334      3.417      4.956    13.0909 0.0000e+00
      3.501      0.079     8.2262     77.743     36.582  27.663851     3.0937      7.059   326.5207 1.9598e+02     0.9274      3.433      4.980    13.0231 0.0000e+00
      3.519      0.078     8.1683     77.101     36.619  27.651242     3.0517      7.052   326.9428 1.9861e+02     0.9548      3.451      5.005    12.9528 0.0000e+00
      3.535      0.078     8.1269     76.583     36.708  27.663738     3.0542      7.042   327.2848 2.0134e+02     0.9593      3.467      5.028    12.8898 0.0000e+00
      3.552      0.080     8.0950     76.134     36.825  27.687874     3.0868      7.033   327.2998 1.9735e+02     0.9197      3.482      5.050    12.8476 0.0000e+00
      3.573      0.082     8.0672     75.709     36.920  27.689000     3.1419      7.026   327.1240 1.9087e+02     0.8735      3.503      5.081    12.8127 0.0000e+00
      3.598      0.084     8.0371     75.268     36.997  27.677281     3.1694      7.020   327.0519 1.8677e+02     0.8587      3.530      5.119    12.7600 0.0000e+00
      3.623      0.085     8.0026     74.814     37.067  27.673096     3.1705      7.014   327.1168 1.8785e+02     0.8931      3.554      5.155    12.6817 0.0000e+00
      3.645      0.085     7.9656     74.361     37.083  27.638326     3.1369      7.009   327.2195 1.8696e+02     0.9536      3.576      5.187    12.5952 0.0000e+00
      3.665      0.085     7.9269     73.879     37.069  27.574328     3.0664      7.003   327.2610 1.8443e+02     1.0110      3.595      5.214    12.4968 0.0000e+00
      3.683      0.086     7.8849     73.330     37.111  27.534234     3.0344      6.996   327.3620 1.8233e+02     1.0374      3.612      5.238    12.3950 0.0000e+00
      3.703      0.088     7.8352     72.678     37.227  27.534474     3.0356      6.989   327.5805 1.7609e+02     1.0585      3.630      5.265    12.3178 0.0000e+00
      3.726      0.092     7.7817     71.973     37.327  27.513629     2.9890      6.981   327.7512 1.6965e+02     1.0529      3.652      5.298    12.2662 0.0000e+00
      3.753      0.094     7.7272     71.257     37.404  27.472591     2.9026      6.974   327.8769 1.6669e+02     0.9699      3.682      5.339    12.2003 0.0000e+00
      3.780      0.094     7.6681     70.511     37.544  27.482679     2.8550      6.968   328.0684 1.6598e+02     0.8793      3.708      5.377    12.1001 0.0000e+00
      3.806      0.094     7.6068     69.762     37.699  27.508504     2.8552      6.961   328.2593 1.6427e+02     0.8427      3.732      5.415    11.9852 0.0000e+00
      3.830      0.093     7.5449     69.016     37.846  27.530742     2.8584      6.954   328.3785 1.5974e+02     0.8325      3.758      5.449    11.8523 0.0000e+00
      3.850      0.090     7.4824     68.262     38.008  27.560977     2.8290      6.949   328.4774 1.5688e+02     0.8474      3.775      5.474    11.7197 0.0000e+00
      3.871      0.088     7.4198     67.518     38.118  27.556482     2.7669      6.944   328.5939 1.5586e+02     0.8698      3.794      5.503    11.5952 0.0000e+00
      3.895      0.086     7.3556     66.793     38.192  27.539794     2.7325      6.937   328.6689 1.5280e+02     0.8593      3.820      5.541    11.4790 0.0000e+00
      3.918      0.084     7.2873     66.084     38.267  27.549632     2.7353      6.929   328.7824 1.4884e+02     0.8422      3.843      5.573    11.3741 0.0000e+00
      3.939      0.081     7.2122     65.370     38.289  27.548386     2.6893      6.922   329.0194 1.4757e+02     0.8460      3.863      5.603    11.2515 0.0000e+00
      3.961      0.077     7.1337     64.632     38.274  27.524711     2.5898      6.915   329.1247 1.4869e+02     0.8446      3.885      5.635    11.1371 0.0000e+00
      3.980      0.075     7.0522     63.831     38.308  27.517366     2.5348      6.909   329.1953 1.4883e+02     0.8252      3.905      5.663    11.0419 0.0000e+00
      3.996      0.074     6.9652     62.951     38.385  27.523039     2.5295      6.903   329.5285 1.4788e+02     0.8556      3.918      5.683    10.9757 0.0000e+00
      4.012      0.074     6.8794     62.074     38.470  27.529754     2.4986      6.897   329.9705 1.4600e+02     0.8758      3.933      5.704    10.9717 0.0000e+00
      4.030      0.076     6.7957     61.229     38.544  27.534997     2.4365      6.890   330.4105 1.4195e+02     0.7948      3.952      5.731    10.9690 0.0000e+00
      4.051      0.080     6.7124     60.407     38.582  27.522877     2.4030      6.881   330.8043 1.3840e+02     0.7007      3.972      5.761    10.9205 0.0000e+00
      4.072      0.085     6.6411     59.695     38.619  27.510173     2.3972      6.871   331.1175 1.3605e+02     0.6537      3.994      5.792    10.8522 0.0000e+00
      4.093      0.089     6.5881     59.138     38.679  27.508351     2.3204      6.862   331.4452 1.3336e+02     0.6539      4.014      5.821    10.7749 0.0000e+00
      4.118      0.089     6.5480     58.678     38.748  27.500800     2.1728      6.853   331.7542 1.3186e+02     0.6725      4.037      5.855    10.7090 0.0000e+00
      4.144      0.087     6.5186     58.301     38.814  27.482316     2.0918      6.844   332.0144 1.3095e+02     0.6647      4.064      5.896    10.6668 0.0000e+00
      4.169      0.084     6.4963     58.007     38.881  27.475290     2.0771      6.836   332.2675 1.2842e+02     0.6515      4.090      5.931    10.6166 0.0000e+00
      4.189      0.080     6.4762     57.770     38.933  27.479287     1.9942      6.829   332.4919 1.2522e+02     0.6650      4.109      5.960    10.5618 0.0000e+00
      4.207      0.075     6.4628     57.614     38.945  27.467108     1.8531      6.820   332.7493 1.2365e+02     0.6756      4.125      5.984    10.4922 0.0000e+00
      4.223      0.071     6.4582     57.536     38.958  27.455016     1.7776      6.810   332.9697 1.2319e+02     0.6575      4.141      6.007    10.3928 0.0000e+00
      4.239      0.070     6.4588     57.497     39.002  27.460061     1.7615      6.802   333.0921 1.2250e+02     0.6293      4.157      6.029    10.3180 0.0000e+00
      4.257      0.071     6.4662     57.522     39.042  27.464576     1.7495      6.795   333.1961 1.2200e+02     0.6408      4.175      6.055    10.2849 0.0000e+00
      4.276      0.072     6.4798     57.618     39.035  27.446085     1.7518      6.790   333.2821 1.2129e+02     0.7349      4.194      6.083    10.2615 0.0000e+00
      4.295      0.073     6.4974     57.756     39.024  27.426973     1.7618      6.784   333.3569 1.1950e+02     0.8515      4.211      6.108    10.2382 0.0000e+00
      4.314      0.074     6.5215     57.933     39.050  27.423974     1.7612      6.778   333.3264 1.1686e+02     0.8910      4.229      6.134    10.2021 0.0000e+00
      4.333      0.074     6.5525     58.151     39.077  27.409809     1.7537      6.773   333.2579 1.1480e+02     0.8769      4.249      6.165    10.1632 0.0000e+00
      4.352      0.073     6.5878     58.403     39.087  27.382661     1.6888      6.768   333.3884 1.1425e+02     0.8638      4.268      6.190    10.1504 0.0000e+00
      4.371      0.072     6.6238     58.667     39.085  27.349687     1.5644      6.763   333.6140 1.1405e+02     0.8541      4.286      6.216    10.1462 0.0000e+00
      4.390      0.071     6.6594     58.924     39.102  27.328586     1.4997      6.757   333.7483 1.1280e+02     0.8519      4.307      6.246    10.1193 0.0000e+00
      4.408      0.071     6.6954     59.185     39.133  27.317989     1.5032      6.752   333.8074 1.1101e+02     0.8373      4.324      6.269    10.0690 0.0000e+00
      4.424      0.072     6.7332     59.469     39.125  27.285034     1.5244      6.748   333.8984 1.0904e+02     0.8302      4.338      6.292    10.0222 0.0000e+00
      4.441      0.074     6.7734     59.785     39.102  27.247589     1.5541      6.743   334.0748 1.0673e+02     0.8569      4.355      6.316     9.9873 0.0000e+00
      4.461      0.076     6.8161     60.132     39.125  27.246215     1.5686      6.738   334.2196 1.0529e+02     0.8854      4.374      6.343     9.9436 0.0000e+00
      4.482      0.077     6.8631     60.514     39.182  27.268405     1.5617      6.734   334.3590 1.0494e+02     0.9002      4.394      6.374     9.8990 0.0000e+00
      4.503      0.077     6.9185     60.960     39.205  27.261872     1.5067      6.729   334.5552 1.0439e+02     0.9137      4.416      6.405     9.8646 0.0000e+00
      4.524      0.076     6.9856     61.506     39.196  27.230702     1.4184      6.725   334.6985 1.0362e+02     0.9270      4.438      6.437     9.8368 0.0000e+00
      4.543      0.074     7.0670     62.179     39.197  27.208997     1.3760      6.722   334.8017 1.0267e+02     0.9090      4.456      6.462     9.8183 0.0000e+00
      4.561      0.070     7.1627     62.989     39.194  27.189907     1.3711      6.717   334.9419 1.0153e+02     0.8785      4.472      6.487     9.7982 0.0000e+00
      4.579      0.065     7.2701     63.914     39.209  27.190363     1.3678      6.713   335.1033 9.9907e+01     0.8631      4.491      6.514     9.7678 0.0000e+00
      4.596      0.060     7.3859     64.914     39.257  27.214493     1.3733      6.711   335.2044 9.7808e+01     0.8450      4.507      6.537     9.7330 0.0000e+00
      4.611      0.055     7.5082     65.970     39.289  27.227663     1.3822      6.709   335.2183 9.6659e+01     0.8426      4.522      6.559     9.7033 0.0000e+00
      4.624      0.050     7.6358     67.089     39.284  27.222589     1.3842      6.706   335.2710 9.6126e+01     0.8645      4.534      6.577     9.6793 0.0000e+00
      4.635      0.046     7.7665     68.251     39.266  27.216643     1.3694      6.704   335.4120 9.5467e+01     0.8664      4.545      6.592     9.6699 0.0000e+00
      4.646      0.044     7.8956     69.396     39.263  27.219278     1.3237      6.702   335.4595 9.5263e+01     0.8044      4.556      6.608     9.6623 0.0000e+00
      4.656      0.044     8.0156     70.447     39.224  27.190955     1.2633      6.701   335.4159 9.5071e+01     0.7252      4.566      6.622     9.6424 0.0000e+00
      4.666      0.045     8.1223     71.366     39.146  27.128189     1.2271      6.699   335.4876 9.4233e+01     0.6725      4.575      6.635     9.6410 0.0000e+00
      4.677      0.048     8.2155     72.146     39.124  27.095339     1.2169      6.697   335.6379 9.2310e+01     0.6250      4.586      6.651     9.6566 0.0000e+00
      4.689      0.052     8.2921     72.758     39.188  27.111246     1.1860      6.695   335.8557 8.9911e+01     0.6079      4.598      6.669     9.6637 0.0000e+00
      4.703      0.057     8.3462     73.163     39.260  27.129999     1.1289      6.692   336.2287 8.9207e+01     0.6182      4.613      6.691     9.6610 0.0000e+00
      4.718      0.064     8.3772     73.377     39.300  27.131552     1.1059      6.688   336.5342 8.9766e+01     0.6274      4.626      6.709     9.6516 0.0000e+00
      4.733      0.071     8.3924     73.465     39.327  27.129993     1.1096      6.684   336.6238 8.9621e+01     0.6281      4.639      6.729     9.6306 0.0000e+00
      4.751      0.076     8.3985     73.475     39.328  27.111129     1.0908      6.680   336.6243 8.8931e+01     0.6261      4.657      6.756     9.5915 0.0000e+00
      4.773      0.079     8.4016     73.461     39.330  27.093947     1.0625      6.677   336.6255 8.7535e+01     0.6636      4.679      6.786     9.5456 0.0000e+00
      4.798      0.080     8.4082     73.490     39.376  27.112722     1.0524      6.674   336.7247 8.5325e+01     0.7160      4.706      6.826     9.5133 0.0000e+00
      4.823      0.079     8.4225     73.599     39.437  27.147631     1.0524      6.671   336.9635 8.3991e+01     0.7105      4.733      6.865     9.4917 0.0000e+00
      4.842      0.077     8.4495     73.824     39.425  27.135022     1.0705      6.669   337.1899 8.3888e+01     0.6883      4.749      6.888     9.4656 0.0000e+00
      4.857      0.072     8.4902     74.168     39.364  27.087267     1.1056      6.666   337.3103 8.3363e+01     0.6921      4.762      6.908     9.4390 0.0000e+00
      4.873      0.067     8.5386     74.578     39.360  27.078204     1.1187      6.662   337.4730 8.2055e+01     0.6955      4.779      6.931     9.4221 0.0000e+00
      4.891      0.064     8.5894     75.014     39.380  27.088930     1.1095      6.660   337.6944 8.0859e+01     0.6987      4.796      6.956     9.4157 0.0000e+00
      4.909      0.064     8.6422     75.473     39.382  27.089957     1.0955      6.656   337.9223 7.9843e+01     0.6706      4.814      6.982     9.4118 0.0000e+00
      4.925      0.068     8.6952     75.938     39.382  27.090617     1.0500      6.651   338.2495 7.8966e+01     0.6296      4.831      7.006     9.4040 0.0000e+00
      4.940      0.075     8.7460     76.383     39.391  27.096912     0.9736      6.644   338.5529 7.8586e+01     0.6306      4.844      7.026     9.3951 0.0000e+00
      4.955      0.085     8.7908     76.770     39.401  27.102582     0.9258      6.636   338.6660 7.7970e+01     0.6513      4.857      7.044     9.3912 0.0000e+00
      4.975      0.093     8.8232     77.044     39.397  27.095665     0.9131      6.631   338.6705 7.6416e+01     0.6664      4.875      7.069     9.3909 0.0000e+00
      5.004      0.099     8.8469     77.241     39.376  27.076773     0.9024      6.627   338.6932 7.4501e+01     0.6609      4.905      7.113     9.3916 0.0000e+00
      5.037      0.102     8.8659     77.396     39.364  27.064652     0.8880      6.625   338.7686 7.2768e+01     0.6469      4.941      7.166     9.3944 0.0000e+00
      5.069      0.102     8.8762     77.477     39.387  27.076093     0.8774      6.624   338.8937 7.1348e+01     0.6491      4.972      7.213     9.3925 0.0000e+00
      5.095      0.097     8.8790     77.494     39.408  27.088110     0.8660      6.623   339.0877 7.0503e+01     0.6568      4.998      7.249     9.3852 0.0000e+00
      5.115      0.091     8.8767     77.475     39.400  27.082948     0.8326      6.621   339.2206 7.0117e+01     0.6487      5.017      7.277     9.3799 0.0000e+00
      5.134      0.085     8.8726     77.445     39.388  27.077175     0.7949      6.618   339.2097 6.9495e+01     0.6422      5.034      7.302     9.3752 0.0000e+00
      5.154      0.080     8.8696     77.423     39.393  27.081812     0.7878      6.617   339.1292 6.8830e+01     0.6398      5.053      7.329     9.3693 0.0000e+00
      5.175      0.080     8.8672     77.398     39.386  27.075520     0.7923      6.617   339.1073 6.8281e+01     0.6190      5.074      7.359     9.3642 0.0000e+00
      5.196      0.082     8.8624     77.346     39.377  27.064591     0.8215      6.614   339.2033 6.7478e+01     0.6040      5.096      7.391     9.3646 0.0000e+00
      5.216      0.086     8.8543     77.263     39.402  27.076657     0.8831      6.610   339.3423 6.6466e+01     0.6117      5.116      7.420     9.3704 0.0000e+00
      5.236      0.089     8.8474     77.191     39.435  27.094408     0.9121      6.607   339.4973 6.5170e+01     0.6508      5.133      7.444     9.3734 0.0000e+00
      5.258      0.092     8.8434     77.148     39.432  27.088722     0.9067      6.604   339.5290 6.3968e+01     0.6802      5.155      7.476     9.3710 0.0000e+00
      5.285      0.094     8.8394     77.106     39.411  27.071405     0.8723      6.602   339.4679 6.3190e+01     0.6612      5.184      7.518     9.3647 0.0000e+00
      5.310      0.095     8.8358     77.068     39.421  27.075519     0.8091      6.602   339.5326 6.2432e+01     0.6350      5.208      7.553     9.3567 0.0000e+00
      5.335      0.094     8.8352     77.056     39.424  27.074962     0.7760      6.602   339.7094 6.1690e+01     0.6384      5.231      7.587     9.3506 0.0000e+00
      5.360      0.090     8.8376     77.071     39.413  27.064666     0.7758      6.601   339.8839 6.1013e+01     0.6714      5.257      7.626     9.3466 0.0000e+00
      5.384      0.084     8.8408     77.092     39.436  27.078029     0.7794      6.600   340.0088 6.0348e+01     0.6992      5.281      7.659     9.3427 0.0000e+00
      5.405      0.079     8.8441     77.117     39.484  27.109525     0.8102      6.600   340.0146 5.9928e+01     0.6999      5.301      7.688     9.3390 0.0000e+00
      5.424      0.075     8.8461     77.132     39.513  27.127988     0.8723      6.600   339.8679 5.9455e+01     0.6792      5.320      7.716     9.3354 0.0000e+00
      5.440      0.071     8.8458     77.128     39.490  27.110764     0.9148      6.600   339.7834 5.8631e+01     0.6622      5.334      7.738     9.3318 0.0000e+00
      5.456      0.068     8.8456     77.123     39.464  27.091768     0.9198      6.600   339.8533 5.7687e+01     0.6479      5.350      7.760     9.3287 0.0000e+00
      5.474      0.066     8.8453     77.117     39.461  27.088807     0.8967      6.600   339.8531 5.6919e+01     0.6283      5.369      7.787     9.3265 0.0000e+00
      5.492      0.066     8.8436     77.101     39.442  27.074954     0.8639      6.600   339.7809 5.6405e+01     0.6387      5.386      7.812     9.3253 0.0000e+00
      5.507      0.066     8.8428     77.093     39.408  27.051269     0.8548      6.600   339.7552 5.5771e+01     0.6812      5.401      7.834     9.3237 0.0000e+00
      5.523      0.064     8.8452     77.114     39.415  27.056420     0.8593      6.599   339.8000 5.5030e+01     0.7152      5.416      7.856     9.3219 0.0000e+00
      5.541      0.061     8.8463     77.125     39.440  27.073737     0.8273      6.599   339.8929 5.4296e+01     0.7140      5.434      7.881     9.3208 0.0000e+00
      5.558      0.058     8.8450     77.117     39.433  27.070159     0.7618      6.599   340.0178 5.3683e+01     0.6672      5.452      7.907     9.3200 0.0000e+00
      5.572      0.055     8.8447     77.117     39.441  27.076656     0.7278      6.599   340.2776 5.3594e+01     0.6381      5.466      7.927     9.3195 0.0000e+00
      5.585      0.053     8.8436     77.107     39.459  27.088796     0.7303      6.599   340.5387 5.3617e+01     0.6676      5.478      7.945     9.3192 0.0000e+00
      5.597      0.051     8.8415     77.085     39.463  27.089952     0.7648      6.596   340.5933 5.3470e+01     0.6566      5.489      7.961     9.3200 0.0000e+00
      5.609      0.051     8.8390     77.060     39.465  27.090625     0.8231      6.594   340.5940 5.3246e+01     0.6275      5.500      7.977     9.3224 0.0000e+00
      5.621      0.051     8.8357     77.032     39.474  27.096930     0.8467      6.594   340.7196 5.2853e+01     0.6518      5.511      7.993     9.3239 0.0000e+00
      5.635      0.052     8.8343     77.021     39.482  27.102693     0.8476      6.594   340.9071 5.2437e+01     0.6761      5.526      8.015     9.3235 0.0000e+00
      5.649      0.055     8.8348     77.026     39.474  27.096807     0.8439      6.593   341.0547 5.2051e+01     0.6771      5.540      8.037     9.3213 0.0000e+00
      5.662      0.060     8.8338     77.013     39.465  27.089266     0.8108      6.592   341.1269 5.1570e+01     0.6628      5.552      8.053     9.3185 0.0000e+00
      5.676      0.064     8.8311     76.984     39.447  27.075007     0.7786      6.591   341.1774 5.0986e+01     0.6560      5.565      8.071     9.3192 0.0000e+00
      5.693      0.067     8.8292     76.964     39.415  27.051387     0.7754      6.590   341.2350 5.0481e+01     0.6563      5.582      8.095     9.3217 0.0000e+00
      5.713      0.067     8.8293     76.961     39.427  27.057669     0.7997      6.589   341.3072 5.0044e+01     0.6671      5.603      8.126     9.3212 0.0000e+00
      5.733      0.066     8.8324     76.986     39.472  27.087466     0.8340      6.588   341.3627 4.9602e+01     0.6950      5.623      8.156     9.3185 0.0000e+00
      5.751      0.063     8.8383     77.037     39.482  27.094175     0.8499      6.587   341.3032 4.9160e+01     0.6879      5.642      8.183     9.3158 0.0000e+00
      5.766      0.058     8.8444     77.092     39.453  27.075284     0.8535      6.587   341.1906 4.8720e+01     0.6729      5.655      8.203     9.3138 0.0000e+00
      5.778      0.054     8.8516     77.158     39.413  27.049545     0.8591      6.587   341.2057 4.8416e+01     0.6960      5.665      8.217     9.3123 0.0000e+00
      5.790      0.053     8.8614     77.247     39.393  27.036960     0.8626      6.586   341.3992 4.8230e+01     0.6926      5.678      8.235     9.3101 0.0000e+00
      5.802      0.053     8.8706     77.329     39.411  27.050123     0.8595      6.585   341.5519 4.7879e+01     0.6621      5.691      8.254     9.3090 0.0000e+00
      5.815      0.054     8.8780     77.394     39.456  27.081694     0.8495      6.585   341.5033 4.7223e+01     0.6325      5.702      8.269     9.3103 0.0000e+00
      5.830      0.056     8.8857     77.461     39.485  27.101196     0.8420      6.585   341.4145 4.6506e+01     0.6096      5.716      8.291     9.3129 0.0000e+00
      5.845      0.057     8.8934     77.527     39.477  27.095432     0.8338      6.585   341.5102 4.5990e+01     0.6290      5.733      8.315     9.3155 0.0000e+00
      5.860      0.060     8.8979     77.566     39.448  27.075501     0.8051      6.585   341.7146 4.5612e+01     0.6540      5.747      8.334     9.3166 0.0000e+00
      5.875      0.064     8.8995     77.580     39.412  27.050700     0.7795      6.583   341.9061 4.5327e+01     0.6680      5.761      8.356     9.3168 0.0000e+00
      5.890      0.068     8.9021     77.600     39.412  27.049556     0.7823      6.580   342.1048 4.5092e+01     0.6758      5.776      8.378     9.3161 0.0000e+00
      5.907      0.071     8.9042     77.615     39.432  27.061669     0.7926      6.576   342.2238 4.4647e+01     0.6570      5.792      8.400     9.3154 0.0000e+00
      5.927      0.072     8.9030     77.601     39.446  27.070160     0.7942      6.573   342.3136 4.4008e+01     0.6555      5.811      8.428     9.3156 0.0000e+00
      5.949      0.072     8.8999     77.571     39.475  27.088727     0.7922      6.571   342.4157 4.3452e+01     0.6879      5.834      8.461     9.3154 0.0000e+00
      5.970      0.071     8.8953     77.529     39.487  27.095662     0.7868      6.570   342.4253 4.3080e+01     0.6822      5.856      8.493     9.3140 0.0000e+00
      5.988      0.067     8.8928     77.504     39.481  27.090510     0.7841      6.569   342.4302 4.2745e+01     0.7082      5.872      8.517     9.3123 0.0000e+00
      6.003      0.062     8.8934     77.509     39.481  27.089934     0.7870      6.569   342.4755 4.2418e+01     0.8196      5.886      8.538     9.3109 0.0000e+00
      6.017      0.057     8.8919     77.495     39.479  27.088694     0.7848      6.568   342.4566 4.2236e+01     0.8696      5.901      8.558     9.3089 0.0000e+00
      6.031      0.053     8.8866     77.448     39.460  27.075523     0.7849      6.567   342.4598 4.1972e+01     0.8545      5.914      8.577     9.3072 0.0000e+00
      6.043      0.050     8.8788     77.378     39.435  27.057669     0.7789      6.566   342.5139 4.1592e+01     0.8505      5.926      8.595     9.3063 0.0000e+00
      6.055      0.049     8.8725     77.321     39.445  27.063328     0.7592      6.566   342.5083 4.1320e+01     0.8524      5.938      8.613     9.3058 0.0000e+00
      6.067      0.049     8.8701     77.300     39.470  27.080447     0.7391      6.566   342.4788 4.0965e+01     0.8463      5.950      8.630     9.3053 0.0000e+00
      6.079      0.050     8.8680     77.283     39.460  27.074155     0.7201      6.567   342.5004 4.0559e+01     0.8373      5.961      8.646     9.3046 0.0000e+00
      6.092      0.053     8.8645     77.257     39.423  27.050744     0.7126      6.567   342.5978 4.0269e+01     0.8356      5.973      8.664     9.3039 0.0000e+00
      6.105      0.057     8.8626     77.242     39.423  27.051377     0.7133      6.566   342.7101 3.9976e+01     0.7642      5.987      8.685     9.3032 0.0000e+00
      6.120      0.062     8.8658     77.268     39.469  27.081809     0.7106      6.564   342.8251 3.9629e+01     0.6466      6.001      8.704     9.3025 0.0000e+00
      6.136      0.066     8.8709     77.310     39.499  27.101207     0.7160      6.561   342.9561 3.9215e+01     0.6331      6.016      8.725     9.3031 0.0000e+00
      6.154      0.067     8.8754     77.345     39.493  27.095425     0.7240      6.559   343.0036 3.8698e+01     0.6622      6.034      8.751     9.3060 0.0000e+00
      6.175      0.065     8.8799     77.381     39.465  27.075388     0.7430      6.557   342.9687 3.8163e+01     0.6929      6.055      8.782     9.3075 0.0000e+00
      6.195      0.062     8.8812     77.391     39.428  27.049441     0.7709      6.556   342.9652 3.7711e+01     0.7909      6.076      8.814     9.3060 0.0000e+00
      6.211      0.058     8.8827     77.403     39.409  27.035691     0.7763      6.556   343.0472 3.7341e+01     0.8715      6.092      8.836     9.3039 0.0000e+00
      6.222      0.054     8.8885     77.453     39.410  27.036135     0.7806      6.557   343.1854 3.7084e+01     0.9046      6.102      8.850     9.3020 0.0000e+00
      6.232      0.051     8.8886     77.453     39.438  27.054809     0.7955      6.557   343.3461 3.6855e+01     0.8552      6.110      8.863     9.3006 0.0000e+00
      6.243      0.050     8.8802     77.379     39.462  27.070981     0.7995      6.556   343.4411 3.6590e+01     0.7315      6.121      8.878     9.2999 0.0000e+00
      6.255      0.052     8.8726     77.312     39.419  27.041172     0.7926      6.556   343.4739 3.6356e+01     0.6609      6.134      8.896     9.2992 0.0000e+00
      6.269      0.056     8.8667     77.261     39.376  27.011881     0.7853      6.556   343.5704 3.6030e+01     0.6417      6.147      8.916     9.2985 0.0000e+00
      6.285      0.060     8.8606     77.207     39.410  27.034308     0.7761      6.555   343.6607 3.5548e+01     0.6517      6.163      8.939     9.2980 0.0000e+00
      6.302      0.062     8.8581     77.183     39.446  27.058343     0.7551      6.554   343.7058 3.5179e+01     0.6910      6.181      8.964     9.2977 0.0000e+00
      6.318      0.065     8.8587     77.188     39.432  27.048501     0.7338      6.553   343.8588 3.5019e+01     0.6890      6.196      8.987     9.2975 0.0000e+00
      6.334      0.067     8.8576     77.178     39.422  27.042297     0.7208      6.551   344.1331 3.4760e+01     0.6271      6.211      9.008     9.2973 0.0000e+00
      6.350      0.070     8.8546     77.153     39.429  27.046830     0.7073      6.549   344.3548 3.4396e+01     0.6144      6.227      9.032     9.2968 0.0000e+00
      6.368      0.071     8.8528     77.136     39.419  27.039809     0.6907      6.547   344.4747 3.4096e+01     0.6575      6.245      9.058     9.2962 0.0000e+00
      6.388      0.071     8.8520     77.128     39.392  27.020908     0.6752      6.546   344.5509 3.3707e+01     0.6605      6.263      9.084     9.2958 0.0000e+00
      6.408      0.069     8.8506     77.116     39.374  27.008794     0.6679      6.546   344.5869 3.3221e+01     0.6503      6.284      9.115     9.2963 0.0000e+00
      6.428      0.066     8.8464     77.081     39.390  27.020339     0.6660      6.546   344.6528 3.2803e+01     0.6559      6.305      9.144     9.2964 0.0000e+00
      6.445      0.061     8.8411     77.035     39.409  27.033501     0.6712      6.544   344.7447 3.2489e+01     0.6672      6.322      9.169     9.2954 0.0000e+00
      6.459      0.056     8.8394     77.020     39.420  27.040933     0.6844      6.543   344.7520 3.2229e+01     0.6949      6.335      9.188     9.2947 0.0000e+00
      6.471      0.052     8.8413     77.036     39.429  27.046706     0.6882      6.543   344.7409 3.2013e+01     0.6864      6.346      9.204     9.2952 0.0000e+00
      6.481      0.051     8.8416     77.037     39.419  27.039798     0.6803      6.542   344.7820 3.1810e+01     0.6556      6.356      9.218     9.2962 0.0000e+00
      6.492      0.052     8.8376     77.002     39.392  27.020912     0.6623      6.541   344.7333 3.1571e+01     0.7186      6.366      9.233     9.2967 0.0000e+00
      6.505      0.054     8.8329     76.961     39.376  27.008848     0.6364      6.542   344.6682 3.1282e+01     0.8383      6.378      9.251     9.2959 0.0000e+00
      6.521      0.057     8.8327     76.958     39.394  27.020923     0.6234      6.542   344.7691 3.0953e+01     0.8826      6.394      9.274     9.2952 0.0000e+00
      6.538      0.059     8.8374     76.999     39.422  27.039915     0.6256      6.541   344.9204 3.0626e+01     0.8576      6.413      9.301     9.2951 0.0000e+00
      6.554      0.062     8.8404     77.025     39.432  27.047977     0.6359      6.540   345.0352 3.0307e+01     0.7798      6.428      9.322     9.2951 0.0000e+00
      6.568      0.064     8.8385     77.009     39.442  27.054902     0.6553      6.539   345.1243 2.9982e+01     0.6744      6.441      9.342     9.2942 0.0000e+00
      6.583      0.066     8.8380     77.004     39.451  27.060159     0.6765      6.538   345.1379 2.9651e+01     0.6524      6.455      9.362     9.2933 0.0000e+00
      6.600      0.067     8.8406     77.023     39.436  27.048037     0.6806      6.537   345.1141 2.9337e+01     0.6654      6.470      9.384     9.2930 0.0000e+00
      6.619      0.069     8.8414     77.028     39.419  27.035329     0.6583      6.536   345.1802 2.9055e+01     0.7099      6.491      9.414     9.2942 0.0000e+00
      6.638      0.071     8.8383     76.998     39.417  27.033503     0.6371      6.534   345.3342 2.8806e+01     0.8243      6.512      9.444     9.2956 0.0000e+00
      6.656      0.073     8.8317     76.940     39.407  27.025955     0.6276      6.533   345.4281 2.8550e+01     0.8886      6.527      9.467     9.2942 0.0000e+00
      6.674      0.074     8.8252     76.881     39.382  27.007568     0.6161      6.531   345.4553 2.8265e+01     0.9085      6.545      9.492     9.2915 0.0000e+00
      6.693      0.074     8.8214     76.846     39.374  27.001682     0.6086      6.530   345.5764 2.7998e+01     0.9119      6.564      9.520     9.2900 0.0000e+00
      6.712      0.075     8.8201     76.833     39.399  27.018277     0.6098      6.528   345.7741 2.7744e+01     0.8379      6.581      9.545     9.2891 0.0000e+00
      6.732      0.077     8.8188     76.821     39.399  27.017718     0.6130      6.526   345.8669 2.7459e+01     0.7163      6.602      9.575     9.2881 0.0000e+00
      6.751      0.079     8.8192     76.824     39.366  26.994922     0.6102      6.524   345.8379 2.7187e+01     0.6318      6.622      9.604     9.2873 0.0000e+00
      6.771      0.079     8.8240     76.865     39.369  26.996644     0.6032      6.522   345.8540 2.6938e+01     0.6088      6.638      9.628     9.2864 0.0000e+00
      6.793      0.078     8.8295     76.910     39.432  27.038541     0.6019      6.521   345.8890 2.6671e+01     0.6519      6.660      9.660     9.2856 0.0000e+00
      6.815      0.076     8.8345     76.950     39.461  27.057016     0.6139      6.521   345.9169 2.6385e+01     0.6959      6.684      9.695     9.2853 0.0000e+00
      6.835      0.073     8.8418     77.011     39.423  27.029517     0.6282      6.520   346.0197 2.6103e+01     0.6829      6.703      9.722     9.2851 0.0000e+00
      6.853      0.070     8.8482     77.064     39.415  27.023545     0.6283      6.520   346.0127 2.5863e+01     0.6771      6.722      9.748     9.2844 0.0000e+00
      6.869      0.066     8.8483     77.062     39.453  27.048301     0.6419      6.521   345.9192 2.5674e+01     0.8397      6.737      9.771     9.2829 0.0000e+00
      6.884      0.063     8.8445     77.022     39.496  27.074846     0.6918      6.522   345.9218 2.5569e+01     1.1528      6.750      9.790     9.2810 0.0000e+00
      6.899      0.061     8.8369     76.947     39.524  27.090507     0.7258      6.522   345.9577 2.5484e+01     1.2589      6.765      9.811     9.2793 0.0000e+00
      6.915      0.059     8.8244     76.831     39.559  27.110657     0.7227      6.521   346.0953 2.5297e+01     1.1765      6.781      9.836     9.2786 0.0000e+00
      6.932      0.059     8.8103     76.704     39.587  27.127986     0.7267      6.520   346.3809 2.5082e+01     1.1947      6.799      9.861     9.2776 0.0000e+00
      6.947      0.064     8.7930     76.551     39.561  27.109535     0.7562      6.517   346.7438 2.4909e+01     1.3259      6.814      9.882     9.2739 0.0000e+00
      6.958      0.071     8.7699     76.348     39.516  27.078054     0.7948      6.512   347.1269 2.4772e+01     1.4817      6.824      9.897     9.2681 0.0000e+00
      6.972      0.079     8.7404     76.088     39.500  27.064844     0.7987      6.507   347.3131 2.4610e+01     1.4910      6.835      9.911     9.2632 0.0000e+00
      6.993      0.085     8.7014     75.743     39.520  27.076807     0.7477      6.503   347.2745 2.4324e+01     1.3166      6.856      9.942     9.2609 0.0000e+00
      7.023      0.088     8.6509     75.300     39.550  27.095699     0.6928      6.502   347.2627 2.3994e+01     1.1423      6.887      9.989     9.2603 0.0000e+00
      7.053      0.088     8.5935     74.800     39.561  27.102772     0.6959      6.502   347.3424 2.3722e+01     1.1233      6.920     10.036     9.2603 0.0000e+00
      7.078      0.085     8.5337     74.282     39.552  27.098821     0.7391      6.502   347.3782 2.3483e+01     1.2403      6.945     10.072     9.2583 0.0000e+00
      7.096      0.080     8.4751     73.777     39.568  27.111426     0.7367      6.501   347.3505 2.3242e+01     1.2747      6.960     10.094     9.2543 0.0000e+00
      7.111      0.074     8.4236     73.327     39.594  27.128187     0.6857      6.500   347.3525 2.2981e+01     1.2029      6.973     10.112     9.2523 0.0000e+00
      7.127      0.069     8.3799     72.939     39.574  27.110991     0.6747      6.499   347.3159 2.2709e+01     1.2267      6.988     10.135     9.2517 0.0000e+00
      7.145      0.067     8.3437     72.615     39.554  27.093993     0.7225      6.497   347.2518 2.2434e+01     1.2576      7.008     10.164     9.2542 0.0000e+00
      7.163      0.069     8.3137     72.347     39.587  27.113160     0.7583      6.496   347.2656 2.2192e+01     1.2407      7.026     10.190     9.2588 0.0000e+00
      7.180      0.073     8.2851     72.093     39.647  27.152233     0.7399      6.494   347.2247 2.2006e+01     1.2366      7.041     10.213     9.2566 0.0000e+00
      7.198      0.076     8.2550     71.830     39.697  27.185424     0.7029      6.493   347.0164 2.1866e+01     1.2076      7.058     10.237     9.2509 0.0000e+00
      7.217      0.076     8.2256     71.570     39.717  27.196984     0.7055      6.491   346.8123 2.1750e+01     1.2557      7.076     10.263     9.2472 0.0000e+00
      7.239      0.074     8.1981     71.326     39.673  27.165001     0.7349      6.490   346.7349 2.1569e+01     1.2687      7.098     10.295     9.2418 0.0000e+00
      7.262      0.070     8.1691     71.073     39.602  27.116212     0.7271      6.492   346.5970 2.1321e+01     1.1817      7.123     10.332     9.2384 0.0000e+00
      7.282      0.064     8.1406     70.827     39.599  27.115069     0.7029      6.494   346.4356 2.1132e+01     1.2422      7.145     10.362     9.2395 0.0000e+00
      7.297      0.057     8.1150     70.605     39.651  27.151174     0.7181      6.495   346.4190 2.1014e+01     1.4199      7.156     10.380     9.2372 0.0000e+00
      7.307      0.047     8.0909     70.395     39.682  27.171774     0.7371      6.496   346.3955 2.0880e+01     1.4994      7.165     10.394     9.2329 0.0000e+00
      7.317      0.038     8.0725     70.236     39.684  27.173645     0.7118      6.496   346.2370 2.0705e+01     1.3799      7.175     10.408     9.2330 0.0000e+00
      7.327      0.030     8.0609     70.141     39.680  27.173801     0.6688      6.496   345.9659 2.0563e+01     1.1659      7.186     10.423     9.2350 0.0000e+00
      7.334      0.024     8.0467     70.023     39.676  27.173665     0.6675      6.497   345.8714 2.0488e+01     1.1084      7.193     10.433     9.2359 0.0000e+00
      7.338      0.019     8.0306     69.882     39.675  27.172002     0.6866      6.498   346.0409 2.0434e+01     1.1729      7.197     10.438     9.2344 0.0000e+00
      7.341      0.014     8.0229     69.807     39.653  27.153682     0.6614      6.498   346.1222 2.0402e+01     1.1525      7.200     10.442     9.2337 0.0000e+00
      7.344      0.010     8.0205     69.779     39.642  27.142661     0.6099      6.498   346.0793 2.0397e+01     1.0443      7.202     10.445     9.2391 0.0000e+00
      7.346      0.007     8.0200     69.771     39.678  27.165738     0.5700      6.499   345.9528 2.0389e+01     0.9330      7.204     10.448     9.2445 0.0000e+00
      7.347      0.005     8.0224     69.796     39.694  27.178701     0.5478      6.500   345.7977 2.0372e+01     0.8750      7.205     10.450     9.2425 0.0000e+00
      7.348      0.004     8.0251     69.830     39.678  27.172403     0.5430      6.501   345.7525 2.0354e+01     0.8611      7.206     10.451     9.2367 0.0000e+00
      7.348      0.003     8.0287     69.873     39.642  27.153094     0.5484      6.502   345.6643 2.0339e+01     0.8563      7.206     10.452     9.2317 0.0000e+00
      7.349      0.002     8.0348     69.937     39.609  27.135738     0.5583      6.502   345.5050 2.0339e+01     0.8788      7.207     10.453     9.2290 0.0000e+00
      7.350      0.002     8.0411     70.000     39.628  27.153053     0.5609      6.502   345.3758 2.0322e+01     0.8888      7.208     10.454     9.2314 0.0000e+00
      7.350      0.002     8.0465     70.056     39.649  27.171953     0.5525      6.503   345.3066 2.0250e+01     0.8556      7.208     10.455     9.2388 0.0000e+00
      7.350      0.001     8.0541     70.138     39.641  27.173774     0.5480      6.504   345.2705 2.0200e+01     0.8429      7.208     10.455     9.2462 0.0000e+00
      7.351      0.001     8.0653     70.254     39.630  27.175074     0.5439      6.505   345.2831 2.0188e+01     0.8574      7.209     10.456     9.2526 0.0000e+00
      7.351      0.001     8.0765     70.369     39.637  27.187682     0.5404      6.506   345.4594 2.0173e+01     0.8793      7.209     10.456     9.2576 0.0000e+00
      7.351      0.001     8.0815     70.420     39.648  27.199228     0.5416      6.506   345.5950 2.0175e+01     0.8937      7.209     10.456     9.2608 0.0000e+00
      7.351 -9.990e-29 -9.990e-29 -9.990e-29 -9.990e-29 -9.990e-29 -9.990e-29 -9.990e-29 -9.990e-29 2.0197e+01 -9.990e-29      7.209     10.456     9.2711 0.0000e+00
      7.351 -9.990e-29 -9.990e-29 -9.990e-29 -9.990e-29 -9.990e-29 -9.990e-29 -9.990e-29 -9.990e-29 2.0240e+01 -9.990e-29      7.209     10.456     9.2837 0.0000e+00
      7.351 -9.990e-29 -9.990e-29 -9.990e-29 -9.990e-29 -9.990e-29 -9.990e-29 -9.990e-29 -9.990e-29 2.0274e+01 -9.990e-29      7.209     10.456     9.2954 0.0000e+00
      7.351 -9.990e-29 -9.990e-29 -9.990e-29 -9.990e-29 -9.990e-29 -9.990e-29 -9.990e-29 -9.990e-29 2.0281e+01 -9.990e-29      7.210     10.457     9.3032 0.0000e+00
