* Sea-Bird SBE19plus  Data File:
* FileName = C:\R\Reservoirs\Data\DataNotYetUploadedToEDI\Raw_CTD\RawDownloads\051925_fcr50_S7809_0005.hex
* Software version 2.8.0.119
* Temperature SN = 7809
* Conductivity SN = 7809
* System UpLoad Time = May 27 2025 14:02:31
* <ApplicationData>
* <Seaterm232>
* <SoftwareVersion>2.8.0.119</SoftwareVersion>
* <BuildDate>07-Nov-2018</BuildDate>
* </Seaterm232>
* </ApplicationData>
* <InstrumentState>
* <HardwareData DeviceType='SBE19plus' SerialNumber='01907809'>
*
*    <Manufacturer>Sea-Bird Electronics, Inc.</Manufacturer>
*
*    <FirmwareVersion>3.1.8</FirmwareVersion>
*
*    <FirmwareDate>Mar  9 2016 16:22:29</FirmwareDate>
*
*    <CommandSetVersion>1.4</CommandSetVersion>
*
*    <PCBAssembly PCBSerialNum='120721' AssemblyNum='41054J'/>
*
*    <PCBAssembly PCBSerialNum='120715' AssemblyNum='41967A'/>
*
*    <PCBAssembly PCBSerialNum='116699' AssemblyNum='41606'/>
*
*    <PCBAssembly PCBSerialNum='120719' AssemblyNum='41059D'/>
*
*    <MfgDate>28-Apr-2017</MfgDate>
*
*    <InternalSensors>
*
*       <Sensor id='Main Temperature'>
*
*          <type>temperature0</type>
*
*          <SerialNumber>01907809</SerialNumber>
*
*       </Sensor>
*
*       <Sensor id='Main Conductivity'>
*
*          <type>conductivity-0</type>
*
*          <SerialNumber>01907809</SerialNumber>
*
*       </Sensor>
*
*       <Sensor id='Main Pressure'>
*
*          <type>strain-0</type>
*
*          <SerialNumber>10586018</SerialNumber>
*
*       </Sensor>
*
*    </InternalSensors>
*
*    <ExternalSensors>
*
*       <Sensor id='volt 0'>
*
*          <type>pH</type>
*
*          <SerialNumber>27-0363</SerialNumber>
*
*       </Sensor>
*
*       <Sensor id='volt 1'>
*
*          <type>ORP</type>
*
*          <SerialNumber>27-0363</SerialNumber>
*
*       </Sensor>
*
*       <Sensor id='volt 2'>
*
*          <type>OXY</type>
*
*          <SerialNumber>43-0434</SerialNumber>
*
*       </Sensor>
*
*       <Sensor id='volt 3'>
*
*          <type>PAR</type>
*
*          <SerialNumber>1122</SerialNumber>
*
*       </Sensor>
*
*       <Sensor id='volt 4'>
*
*          <type>ECO AFL/FL</type>
*
*          <SerialNumber>FLNTURT-2496</SerialNumber>
*
*       </Sensor>
*
*       <Sensor id='volt 5'>
*
*          <type>ECO-NTU</type>
*
*          <SerialNumber>FLNTURT-2496</SerialNumber>
*
*       </Sensor>
*
*       <Sensor id='serial'>
*
*          <type>not assigned</type>
*
*          <SerialNumber>not assigned</SerialNumber>
*
*       </Sensor>
*
*    </ExternalSensors>
*
* </HardwareData>
* <StatusData DeviceType='SBE19plus' SerialNumber='01907809'>
*
*    <DateTime>2025-05-27T13:59:38</DateTime>
*
*    <LoggingState>not logging</LoggingState>
*
*    <EventSummary numEvents='0'/>
*
*    <Power>
*
*       <vMain>12.6</vMain>
*
*       <vLith>8.3</vLith>
*
*       <iMain>63.2</iMain>
*
*       <iPump>43.3</iPump>
*
*       <iExt01>20.3</iExt01>
*
*       <iExt2345>39.2</iExt2345>
*
*    </Power>
*
*    <MemorySummary>
*
*       <Bytes>1393846</Bytes>
*
*       <Samples>60602</Samples>
*
*       <SamplesFree>2800186</SamplesFree>
*
*       <SampleLength>23</SampleLength>
*
*       <Profiles>11</Profiles>
*
*    </MemorySummary>
*
* </StatusData>
* <ConfigurationData DeviceType='SBE19plus' SerialNumber='01907809'>
*
*    <ProfileMode>
*
*       <ScansToAverage>1</ScansToAverage>
*
*       <MinimumCondFreq>0</MinimumCondFreq>
*
*       <PumpDelay>45</PumpDelay>
*
*       <AutoRun>no</AutoRun>
*
*       <IgnoreSwitch>no</IgnoreSwitch>
*
*    </ProfileMode>
*
*    <Battery>
*
*       <Type>alkaline</Type>
*
*       <CutOff>7.5</CutOff>
*
*    </Battery>
*
*    <DataChannels>
*
*       <ExtVolt0>yes</ExtVolt0>
*
*       <ExtVolt1>yes</ExtVolt1>
*
*       <ExtVolt2>yes</ExtVolt2>
*
*       <ExtVolt3>yes</ExtVolt3>
*
*       <ExtVolt4>yes</ExtVolt4>
*
*       <ExtVolt5>yes</ExtVolt5>
*
*       <SBE38>no</SBE38>
*
*       <WETLABS>no</WETLABS>
*
*       <OPTODE>no</OPTODE>
*
*       <SBE63>no</SBE63>
*
*       <SeaFET>no</SeaFET>
*
*       <GTD>no</GTD>
*
*    </DataChannels>
*
*    <EchoCharacters>yes</EchoCharacters>
*
*    <OutputExecutedTag>yes</OutputExecutedTag>
*
*    <OutputFormat>raw HEX</OutputFormat>
*
* </ConfigurationData>
* <CalibrationCoefficients DeviceType='SBE19plus' SerialNumber='01907809'>
*
*    <Calibration format='TEMP1' id='Main Temperature'>
*
*       <SerialNum>01907809</SerialNum>
*
*       <CalDate>31-Jan-23</CalDate>
*
*       <TA0>1.218232e-03</TA0>
*
*       <TA1>2.815090e-04</TA1>
*
*       <TA2>-1.578887e-06</TA2>
*
*       <TA3>1.972343e-07</TA3>
*
*       <TOFFSET>0.000000e+00</TOFFSET>
*
*    </Calibration>
*
*    <Calibration format='WBCOND0' id='Main Conductivity'>
*
*       <SerialNum>01907809</SerialNum>
*
*       <CalDate>31-Jan-23</CalDate>
*
*       <G>-1.005652e+00</G>
*
*       <H>1.267963e-01</H>
*
*       <I>-1.561708e-04</I>
*
*       <J>2.645944e-05</J>
*
*       <CPCOR>-9.570000e-08</CPCOR>
*
*       <CTCOR>3.250000e-06</CTCOR>
*
*       <CSLOPE>1.000000e+00</CSLOPE>
*
*    </Calibration>
*
*    <Calibration format='STRAIN0' id='Main Pressure'>
*
*       <SerialNum>10586018</SerialNum>
*
*       <CalDate>20-Jan-23</CalDate>
*
*       <PA0>4.416439e-02</PA0>
*
*       <PA1>4.850502e-04</PA1>
*
*       <PA2>-3.090426e-12</PA2>
*
*       <PTCA0>5.254757e+05</PTCA0>
*
*       <PTCA1>1.050255e+01</PTCA1>
*
*       <PTCA2>-2.922435e-01</PTCA2>
*
*       <PTCB0>2.516687e+01</PTCB0>
*
*       <PTCB1>3.750000e-04</PTCB1>
*
*       <PTCB2>0.000000e+00</PTCB2>
*
*       <PTEMPA0>-5.470820e+01</PTEMPA0>
*
*       <PTEMPA1>5.485421e+01</PTEMPA1>
*
*       <PTEMPA2>-3.446578e-01</PTEMPA2>
*
*       <POFFSET>8.500000e-01</POFFSET>
*
*       <PRANGE>1.600000e+02</PRANGE>
*
*    </Calibration>
*
*    <Calibration format='VOLT0' id='Volt 0'>
*
*       <OFFSET>-4.920000e-02</OFFSET>
*
*       <SLOPE>1.248122e+00</SLOPE>
*
*    </Calibration>
*
*    <Calibration format='VOLT0' id='Volt 1'>
*
*       <OFFSET>-4.784000e-02</OFFSET>
*
*       <SLOPE>1.248871e+00</SLOPE>
*
*    </Calibration>
*
*    <Calibration format='VOLT0' id='Volt 2'>
*
*       <OFFSET>-4.864632e-02</OFFSET>
*
*       <SLOPE>1.248714e+00</SLOPE>
*
*    </Calibration>
*
*    <Calibration format='VOLT0' id='Volt 3'>
*
*       <OFFSET>-4.743790e-02</OFFSET>
*
*       <SLOPE>1.248571e+00</SLOPE>
*
*    </Calibration>
*
*    <Calibration format='VOLT0' id='Volt 4'>
*
*       <OFFSET>-4.671263e-02</OFFSET>
*
*       <SLOPE>1.248951e+00</SLOPE>
*
*    </Calibration>
*
*    <Calibration format='VOLT0' id='Volt 5'>
*
*       <OFFSET>-4.871053e-02</OFFSET>
*
*       <SLOPE>1.249136e+00</SLOPE>
*
*    </Calibration>
*
*    <Calibration format='FREQ0' id='external frequency channel'>
*
*       <EXTFREQSF>1.000014e+00</EXTFREQSF>
*
*    </Calibration>
*
* </CalibrationCoefficients>
* <EventCounters DeviceType='SBE19plus' SerialNumber='01907809'>
*
*    <EventSummary numEvents='0'/>
*
* </EventCounters></InstrumentState>
* <Headers>
*
* cast   5 19 May 2025 13:49:24 samples 4363 to 5403, avg = 1, stop = mag switch
*
# nquan = 15
# nvalues = 1041                        
# units = specified
# name 0 = depFM: Depth [fresh water, m]
# name 1 = dz/dtM: Descent Rate [m/s]
# name 2 = sbeox0Mg/L: Oxygen, SBE 43 [mg/l]
# name 3 = sbeox0PS: Oxygen, SBE 43 [% saturation]
# name 4 = specc: Specific Conductance [uS/cm]
# name 5 = c0uS/cm: Conductivity [uS/cm]
# name 6 = flECO-AFL: Fluorescence, WET Labs ECO-AFL/FL [mg/m^3]
# name 7 = ph: pH
# name 8 = orp: Oxidation Reduction Potential [mV]
# name 9 = par/sat/log: PAR/Logarithmic, Satlantic
# name 10 = turbWETntu0: Turbidity, WET Labs ECO [NTU]
# name 11 = prdM: Pressure, Strain Gauge [db]
# name 12 = prdE: Pressure, Strain Gauge [psi]
# name 13 = tv290C: Temperature [ITS-90, deg C]
# name 14 = flag:  0.000e+00
# span 0 =     -0.675,      5.919       
# span 1 =     -0.403,      0.286       
# span 2 =     4.1211,    11.1073       
# span 3 =     37.682,    119.101       
# span 4 =      1.729,     39.861       
# span 5 =   1.505311,  30.003962       
# span 6 =    -2.0495,    15.1404       
# span 7 =      7.041,      9.812       
# span 8 =  -399.5000,   423.3094       
# span 9 = 6.1856e-01, 2.0260e+03       
# span 10 =    -6.1680,   124.5875      
# span 11 =     -0.663,      5.807      
# span 12 =     -0.962,      8.422      
# span 13 =     9.9218,    21.8493      
# span 14 = 0.0000e+00, 0.0000e+00      
# interval = seconds: 0.25
# start_time = May 19 2025 13:49:24 [Instrument's time stamp, header]
# bad_flag = -9.990e-29
# <Sensors count="9" >
#   <sensor Channel="1" >
#     <!-- Count, Temperature -->
#     <TemperatureSensor SensorID="58" >
#       <SerialNumber>7809</SerialNumber>
#       <CalibrationDate>31-Jan-23</CalibrationDate>
#       <A0>1.21823180e-003</A0>
#       <A1>2.81508993e-004</A1>
#       <A2>-1.57888696e-006</A2>
#       <A3>1.97234302e-007</A3>
#       <Slope>1.00000000</Slope>
#       <Offset>0.0000</Offset>
#     </TemperatureSensor>
#   </sensor>
#   <sensor Channel="2" >
#     <!-- Frequency 0, Conductivity -->
#     <ConductivitySensor SensorID="3" >
#       <SerialNumber>7809</SerialNumber>
#       <CalibrationDate>31-Jan-23</CalibrationDate>
#       <UseG_J>1</UseG_J>
#       <!-- Cell const and series R are applicable only for wide range sensors. -->
#       <SeriesR>0.0000</SeriesR>
#       <CellConst>2000.0000</CellConst>
#       <ConductivityType>0</ConductivityType>
#       <Coefficients equation="0" >
#         <A>0.00000000e+000</A>
#         <B>0.00000000e+000</B>
#         <C>0.00000000e+000</C>
#         <D>0.00000000e+000</D>
#         <M>0.0</M>
#         <CPcor>-9.57000000e-008</CPcor>
#       </Coefficients>
#       <Coefficients equation="1" >
#         <G>-1.00565232e+000</G>
#         <H>1.26796307e-001</H>
#         <I>-1.56170788e-004</I>
#         <J>2.64594368e-005</J>
#         <CPcor>-9.57000000e-008</CPcor>
#         <CTcor>3.2500e-006</CTcor>
#         <!-- WBOTC not applicable unless ConductivityType = 1. -->
#         <WBOTC>0.00000000e+000</WBOTC>
#       </Coefficients>
#       <Slope>1.00000000</Slope>
#       <Offset>0.00000</Offset>
#     </ConductivitySensor>
#   </sensor>
#   <sensor Channel="3" >
#     <!-- Count, Pressure, Strain Gauge -->
#     <PressureSensor SensorID="46" >
#       <SerialNumber>7809</SerialNumber>
#       <CalibrationDate>20-Jan-23</CalibrationDate>
#       <PA0>4.41643944e-002</PA0>
#       <PA1>4.85050239e-004</PA1>
#       <PA2>-3.09042623e-012</PA2>
#       <PTEMPA0>-5.47081996e+001</PTEMPA0>
#       <PTEMPA1>5.48542136e+001</PTEMPA1>
#       <PTEMPA2>-3.44657813e-001</PTEMPA2>
#       <PTCA0>5.25475731e+005</PTCA0>
#       <PTCA1>1.05025484e+001</PTCA1>
#       <PTCA2>-2.92243463e-001</PTCA2>
#       <PTCB0>2.51668750e+001</PTCB0>
#       <PTCB1>3.75000000e-004</PTCB1>
#       <PTCB2>0.00000000e+000</PTCB2>
#       <Offset>0.000000</Offset>
#     </PressureSensor>
#   </sensor>
#   <sensor Channel="4" >
#     <!-- A/D voltage 0, Oxygen, SBE 43 -->
#     <OxygenSensor SensorID="38" >
#       <SerialNumber>0434</SerialNumber>
#       <CalibrationDate>18-Feb-23</CalibrationDate>
#       <Use2007Equation>1</Use2007Equation>
#       <CalibrationCoefficients equation="0" >
#         <!-- Coefficients for Owens-Millard equation. -->
#         <Boc>0.0000</Boc>
#         <Soc>0.0000e+000</Soc>
#         <offset>0.0000</offset>
#         <Pcor>0.00e+000</Pcor>
#         <Tcor>0.0000</Tcor>
#         <Tau>0.0</Tau>
#       </CalibrationCoefficients>
#       <CalibrationCoefficients equation="1" >
#         <!-- Coefficients for Sea-Bird equation - SBE calibration in 2007 and later. -->
#         <Soc>5.1878e-001</Soc>
#         <offset>-0.5046</offset>
#         <A>-4.2788e-003</A>
#         <B> 1.5372e-004</B>
#         <C>-2.1853e-006</C>
#         <D0> 2.5826e+000</D0>
#         <D1> 1.92634e-004</D1>
#         <D2>-4.64803e-002</D2>
#         <E> 3.6000e-002</E>
#         <Tau20> 0.9900</Tau20>
#         <H1>-3.3000e-002</H1>
#         <H2> 5.0000e+003</H2>
#         <H3> 1.4500e+003</H3>
#       </CalibrationCoefficients>
#     </OxygenSensor>
#   </sensor>
#   <sensor Channel="5" >
#     <!-- A/D voltage 1, PAR/Logarithmic, Satlantic -->
#     <PARLog_SatlanticSensor SensorID="76" >
#       <SerialNumber>1122</SerialNumber>
#       <CalibrationDate>08-Sep-2021</CalibrationDate>
#       <a0>9.6751e-001</a0>
#       <a1>8.0992e-001</a1>
#       <Im>1.3589e+000</Im>
#       <Multiplier>1.0000e+000</Multiplier>
#     </PARLog_SatlanticSensor>
#   </sensor>
#   <sensor Channel="6" >
#     <!-- A/D voltage 2, pH -->
#     <pH_Sensor SensorID="43" >
#       <SerialNumber>0363</SerialNumber>
#       <CalibrationDate>28-Feb-23</CalibrationDate>
#       <Slope>4.7364</Slope>
#       <Offset>2.5433</Offset>
#     </pH_Sensor>
#   </sensor>
#   <sensor Channel="7" >
#     <!-- A/D voltage 3, Oxidation Reduction Potential -->
#     <OxidationReductionPotentialSensor SensorID="41" >
#       <SerialNumber>0363</SerialNumber>
#       <CalibrationDate>28-Feb-23</CalibrationDate>
#       <B>2.499480</B>
#       <M>-0.496195</M>
#       <Offset>0.0</Offset>
#     </OxidationReductionPotentialSensor>
#   </sensor>
#   <sensor Channel="8" >
#     <!-- A/D voltage 4, Fluorometer, WET Labs ECO-AFL/FL -->
#     <FluoroWetlabECO_AFL_FL_Sensor SensorID="20" >
#       <SerialNumber>FLNTURT-2496</SerialNumber>
#       <CalibrationDate>02-Sep-2021</CalibrationDate>
#       <ScaleFactor>4.80000000e+001</ScaleFactor>
#       <!-- Dark output -->
#       <Vblank>0.0550</Vblank>
#     </FluoroWetlabECO_AFL_FL_Sensor>
#   </sensor>
#   <sensor Channel="9" >
#     <!-- A/D voltage 5, Turbidity Meter, WET Labs, ECO-NTU -->
#     <TurbidityMeter SensorID="67" >
#       <SerialNumber>FLNTURT--2496</SerialNumber>
#       <CalibrationDate>02-Sep-2021</CalibrationDate>
#       <ScaleFactor>197.000000</ScaleFactor>
#       <!-- Dark output -->
#       <DarkVoltage>0.070000</DarkVoltage>
#     </TurbidityMeter>
#   </sensor>
# </Sensors>
# datcnv_date = May 27 2025 15:57:48, 7.26.7.129 [datcnv_vars = 14]
# datcnv_in = C:\R\Reservoirs\Data\DataNotYetUploadedToEDI\Raw_CTD\RawDownloads\051925_fcr40_S7809005.hex C:\R\Reservoirs\Data\DataNotYetUploadedToEDI\Raw_CTD\RawDownloads\SBE19plusV2_7809_start20230701.xmlcon
# datcnv_skipover = 0
# datcnv_ox_hysteresis_correction = yes
# datcnv_ox_tau_correction = yes
# filter_date = May 27 2025 16:00:53, 7.26.7.129
# filter_in = C:\R\Reservoirs\Data\DataNotYetUploadedToEDI\Raw_CTD\RawDownloads\051925_fcr40_S7809005.cnv
# filter_low_pass_tc_A = 0.030
# filter_low_pass_tc_B = 0.150
# filter_low_pass_A_vars = sbeox0Mg/L prdM prdE tv290C
# filter_low_pass_B_vars = depFM dz/dtM sbeox0PS specc c0uS/cm flECO-AFL ph orp par/sat/log turbWETntu0
# alignctd_date = May 27 2025 16:01:26, 7.26.7.129
# alignctd_in = C:\R\Reservoirs\Data\DataNotYetUploadedToEDI\Raw_CTD\RawDownloads\051925_fcr40_S7809005.cnv
# alignctd_adv = dz/dtM 1.000, sbeox0PS 1.000, specc 1.000, c0uS/cm 1.000, flECO-AFL 1.000, ph 1.000, orp 1.000, turbWETntu0 1.000                                                                                                   
# file_type = ascii
*END*
     -0.672 -1.723e-16     8.4595     90.353      4.521   3.937493    -0.0248      7.817   -60.7471 1.5638e+02    -0.0691     -0.659     -0.956    18.5349 0.0000e+00
     -0.672 -1.896e-15     8.4559     90.371      3.996   3.480575    -0.0257      7.857   -55.0133 1.4988e+02    -0.1312     -0.659     -0.956    18.5337 0.0000e+00
     -0.672 -2.086e-14     8.4577     90.421      3.511   3.058038    -0.0482      7.881   -42.7791 1.3867e+02    -0.1581     -0.659     -0.955    18.5335 0.0000e+00
     -0.672 -2.294e-13     8.4606     90.481      3.165   2.756204    -0.0553      7.875   -24.5035 1.2790e+02    -0.1213     -0.659     -0.956    18.5356 0.0000e+00
     -0.672 -2.524e-12     8.4591     90.511      2.934   2.555044    -0.0359      7.851    -9.3930 1.2343e+02    -0.0612     -0.659     -0.956    18.5382 0.0000e+00
     -0.672 -2.776e-11     8.4598     90.517      2.756   2.399510    -0.0305      7.836     3.0329 1.2453e+02    -0.0804     -0.659     -0.956    18.5401 0.0000e+00
     -0.672 -3.054e-10     8.4646     90.529      2.606   2.269256    -0.0485      7.838    21.8874 1.2506e+02    -0.1486     -0.659     -0.956    18.5417 0.0000e+00
     -0.672 -3.359e-09     8.4726     90.544      2.507   2.183705    -0.0533      7.847    52.1752 1.2240e+02    -0.1337     -0.659     -0.956    18.5432 0.0000e+00
     -0.672 -3.695e-08     8.4745     90.558      2.440   2.125251    -0.0391      7.858    79.4599 1.1966e+02    -0.1056     -0.659     -0.955    18.5443 0.0000e+00
     -0.672 -4.064e-07     8.4730     90.559      2.376   2.069248    -0.0427      7.868    98.1414 1.1921e+02    -0.1501     -0.658     -0.955    18.5449 0.0000e+00
     -0.672     -0.000     8.4753     90.546      2.311   2.013332    -0.0632      7.871   115.0065 1.2156e+02    -0.1599     -0.659     -0.955    18.5452 0.0000e+00
     -0.672     -0.000     8.4763     90.538      2.246   1.955931    -0.0630      7.877   112.6730 1.2642e+02    -0.0870     -0.659     -0.956    18.5451 0.0000e+00
     -0.672     -0.001     8.4781     90.548      2.161   1.881961    -0.0492      7.858    98.8364 1.3192e+02    -0.0888     -0.659     -0.956    18.5450 0.0000e+00
     -0.672     -0.001     8.4789     90.557      2.085   1.815752    -0.0542      7.787   108.7747 1.3643e+02    -0.1826     -0.659     -0.956    18.5446 0.0000e+00
     -0.672     -0.000     8.4764     90.547      2.054   1.788833    -0.0557      7.695   131.6535 1.4017e+02    -0.1615     -0.659     -0.956    18.5440 0.0000e+00
     -0.672 -1.511e-08     8.4754     90.556      2.005   1.746513    -0.0428      7.590   -43.5482 1.4442e+02     0.0639     -0.659     -0.956    18.5433 0.0000e+00
     -0.673 -1.663e-07     8.4770     90.587      1.934   1.684123    -0.0486      7.437  -386.4437 1.4915e+02     0.3567     -0.660     -0.957    18.5427 0.0000e+00
     -0.673 2.0322e-07     8.4798     90.593      1.916   1.667908    -0.0586      7.255  -399.5000 1.5788e+02     0.5436     -0.660     -0.957    18.5420 0.0000e+00
     -0.673      0.000     8.4766     90.587      1.926   1.677138    -0.0481      7.154  -144.2805 1.7754e+02     0.6836     -0.660     -0.957    18.5414 0.0000e+00
     -0.672      0.000     8.4762     90.588      1.916   1.669039    -0.0457      7.120    26.9280 2.0039e+02     1.2304     -0.659     -0.956    18.5407 0.0000e+00
     -0.672      0.001     8.4837     90.573      1.875   1.633336    -0.0798      7.051   192.0690 2.1095e+02     2.0640     -0.659     -0.956    18.5397 0.0000e+00
     -0.672      0.001     8.4823     90.542      1.794   1.562167    -0.1185      7.041   322.9914 2.1546e+02     2.4281     -0.658     -0.955    18.5387 0.0000e+00
     -0.672      0.000     8.4803     90.503      1.729   1.505311    -0.1150      7.143   369.9870 2.1748e+02     2.4561     -0.659     -0.956    18.5385 0.0000e+00
     -0.672 1.8476e-08     8.4832     90.458      1.741   1.515973    -0.0873      7.242   404.6023 1.9856e+02     2.5052     -0.659     -0.955    18.5386 0.0000e+00
     -0.672 2.0324e-07     8.4807     90.428      1.941   1.691076    -0.0493      7.272   422.8325 1.5907e+02     1.8596     -0.658     -0.955    18.5385 0.0000e+00
     -0.672 2.0354e-07     8.4771     90.409      2.340   2.038891     0.0109      7.262   419.8778 1.2388e+02     0.5939     -0.659     -0.954    18.5404 0.0000e+00
     -0.672 2.2083e-08     8.4733     90.380      2.714   2.364175     0.0492      7.259   411.2945 1.2202e+02    -0.0225     -0.660     -0.956    18.5449 0.0000e+00
     -0.672 4.1385e-08     8.4667     90.365      2.894   2.520196     0.0395      7.254   410.8561 2.4634e+02    -0.0934     -0.659     -0.957    18.5500 0.0000e+00
     -0.672 4.3692e-07     8.4635     90.389      2.834   2.468387    -0.1228      7.234   417.8475 5.3445e+02    -0.1954     -0.659     -0.956    18.5515 0.0000e+00
     -0.672      0.000     8.4639     90.418      2.650   2.307864    -0.4063      7.206   422.5209 8.2955e+02    -0.1623     -0.659     -0.956    18.5517 0.0000e+00
     -0.672      0.000     8.4598     90.428      2.556   2.226298    -0.5413      7.165   423.3094 1.0005e+03    -0.0689     -0.659     -0.956    18.5492 0.0000e+00
     -0.672      0.001     8.4569     90.463      2.936   2.559042    -0.5484      7.140   419.4656 1.0044e+03    -0.1589     -0.659     -0.956    18.5495 0.0000e+00
     -0.672      0.006     8.4618     90.551      7.527   6.584422    -0.4511      7.254   369.8509 8.9969e+02    -0.7723     -0.660     -0.957    18.5447 0.0000e+00
     -0.672      0.025     8.4660     90.601     18.843  16.614687    -0.2224      7.531   260.5024 9.0899e+02    -1.7126     -0.659     -0.956    18.5480 0.0000e+00
     -0.672      0.059     8.4652     90.473     29.356  26.164097    -0.0714      7.817   177.9952 1.1038e+03    -2.1685     -0.658     -0.954    18.5381 0.0000e+00
     -0.669      0.101     8.4663     90.333     32.879  29.678701    -0.0069      8.007   154.4467 1.3268e+03    -2.0830     -0.660     -0.957    18.5500 0.0000e+00
     -0.649      0.149     8.4784     90.357     32.845  30.003962     0.3326      8.121   137.1891 1.5343e+03    -0.4060     -0.653     -0.947    18.5272 0.0000e+00
     -0.594      0.198     8.4644     90.427     32.495  29.970423     0.9453      8.202   124.5488 1.7686e+03     2.8395     -0.592     -0.859    18.7079 0.0000e+00
     -0.518      0.243     8.3210     90.592     32.113  29.844453     1.2999      8.272   124.0481 1.9601e+03     4.7062     -0.503     -0.729    19.4302 0.0000e+00
     -0.443      0.275     8.1695     90.924     31.848  29.749801     1.3499      8.343   124.4251 2.0260e+03     4.9137     -0.437     -0.633    20.1847 0.0000e+00
     -0.368      0.286     8.1064     91.417     31.803  29.777663     1.3496      8.414   125.7510 2.0099e+03     4.8702     -0.365     -0.528    20.7040 0.0000e+00
     -0.288      0.274     8.0329     92.028     31.880  29.864266     1.3884      8.477   133.1100 2.0231e+03     4.6923     -0.281     -0.407    21.1421 0.0000e+00
     -0.208      0.244     7.9906     92.586     31.886  29.845467     1.4937      8.530   151.1959 1.8013e+03     4.5390     -0.201     -0.292    21.5042 0.0000e+00
     -0.140      0.204     7.9833     93.021     31.836  29.740624     1.5658      8.579   169.2500 1.2866e+03     4.5538     -0.129     -0.187    21.7536 0.0000e+00
     -0.090      0.155     8.0103     93.403     31.841  29.674854     1.5778      8.623   176.0524 1.4455e+03     4.5642     -0.083     -0.120    21.8374 0.0000e+00
     -0.061      0.102     8.0724     93.731     31.906  29.684448     1.5812      8.660   175.6246 1.8754e+03     4.4598     -0.055     -0.080    21.8493 0.0000e+00
     -0.046      0.058     8.1279     93.973     31.977  29.729696     1.5903      8.690   165.7129 1.4860e+03     4.3168     -0.041     -0.060    21.8198 0.0000e+00
     -0.046      0.031     8.1774     94.070     31.961  29.714474     1.6122      8.715   147.4122 1.1687e+03     4.2695     -0.040     -0.058    21.7120 0.0000e+00
     -0.056      0.022     8.2343     93.998     31.858  29.627268     1.6466      8.739   136.9285 1.1902e+03     4.3656     -0.054     -0.079    21.5788 0.0000e+00
     -0.067      0.022     8.2776     93.925     31.781  29.563329     1.6401      8.763   135.3193 1.0422e+03     4.4543     -0.072     -0.104    21.4949 0.0000e+00
     -0.062      0.026     8.3030     93.921     31.792  29.575712     1.5907      8.785   134.8381 9.7990e+02     4.5222     -0.069     -0.101    21.4704 0.0000e+00
     -0.038      0.031     8.3172     93.889     31.877  29.650123     1.5657      8.805   134.8102 9.7848e+02     4.5715     -0.039     -0.057    21.4759 0.0000e+00
     -0.013      0.036     8.2963     93.824     31.944  29.701868     1.5718      8.821   134.6368 8.8983e+02     4.5716     -0.003     -0.005    21.4933 0.0000e+00
     -0.004      0.037     8.2852     93.769     31.952  29.693889     1.5896      8.834   134.0325 1.0276e+03     4.5237      0.000      0.001    21.5105 0.0000e+00
     -0.008      0.032     8.2918     93.787     31.956  29.680489     1.6054      8.846   133.4407 1.3510e+03     4.3687     -0.010     -0.014    21.5126 0.0000e+00
     -0.008      0.023     8.2887     94.222     31.957  29.666691     1.6132      8.857   132.9883 1.4054e+03     4.3028     -0.012     -0.017    21.5050 0.0000e+00
     -0.000      0.016     8.2818     95.266     31.955  29.653895     1.6249      8.867   132.6922 1.4086e+03     4.3761     -0.002     -0.003    21.4894 0.0000e+00
      0.011      0.013     8.2850     96.282     31.963  29.652619     1.6146      8.876   132.6999 1.7318e+03     4.3665      0.013      0.019    21.4624 0.0000e+00
      0.019      0.012     8.2788     96.577     31.972  29.651247     1.5722      8.886   132.9948 1.9661e+03     4.2547      0.021      0.032    21.4325 0.0000e+00
      0.019      0.009     8.3015     96.152     31.969  29.637296     1.5452      8.897   133.2463 1.7257e+03     4.1863      0.020      0.029    21.4085 0.0000e+00
      0.014      0.006     8.4283     95.217     31.950  29.610781     1.5538      8.907   133.3327 1.4236e+03     4.2566      0.013      0.019    21.3919 0.0000e+00
      0.012      0.004     8.5506     93.872     31.928  29.584371     1.5684      8.917   133.5224 1.3690e+03     4.3193      0.009      0.013    21.3803 0.0000e+00
      0.014      0.003     8.5685     92.212     31.918  29.571685     1.5716      8.927   133.7333 1.3705e+03     4.3298      0.012      0.017    21.3668 0.0000e+00
      0.019      0.004     8.5270     90.377     31.934  29.584246     1.5846      8.938   133.7314 1.3395e+03     4.4173      0.019      0.028    21.3481 0.0000e+00
      0.022      0.005     8.4454     88.584     31.962  29.609387     1.5998      8.949   133.6720 1.5331e+03     4.4888      0.023      0.034    21.3326 0.0000e+00
      0.023      0.004     8.3246     87.109     31.974  29.621938     1.6228      8.959   133.7037 1.7304e+03     4.5119      0.023      0.033    21.3245 0.0000e+00
      0.022      0.002     8.1743     86.076     31.957  29.609148     1.6958      8.969   133.7704 1.5759e+03     4.5594      0.021      0.031    21.3200 0.0000e+00
      0.021      0.000     8.0063     85.379     31.927  29.581603     1.7749      8.978   133.8769 1.3840e+03     4.5510      0.020      0.029    21.3150 0.0000e+00
      0.022      0.000     7.8375     84.863     31.886  29.542622     1.7889      8.987   134.1306 1.2380e+03     4.4775      0.021      0.030    21.3114 0.0000e+00
      0.022      0.001     7.7003     84.411     31.858  29.518403     1.7905      8.995   134.5148 1.1138e+03     4.4910      0.021      0.031    21.3166 0.0000e+00
      0.022      0.001     7.6149     83.965     31.881  29.542508     1.8191      9.003   134.9947 1.0832e+03     4.5435      0.021      0.031    21.3235 0.0000e+00
      0.022      0.001     7.5572     83.540     31.918  29.580345     1.8343      9.010   135.5445 1.1324e+03     4.4295      0.021      0.030    21.3222 0.0000e+00
      0.023      0.000     7.5160     83.170     31.929  29.595317     1.8250      9.018   136.0004 1.1988e+03     4.2747      0.023      0.034    21.3191 0.0000e+00
      0.024     -0.001     7.4778     82.841     31.925  29.596679     1.8070      9.026   136.2905 1.1844e+03     4.2770      0.024      0.035    21.3211 0.0000e+00
      0.023     -0.001     7.4365     82.509     31.919  29.596811     1.8401      9.035   136.4708 1.2148e+03     4.3545      0.023      0.033    21.3264 0.0000e+00
      0.022     -0.002     7.3963     82.175     31.913  29.596925     1.9089      9.044   136.6316 1.3832e+03     4.3589      0.021      0.030    21.3329 0.0000e+00
      0.020     -0.002     7.3624     81.839     31.907  29.598069     1.9238      9.051   136.8589 1.4407e+03     4.2959      0.019      0.028    21.3405 0.0000e+00
      0.020     -0.001     7.3357     81.505     31.914  29.610649     1.9117      9.058   137.1536 1.3930e+03     4.2755      0.019      0.028    21.3482 0.0000e+00
      0.020      0.000     7.3031     81.265     31.919  29.622182     1.9373      9.066   137.4418 1.4959e+03     4.3170      0.019      0.029    21.3564 0.0000e+00
      0.020      0.001     7.2729     81.273     31.901  29.610658     1.9842      9.074   137.7623 1.5251e+03     4.3878      0.020      0.030    21.3659 0.0000e+00
      0.020      0.002     7.2426     81.686     31.883  29.598180     1.9959      9.082   138.1034 1.4405e+03     4.3802      0.020      0.029    21.3764 0.0000e+00
      0.021      0.002     7.2078     82.560     31.880  29.598179     1.9709      9.090   138.3828 1.3749e+03     4.2583      0.020      0.029    21.3872 0.0000e+00
      0.022      0.002     7.1806     83.765     31.890  29.610656     1.9562      9.098   138.7310 1.2289e+03     4.1778      0.021      0.032    21.3968 0.0000e+00
      0.023      0.002     7.1747     85.123     31.900  29.622179     2.0098      9.107   139.1297 1.1924e+03     4.2277      0.023      0.034    21.4050 0.0000e+00
      0.023      0.001     7.2066     86.482     31.888  29.610646     2.1203      9.117   139.5037 1.2923e+03     4.3484      0.023      0.033    21.4120 0.0000e+00
      0.024      0.001     7.2896     87.659     31.878  29.598065     2.1762      9.127   139.8972 1.2720e+03     4.3739      0.024      0.034    21.4172 0.0000e+00
      0.024      0.001     7.4017     88.535     31.883  29.596921     2.1612      9.137   140.1882 1.1100e+03     4.2968      0.024      0.035    21.4216 0.0000e+00
      0.023      0.002     7.5236     89.081     31.892  29.596808     2.1547      9.147   140.3550 1.1306e+03     4.3385      0.023      0.033    21.4254 0.0000e+00
      0.023      0.003     7.6521     89.323     31.907  29.596686     2.1644      9.156   140.5369 1.3778e+03     4.4676      0.021      0.031    21.4244 0.0000e+00
      0.024      0.004     7.7600     89.347     31.925  29.595430     2.1708      9.165   140.8388 1.4298e+03     4.5262      0.023      0.033    21.4188 0.0000e+00
      0.026      0.004     7.8388     89.281     31.930  29.581593     2.1739      9.174   141.1665 1.3148e+03     4.5683      0.025      0.038    21.4124 0.0000e+00
      0.028      0.004     7.8887     89.230     31.922  29.556213     2.1769      9.182   141.4014 1.3474e+03     4.6358      0.027      0.041    21.3987 0.0000e+00
      0.030      0.003     7.9110     89.269     31.923  29.542261     2.1987      9.190   141.5279 1.5256e+03     4.6933      0.029      0.043    21.3766 0.0000e+00
      0.030      0.001     7.9123     89.390     31.933  29.539747     2.2214      9.199   141.6641 1.5440e+03     4.6484      0.029      0.043    21.3489 0.0000e+00
      0.029      0.000     7.9090     89.505     31.933  29.525794     2.2259      9.207   141.9300 1.4095e+03     4.5368      0.029      0.042    21.3161 0.0000e+00
      0.028      0.000     7.9063     89.552     31.921  29.500398     2.2284      9.215   142.1615 1.3456e+03     4.5398      0.027      0.040    21.2855 0.0000e+00
      0.027      0.001     7.9122     89.496     31.921  29.486388     2.2351      9.224   142.3981 1.1936e+03     4.6166      0.025      0.036    21.2648 0.0000e+00
      0.027      0.002     7.9312     89.332     31.933  29.483245     2.2403      9.233   142.6397 1.0354e+03     4.6450      0.026      0.037    21.2477 0.0000e+00
      0.029      0.003     7.9447     89.132     31.927  29.462374     2.2331      9.240   142.7596 1.0068e+03     4.6097      0.028      0.041    21.2258 0.0000e+00
      0.031      0.004     7.9546     88.992     31.901  29.424313     2.2148      9.249   142.9008 1.0237e+03     4.5659      0.030      0.044    21.2024 0.0000e+00
      0.032      0.004     7.9532     88.942     31.891  29.403606     2.2185      9.257   143.0573 1.1536e+03     4.6276      0.032      0.046    21.1810 0.0000e+00
      0.032      0.004     7.9398     88.929     31.901  29.402282     2.2450      9.264   143.1026 1.3042e+03     4.7062      0.031      0.046    21.1586 0.0000e+00
      0.033      0.004     7.9218     88.889     31.921  29.408288     2.2517      9.271   143.2764 1.3612e+03     4.6971      0.031      0.046    21.1334 0.0000e+00
      0.034      0.004     7.9116     88.770     31.941  29.412782     2.2330      9.279   143.6958 1.4407e+03     4.6196      0.033      0.048    21.1108 0.0000e+00
      0.034      0.003     7.9126     88.526     31.936  29.393166     2.2095      9.287   143.9583 1.4368e+03     4.5215      0.034      0.049    21.0936 0.0000e+00
      0.035      0.002     7.9159     88.188     31.916  29.361386     2.2104      9.296   143.9539 1.1267e+03     4.5356      0.035      0.050    21.0782 0.0000e+00
      0.037      0.002     7.9160     87.810     31.911  29.345656     2.2350      9.303   144.0732 8.5981e+02     4.6186      0.037      0.053    21.0599 0.0000e+00
      0.038      0.002     7.9117     87.388     31.906  29.329822     2.2397      9.309   144.4542 1.0159e+03     4.6027      0.037      0.054    21.0370 0.0000e+00
      0.037      0.001     7.8926     86.939     31.881  29.296784     2.2179      9.317   144.8611 1.3908e+03     4.5150      0.036      0.052    21.0131 0.0000e+00
      0.036      0.001     7.8615     86.453     31.851  29.263331     2.1959      9.324   145.1216 1.5670e+03     4.5143      0.034      0.050    20.9925 0.0000e+00
      0.037      0.001     7.8339     85.895     31.832  29.242478     2.1983      9.330   145.1950 1.6284e+03     4.5947      0.036      0.052    20.9745 0.0000e+00
      0.038      0.001     7.7963     85.282     31.825  29.234929     2.2227      9.336   145.1465 1.7308e+03     4.5990      0.038      0.055    20.9571 0.0000e+00
      0.038      0.002     7.7588     84.585     31.826  29.235485     2.2244      9.343   144.9645 1.6193e+03     4.4978      0.037      0.053    20.9414 0.0000e+00
      0.038      0.002     7.7206     83.775     31.842  29.249209     2.2101      9.350   144.7158 1.4648e+03     4.4648      0.037      0.054    20.9303 0.0000e+00
      0.039      0.002     7.6678     82.894     31.872  29.274003     2.2170      9.356   144.5478 1.4331e+03     4.5746      0.038      0.056    20.9268 0.0000e+00
      0.039      0.002     7.6152     81.926     31.882  29.281551     2.2324      9.363   144.4819 1.4237e+03     4.6982      0.038      0.055    20.9262 0.0000e+00
      0.040      0.002     7.5561     80.930     31.878  29.277032     2.2305      9.370   144.5217 1.4165e+03     4.6955      0.039      0.056    20.9259 0.0000e+00
      0.041      0.002     7.4785     80.045     31.882  29.282799     2.2106      9.377   144.5985 1.3484e+03     4.5760      0.040      0.058    20.9249 0.0000e+00
      0.041      0.003     7.4044     79.312     31.883  29.287856     2.2075      9.385   144.7225 1.2486e+03     4.5517      0.040      0.059    20.9198 0.0000e+00
      0.041      0.004     7.3171     78.734     31.863  29.274746     2.2261      9.392   144.9034 1.1824e+03     4.6404      0.040      0.059    20.9159 0.0000e+00
      0.042      0.004     7.2202     78.297     31.833  29.251152     2.2286      9.398   145.0646 1.1531e+03     4.6242      0.041      0.059    20.9149 0.0000e+00
      0.043      0.005     7.1424     77.911     31.838  29.256303     2.2126      9.403   145.1221 1.1625e+03     4.5267      0.041      0.060    20.9176 0.0000e+00
      0.045      0.005     7.0748     77.476     31.857  29.273603     2.2066      9.409   145.0824 1.2333e+03     4.5199      0.043      0.064    20.9267 0.0000e+00
      0.047      0.005     7.0221     76.996     31.855  29.270030     2.2152      9.415   145.1010 1.3183e+03     4.5769      0.046      0.067    20.9353 0.0000e+00
      0.049      0.004     6.9851     76.487     31.866  29.276531     2.2166      9.421   145.1749 1.3109e+03     4.5667      0.048      0.070    20.9397 0.0000e+00
      0.050      0.003     6.9560     75.912     31.881  29.288773     2.2069      9.427   145.2020 1.2861e+03     4.4988      0.049      0.071    20.9419 0.0000e+00
      0.050      0.002     6.9152     75.283     31.885  29.291185     2.2149      9.432   145.3426 1.3090e+03     4.5072      0.049      0.071    20.9422 0.0000e+00
      0.050      0.002     6.8711     74.647     31.900  29.305696     2.2374      9.437   145.5844 1.2788e+03     4.5998      0.050      0.072    20.9383 0.0000e+00
      0.050      0.003     6.8305     74.040     31.933  29.337367     2.2461      9.442   145.7161 1.2359e+03     4.6624      0.049      0.071    20.9313 0.0000e+00
      0.050      0.003     6.7776     73.510     31.948  29.356973     2.2206      9.447   145.8176 1.2648e+03     4.6145      0.048      0.070    20.9283 0.0000e+00
      0.051      0.003     6.7202     73.125     31.935  29.352464     2.1704      9.452   145.9503 1.2696e+03     4.4985      0.050      0.072    20.9279 0.0000e+00
      0.054      0.003     6.6624     72.921     31.920  29.346293     2.1547      9.456   146.1166 1.2068e+03     4.4902      0.054      0.077    20.9268 0.0000e+00
      0.055      0.003     6.6072     72.883     31.913  29.345808     2.1720      9.460   146.2787 1.1523e+03     4.5825      0.056      0.081    20.9288 0.0000e+00
      0.055      0.003     6.5555     72.974     31.907  29.346598     2.1550      9.462   146.4482 1.1031e+03     4.5218      0.055      0.079    20.9376 0.0000e+00
      0.055      0.002     6.5181     73.124     31.909  29.355846     2.1068      9.464   146.7022 1.1033e+03     4.3021      0.054      0.078    20.9524 0.0000e+00
      0.056      0.001     6.4992     73.255     31.942  29.394207     2.0806      9.467   146.9414 1.1178e+03     4.1810      0.055      0.080    20.9653 0.0000e+00
      0.058      0.001     6.4959     73.357     31.974  29.429852     2.0885      9.470   147.1033 1.1402e+03     4.2533      0.057      0.082    20.9730 0.0000e+00
      0.058      0.001     6.5046     73.430     31.944  29.406267     2.1105      9.472   147.1978 1.3051e+03     4.3901      0.057      0.082    20.9812 0.0000e+00
      0.057      0.001     6.5207     73.477     31.894  29.362762     2.1062      9.475   147.2228 1.4316e+03     4.4354      0.056      0.081    20.9943 0.0000e+00
      0.057      0.001     6.5294     73.526     31.875  29.347842     2.0774      9.478   147.2340 1.3339e+03     4.4245      0.055      0.080    21.0090 0.0000e+00
      0.057      0.001     6.5367     73.537     31.880  29.352733     2.0706      9.482   147.3329 1.2194e+03     4.4296      0.056      0.081    21.0181 0.0000e+00
      0.058      0.001     6.5451     73.513     31.887  29.358476     2.0908      9.484   147.4716 1.2468e+03     4.4976      0.057      0.082    21.0232 0.0000e+00
      0.058      0.001     6.5435     73.508     31.885  29.353842     2.1134      9.488   147.6206 1.3327e+03     4.5970      0.057      0.082    21.0276 0.0000e+00
      0.058      0.002     6.5527     73.543     31.896  29.360133     2.1185      9.491   147.7584 1.3463e+03     4.6064      0.057      0.083    21.0311 0.0000e+00
      0.059      0.003     6.5523     73.618     31.913  29.371109     2.1024      9.493   147.7607 1.3030e+03     4.5766      0.058      0.083    21.0325 0.0000e+00
      0.059      0.004     6.5474     73.696     31.908  29.359681     2.0773      9.497   147.8204 1.2744e+03     4.5446      0.058      0.084    21.0312 0.0000e+00
      0.059      0.005     6.5485     73.741     31.903  29.348812     2.0644      9.500   148.0506 1.2684e+03     4.4936      0.058      0.084    21.0269 0.0000e+00
      0.060      0.006     6.5504     73.738     31.928  29.366540     2.0720      9.502   148.2207 1.2993e+03     4.4715      0.059      0.085    21.0207 0.0000e+00
      0.063      0.007     6.5611     73.698     31.949  29.383735     2.0860      9.505   148.3280 1.3092e+03     4.4825      0.063      0.089    21.0130 0.0000e+00
      0.067      0.007     6.5697     73.635     31.933  29.366428     2.0915      9.509   148.4882 1.2995e+03     4.5243      0.066      0.095    21.0029 0.0000e+00
      0.069      0.008     6.5760     73.548     31.916  29.347571     2.0971      9.512   148.6084 1.3461e+03     4.6010      0.068      0.098    20.9913 0.0000e+00
      0.069      0.008     6.5761     73.443     31.919  29.346012     2.1036      9.515   148.6626 1.3799e+03     4.5902      0.068      0.098    20.9833 0.0000e+00
      0.070      0.008     6.5722     73.309     31.925  29.347572     2.0956      9.519   148.8001 1.3294e+03     4.4617      0.069      0.099    20.9802 0.0000e+00
      0.073      0.009     6.5678     73.148     31.949  29.366431     2.0826      9.523   148.9796 1.2884e+03     4.3797      0.071      0.103    20.9774 0.0000e+00
      0.076      0.010     6.5595     72.984     31.971  29.383739     2.0884      9.526   149.1120 1.2977e+03     4.4191      0.074      0.108    20.9715 0.0000e+00
      0.078      0.011     6.5522     72.807     31.957  29.366545     2.1073      9.527   149.2822 1.3201e+03     4.5276      0.077      0.111    20.9636 0.0000e+00
      0.080      0.011     6.5418     72.618     31.943  29.348822     2.1028      9.529   149.4893 1.3936e+03     4.5645      0.078      0.113    20.9566 0.0000e+00
      0.084      0.011     6.5253     72.447     31.959  29.359740     2.0840      9.531   149.6375 1.4531e+03     4.5236      0.082      0.118    20.9524 0.0000e+00
      0.088      0.011     6.5129     72.299     31.975  29.371690     2.0966      9.533   149.6977 1.4211e+03     4.5453      0.087      0.127    20.9497 0.0000e+00
      0.091      0.010     6.4977     72.171     31.973  29.366444     2.1217      9.534   149.7867 1.3836e+03     4.6225      0.090      0.131    20.9439 0.0000e+00
      0.092      0.008     6.4802     72.065     31.969  29.359742     2.1219      9.536   149.9389 1.3681e+03     4.7053      0.091      0.131    20.9340 0.0000e+00
      0.093      0.006     6.4665     71.987     31.965  29.354080     2.1067      9.537   150.0755 1.3589e+03     4.6918      0.092      0.133    20.9274 0.0000e+00
      0.095      0.004     6.4534     71.942     31.974  29.361411     2.1047      9.538   150.1484 1.3478e+03     4.5961      0.094      0.136    20.9236 0.0000e+00
      0.097      0.003     6.4427     71.905     32.001  29.384948     2.1225      9.539   150.2173 1.2941e+03     4.6072      0.095      0.138    20.9192 0.0000e+00
      0.097      0.003     6.4334     71.846     32.004  29.384948     2.1220      9.541   150.3921 1.2553e+03     4.6214      0.095      0.138    20.9146 0.0000e+00
      0.097      0.003     6.4268     71.766     31.981  29.361402     2.0983      9.542   150.5411 1.2928e+03     4.5293      0.095      0.137    20.9104 0.0000e+00
      0.097      0.003     6.4234     71.665     31.975  29.353977     2.0861      9.543   150.5565 1.3083e+03     4.4488      0.095      0.138    20.9091 0.0000e+00
      0.098      0.002     6.4226     71.542     31.980  29.358601     2.1073      9.543   150.5783 1.2766e+03     4.4340      0.096      0.140    20.9080 0.0000e+00
      0.100      0.002     6.4164     71.397     31.975  29.353875     2.1551      9.544   150.7180 1.3184e+03     4.4527      0.098      0.142    20.9038 0.0000e+00
      0.101      0.001     6.4106     71.220     31.984  29.360265     2.1727      9.546   150.8691 1.3523e+03     4.4013      0.099      0.144    20.8998 0.0000e+00
      0.101      0.001     6.4016     71.035     31.999  29.372431     2.1539      9.548   151.0285 1.2782e+03     4.2915      0.100      0.145    20.8971 0.0000e+00
      0.100      0.001     6.3902     70.858     32.005  29.374102     2.1441      9.549   151.2691 1.2871e+03     4.2868      0.098      0.143    20.8960 0.0000e+00
      0.100      0.001     6.3790     70.680     32.015  29.380472     2.1373      9.551   151.5412 1.3700e+03     4.3784      0.097      0.141    20.8960 0.0000e+00
      0.100      0.000     6.3611     70.467     32.024  29.386018     2.1216      9.551   151.8232 1.4574e+03     4.4426      0.097      0.141    20.8948 0.0000e+00
      0.101      0.000     6.3454     70.239     32.017  29.377728     2.1047      9.553   151.9255 1.5055e+03     4.4138      0.099      0.143    20.8912 0.0000e+00
      0.102      0.001     6.3296     70.059     31.982  29.343660     2.0998      9.555   151.9185 1.3880e+03     4.4407      0.100      0.145    20.8850 0.0000e+00
      0.102      0.002     6.3170     69.956     31.927  29.291245     2.1285      9.557   152.0815 1.2883e+03     4.5967      0.100      0.145    20.8793 0.0000e+00
      0.101      0.005     6.2978     69.989     31.894  29.251412     2.1691      9.559   152.2615 1.2513e+03     4.6604      0.099      0.143    20.8757 0.0000e+00
      0.101      0.007     6.2743     70.684     31.912  29.242614     2.1910      9.562   152.3748 1.2712e+03     4.6299      0.098      0.143    20.8729 0.0000e+00
      0.103      0.008     6.2586     73.335     31.957  29.248260     2.1851      9.565   152.5044 1.3367e+03     4.5693      0.100      0.144    20.8702 0.0000e+00
      0.108      0.008     6.2490     78.842     31.995  29.256201     2.1557      9.568   152.6247 1.2762e+03     4.5426      0.104      0.151    20.8694 0.0000e+00
      0.113      0.008     6.2455     86.493     32.030  29.275158     2.1523      9.571   152.7969 1.1786e+03     4.6143      0.113      0.163    20.8638 0.0000e+00
      0.116      0.008     6.2609     94.765     32.048  29.287173     2.1768      9.574   153.0374 1.1597e+03     4.5826      0.116      0.168    20.8205 0.0000e+00
      0.114      0.007     6.4612    102.433     32.036  29.274601     2.1782      9.579   153.2095 1.2573e+03     4.3984      0.112      0.162    20.7493 0.0000e+00
      0.113      0.006     6.9976    108.794     32.011  29.250016     2.1695      9.583   153.3290 1.3068e+03     4.3004      0.109      0.158    20.7044 0.0000e+00
      0.115      0.004     7.7423    113.530     32.006  29.243631     2.1796      9.586   153.4496 1.1542e+03     4.3881      0.112      0.162    20.6895 0.0000e+00
      0.119      0.004     8.5214    116.425     32.027  29.260825     2.1917      9.589   153.5487 1.0497e+03     4.4684      0.116      0.170    20.6864 0.0000e+00
      0.121      0.004     9.2315    117.405     32.038  29.267621     2.1820      9.593   153.6682 1.0748e+03     4.3831      0.119      0.173    20.6867 0.0000e+00
      0.121      0.004     9.8079    116.862     32.037  29.262365     2.1535      9.596   153.8611 1.1364e+03     4.2450      0.120      0.174    20.6839 0.0000e+00
      0.120      0.004    10.2404    115.533     32.038  29.260693     2.1477      9.598   154.0738 1.2319e+03     4.2325      0.118      0.172    20.6806 0.0000e+00
      0.120      0.004    10.5081    114.032     32.027  29.247402     2.1699      9.601   154.1754 1.2955e+03     4.3350      0.118      0.171    20.6769 0.0000e+00
      0.121      0.005    10.5840    112.669     32.009  29.228517     2.1806      9.604   154.4024 1.2115e+03     4.4249      0.117      0.170    20.6703 0.0000e+00
      0.123      0.006    10.5076    111.529     32.006  29.222637     2.1694      9.608   154.8391 1.0749e+03     4.3976      0.121      0.175    20.6642 0.0000e+00
      0.127      0.007    10.3706    110.647     32.028  29.239736     2.1507      9.610   155.1534 1.0993e+03     4.2780      0.125      0.182    20.6602 0.0000e+00
      0.129      0.007    10.2267    110.026     32.035  29.244970     2.1542      9.613   155.4487 1.1549e+03     4.2431      0.127      0.184    20.6569 0.0000e+00
      0.131      0.006    10.1047    109.583     32.010  29.222480     2.1781      9.617   156.0004 1.0952e+03     4.2829      0.129      0.186    20.6528 0.0000e+00
      0.131      0.006    10.0029    109.245     32.008  29.221535     2.1821      9.621   156.6624 1.0479e+03     4.2460      0.130      0.188    20.6464 0.0000e+00
      0.131      0.008     9.9224    108.979     32.020  29.233549     2.1686      9.625   157.1718 1.0690e+03     4.2418      0.129      0.187    20.6423 0.0000e+00
      0.132      0.012     9.8722    108.780     32.029  29.240881     2.1573      9.629   157.5138 1.1039e+03     4.3342      0.130      0.188    20.6408 0.0000e+00
      0.134      0.013     9.8338    108.646     32.039  29.246752     2.1538      9.634   157.8717 1.1473e+03     4.3736      0.131      0.190    20.6404 0.0000e+00
      0.140      0.012     9.8047    108.556     32.038  29.241110     2.1589      9.638   158.2300 1.2330e+03     4.3418      0.135      0.197    20.6419 0.0000e+00
      0.148      0.005     9.7798    108.479     32.036  29.236083     2.1525      9.641   158.4905 1.3503e+03     4.2914      0.145      0.212    20.6448 0.0000e+00
      0.154     -0.006     9.7618    108.369     32.050  29.249393     2.1508      9.646   158.7836 1.3434e+03     4.3101      0.153      0.224    20.6448 0.0000e+00
      0.154     -0.021     9.7526    108.260     32.072  29.275178     2.1639      9.650   158.8489 1.2457e+03     4.3971      0.154      0.223    20.6371 0.0000e+00
      0.146     -0.034     9.7458    108.197     32.083  29.294148     2.1534      9.653   158.6778 1.2763e+03     4.4559      0.147      0.213    20.6283 0.0000e+00
      0.130     -0.044     9.7436    108.136     32.067  29.288476     2.1153      9.654   158.8657 1.3128e+03     4.4396      0.130      0.189    20.6240 0.0000e+00
      0.109     -0.046     9.7318    108.036     32.042  29.270044     2.0772      9.656   159.3134 1.2176e+03     4.3373      0.105      0.152    20.6227 0.0000e+00
      0.091     -0.040     9.7171    107.926     32.033  29.261576     2.0754      9.658   159.6170 1.1906e+03     4.2780      0.084      0.123    20.6304 0.0000e+00
      0.081     -0.029     9.7114    107.880     32.021  29.249524     2.0931      9.659   159.7841 1.2234e+03     4.2694      0.078      0.112    20.6496 0.0000e+00
      0.079     -0.015     9.7038    107.922     32.023  29.251188     2.0662      9.662   159.9561 1.2263e+03     4.2325      0.075      0.109    20.6670 0.0000e+00
      0.080     -0.003     9.6933    108.016     32.056  29.281691     2.0252      9.664   160.0622 1.4681e+03     4.2418      0.077      0.111    20.6722 0.0000e+00
      0.084      0.006     9.6804    108.112     32.077  29.301190     2.0225      9.666   160.0342 1.6606e+03     4.2793      0.083      0.119    20.6690 0.0000e+00
      0.088      0.010     9.6756    108.167     32.072  29.296663     2.0419      9.668   160.1346 1.4139e+03     4.3105      0.086      0.125    20.6665 0.0000e+00
      0.090      0.011     9.6818    108.194     32.066  29.290382     2.0684      9.668   160.4148 1.2098e+03     4.3803      0.088      0.128    20.6676 0.0000e+00
      0.093      0.011     9.6904    108.226     32.065  29.288672     2.0840      9.669   160.6693 1.2261e+03     4.4394      0.091      0.132    20.6688 0.0000e+00
      0.095      0.010     9.7017    108.249     32.051  29.275987     2.0815      9.672   160.8890 1.2327e+03     4.4789      0.094      0.136    20.6694 0.0000e+00
      0.097      0.009     9.7056    108.233     32.039  29.263868     2.0878      9.673   161.0918 1.1583e+03     4.5507      0.096      0.139    20.6694 0.0000e+00
      0.100      0.007     9.7060    108.175     32.044  29.268995     2.1108      9.673   161.2278 1.1344e+03     4.5557      0.097      0.141    20.6683 0.0000e+00
      0.103      0.005     9.7108    108.119     32.049  29.274552     2.1263      9.673   161.4148 1.3991e+03     4.4030      0.101      0.146    20.6669 0.0000e+00
      0.104      0.004     9.7138    108.119     32.038  29.267634     2.1172      9.673   161.6324 1.6391e+03     4.2411      0.104      0.150    20.6656 0.0000e+00
      0.104      0.004     9.7130    108.184     32.013  29.248776     2.0999      9.674   161.7941 1.5030e+03     4.2374      0.103      0.148    20.6642 0.0000e+00
      0.102      0.005     9.7065    108.290     31.996  29.236838     2.1168      9.674   161.9934 1.4287e+03     4.3245      0.100      0.145    20.6637 0.0000e+00
      0.101      0.007     9.6984    108.388     32.008  29.250148     2.1463      9.674   162.1494 1.5214e+03     4.3384      0.098      0.142    20.6655 0.0000e+00
      0.104      0.007     9.6979    108.450     32.039  29.282854     2.1488      9.674   162.2177 1.3286e+03     4.2689      0.101      0.145    20.6711 0.0000e+00
      0.109      0.007     9.7027    108.518     32.065  29.315143     2.1476      9.674   162.3882 1.0675e+03     4.2346      0.107      0.154    20.6776 0.0000e+00
      0.115      0.006     9.7130    108.600     32.059  29.323422     2.1409      9.675   162.6628 1.0465e+03     4.2999      0.113      0.164    20.6832 0.0000e+00
      0.116      0.004     9.7231    108.670     32.041  29.319541     2.1264      9.675   162.8712 1.1774e+03     4.4099      0.116      0.168    20.6881 0.0000e+00
      0.114      0.002     9.7246    108.724     32.044  29.331670     2.1124      9.675   163.0150 1.4005e+03     4.4027      0.112      0.162    20.6911 0.0000e+00
      0.111      0.002     9.7288    108.736     32.050  29.343222     2.0888      9.677   163.1973 1.5293e+03     4.2811      0.108      0.157    20.7038 0.0000e+00
      0.110      0.003     9.7327    108.671     32.036  29.332363     2.0658      9.680   163.4405 1.4767e+03     4.2385      0.107      0.155    20.7292 0.0000e+00
      0.111      0.004     9.7341    108.531     32.033  29.327235     2.0167      9.682   163.6321 1.3686e+03     4.2974      0.108      0.156    20.7508 0.0000e+00
      0.115      0.005     9.7374    108.366     32.055  29.344649     1.9447      9.683   163.6206 1.2353e+03     4.3446      0.113      0.163    20.7643 0.0000e+00
      0.119      0.005     9.7381    108.216     32.067  29.352618     1.9022      9.685   163.3886 1.1418e+03     4.3306      0.118      0.172    20.7739 0.0000e+00
      0.121      0.004     9.7322    108.102     32.077  29.360162     1.8696      9.688   163.2355 1.1661e+03     4.2984      0.119      0.173    20.7778 0.0000e+00
      0.120      0.003     9.7179    108.046     32.090  29.372433     1.8502      9.691   163.4035 1.1781e+03     4.2968      0.117      0.170    20.7728 0.0000e+00
      0.118      0.001     9.7030    108.048     32.088  29.374125     1.8590      9.693   163.6134 1.1762e+03     4.2771      0.116      0.168    20.7662 0.0000e+00
      0.118      0.000     9.6904    108.085     32.089  29.380621     1.8676      9.694   163.6223 1.3362e+03     4.2315      0.116      0.168    20.7615 0.0000e+00
      0.119      0.000     9.6796    108.115     32.090  29.387549     1.8721      9.696   163.5972 1.4350e+03     4.2577      0.117      0.170    20.7583 0.0000e+00
      0.121      0.001     9.6746    108.108     32.090  29.394469     1.8796      9.698   163.7401 1.3008e+03     4.3883      0.118      0.172    20.7596 0.0000e+00
      0.121      0.002     9.6741    108.054     32.090  29.400867     1.8921      9.700   163.9731 1.1821e+03     4.5469      0.119      0.172    20.7658 0.0000e+00
      0.120      0.003     9.6773    107.980     32.083  29.401490     1.8812      9.702   164.1776 1.3548e+03     4.6040      0.118      0.171    20.7750 0.0000e+00
      0.120      0.003     9.6792    107.932     32.074  29.402010     1.8474      9.703   164.3196 1.6693e+03     4.5321      0.117      0.170    20.7849 0.0000e+00
      0.121      0.003     9.6771    107.919     32.073  29.407160     1.8334      9.704   164.3138 1.5877e+03     4.3953      0.118      0.171    20.7943 0.0000e+00
      0.123      0.003     9.6701    107.925     32.060  29.400345     1.8529      9.706   164.2793 1.2137e+03     4.3166      0.122      0.176    20.8029 0.0000e+00
      0.126      0.002     9.6585    107.950     32.037  29.383045     1.8838      9.708   164.2465 1.0505e+03     4.3653      0.124      0.180    20.8153 0.0000e+00
      0.126      0.002     9.6519    108.005     32.039  29.388287     1.8828      9.709   164.1765 1.0443e+03     4.4034      0.124      0.179    20.8297 0.0000e+00
      0.125      0.001     9.6490    108.061     32.049  29.400302     1.8654      9.711   164.2066 9.8843e+02     4.4357      0.123      0.178    20.8403 0.0000e+00
      0.123      0.001     9.6489    108.074     32.048  29.401460     1.8903      9.713   164.3523 9.6275e+02     4.5516      0.121      0.176    20.8476 0.0000e+00
      0.123      0.001     9.6482    108.044     32.048  29.402287     1.9336      9.715   164.5609 1.1217e+03     4.6092      0.120      0.175    20.8538 0.0000e+00
      0.124      0.001     9.6537    107.981     32.057  29.410302     1.9481      9.716   164.7507 1.4660e+03     4.5855      0.122      0.177    20.8595 0.0000e+00
      0.126      0.002     9.6601    107.924     32.084  29.434941     1.9407      9.718   164.9259 1.5667e+03     4.5387      0.124      0.179    20.8638 0.0000e+00
      0.126      0.002     9.6596    107.916     32.099  29.446475     1.9104      9.720   165.0450 1.3065e+03     4.4532      0.125      0.181    20.8664 0.0000e+00
      0.126      0.001     9.6573    107.951     32.074  29.422890     1.8815      9.722   165.0720 1.1687e+03     4.4050      0.124      0.180    20.8675 0.0000e+00
      0.126      0.000     9.6501    108.010     32.052  29.403498     1.8834      9.723   165.1655 1.2043e+03     4.3659      0.123      0.179    20.8682 0.0000e+00
      0.127      0.000     9.6428    108.100     32.049  29.402302     1.8827      9.724   165.2305 1.2031e+03     4.2884      0.125      0.181    20.8670 0.0000e+00
      0.127      0.000     9.6438    108.200     32.058  29.408432     1.8644      9.725   165.1693 1.2250e+03     4.2876      0.126      0.182    20.8633 0.0000e+00
      0.126      0.001     9.6487    108.273     32.068  29.414186     1.8537      9.726   165.1998 1.2551e+03     4.4241      0.124      0.180    20.8608 0.0000e+00
      0.126      0.002     9.6518    108.299     32.068  29.408434     1.8617      9.727   165.4273 1.1458e+03     4.5726      0.123      0.178    20.8635 0.0000e+00
      0.127      0.002     9.6608    108.289     32.066  29.402305     1.8607      9.727   165.7678 1.0313e+03     4.5808      0.123      0.179    20.8666 0.0000e+00
      0.128      0.003     9.6714    108.274     32.068  29.403500     1.8341      9.728   166.0482 1.0871e+03     4.4892      0.126      0.182    20.8642 0.0000e+00
      0.130      0.004     9.6799    108.273     32.087  29.422891     1.8146      9.728   166.2358 1.1934e+03     4.4895      0.128      0.185    20.8574 0.0000e+00
      0.131      0.004     9.6838    108.290     32.108  29.446475     1.8166      9.729   166.4873 1.2292e+03     4.6181      0.129      0.187    20.8473 0.0000e+00
      0.132      0.003     9.6832    108.307     32.093  29.434932     1.8236      9.731   166.6807 1.2153e+03     4.7118      0.129      0.188    20.8387 0.0000e+00
      0.132      0.002     9.6817    108.292     32.067  29.410189     1.8163      9.733   166.6805 1.2571e+03     4.6662      0.129      0.187    20.8372 0.0000e+00
      0.132      0.002     9.6799    108.242     32.061  29.401030     1.7950      9.733   166.6566 1.2905e+03     4.5794      0.130      0.188    20.8434 0.0000e+00
      0.133      0.001     9.6807    108.185     32.053  29.387612     1.7913      9.733   166.7362 1.1933e+03     4.5842      0.130      0.189    20.8519 0.0000e+00
      0.133      0.000     9.6830    108.147     32.047  29.374807     1.8047      9.733   166.8698 1.1665e+03     4.6221      0.131      0.190    20.8547 0.0000e+00
      0.133 2.3555e-08     9.6820    108.110     32.051  29.373058     1.7903      9.733   166.8958 1.1341e+03     4.5930      0.131      0.191    20.8537 0.0000e+00
      0.133 2.5910e-07     9.6773    108.076     32.048  29.366453     1.7510      9.735   166.7921 1.0180e+03     4.5403      0.130      0.188    20.8492 0.0000e+00
      0.132 6.1314e-07     9.6728    108.070     32.043  29.358381     1.7292      9.737   166.8205 9.7999e+02     4.5658      0.129      0.187    20.8375 0.0000e+00
      0.132      0.000     9.6731    108.054     32.026  29.338881     1.7350      9.737   167.0664 9.6317e+02     4.6623      0.130      0.188    20.8252 0.0000e+00
      0.133      0.000     9.6721    108.000     32.012  29.320958     1.7459      9.738   167.2702 9.8300e+02     4.6822      0.130      0.189    20.8171 0.0000e+00
      0.134      0.001     9.6671    107.960     32.029  29.331962     1.7357      9.741   167.3060 9.6043e+02     4.6015      0.132      0.191    20.8113 0.0000e+00
      0.134      0.001     9.6703    107.965     32.047  29.345062     1.7364      9.743   167.2403 9.3017e+02     4.5740      0.132      0.191    20.8068 0.0000e+00
      0.134      0.001     9.6717    108.006     32.059  29.352482     1.7547      9.745   167.1647 1.0357e+03     4.6231      0.131      0.191    20.8006 0.0000e+00
      0.133      0.001     9.6651    108.076     32.069  29.358249     1.7570      9.747   167.2527 1.1361e+03     4.6831      0.130      0.189    20.7920 0.0000e+00
      0.133      0.000     9.6625    108.143     32.064  29.351349     1.7391      9.747   167.4434 1.1049e+03     4.6510      0.131      0.190    20.7840 0.0000e+00
      0.134      0.000     9.6649    108.188     32.044  29.332484     1.7052      9.748   167.5781 1.0701e+03     4.5070      0.132      0.191    20.7777 0.0000e+00
      0.134      0.001     9.6687    108.209     32.029  29.320441     1.6881      9.750   167.7630 1.2828e+03     4.4790      0.132      0.191    20.7747 0.0000e+00
      0.134      0.002     9.6775    108.216     32.039  29.332598     1.6996      9.751   167.9573 1.7467e+03     4.5856      0.132      0.191    20.7697 0.0000e+00
      0.134      0.002     9.6857    108.215     32.056  29.352617     1.7019      9.750   168.0351 1.9231e+03     4.6354      0.131      0.190    20.7620 0.0000e+00
      0.135      0.001     9.6891    108.204     32.072  29.372210     1.6660      9.750   168.0148 1.4996e+03     4.6030      0.132      0.192    20.7617 0.0000e+00
      0.136      0.001     9.6903    108.204     32.077  29.379214     1.6235      9.750   168.0564 1.0580e+03     4.5355      0.133      0.193    20.7677 0.0000e+00
      0.137      0.001     9.6890    108.228     32.068  29.373878     1.6215      9.751   168.1943 9.8476e+02     4.5368      0.134      0.195    20.7718 0.0000e+00
      0.137      0.001     9.6891    108.271     32.062  29.371120     1.6493      9.752   168.3057 1.1771e+03     4.5838      0.135      0.196    20.7784 0.0000e+00
      0.136      0.001     9.6847    108.309     32.032  29.345871     1.6683      9.753   168.3706 1.2989e+03     4.5241      0.133      0.193    20.7873 0.0000e+00
      0.135      0.001     9.6837    108.310     32.005  29.322324     1.6691      9.755   168.3769 1.1296e+03     4.4973      0.132      0.191    20.7908 0.0000e+00
      0.136      0.001     9.6858    108.268     32.026  29.340138     1.6667      9.757   168.4679 1.0542e+03     4.5332      0.132      0.191    20.7932 0.0000e+00
      0.137      0.001     9.6890    108.198     32.063  29.370962     1.6649      9.758   168.6099 1.1659e+03     4.5141      0.135      0.196    20.7975 0.0000e+00
      0.138      0.002     9.6937    108.113     32.073  29.377863     1.6557      9.759   168.6305 1.2684e+03     4.5393      0.137      0.198    20.8026 0.0000e+00
      0.138      0.002     9.6923    108.005     32.053  29.360148     1.6377      9.759   168.7173 1.2482e+03     4.5645      0.136      0.198    20.8056 0.0000e+00
      0.138      0.001     9.6897    107.903     32.040  29.347057     1.6219      9.758   168.7996 1.0762e+03     4.5797      0.134      0.196    20.8020 0.0000e+00
      0.138      0.000     9.6828    107.875     32.044  29.346434     1.6152      9.757   168.7656 9.7312e+02     4.5874      0.134      0.195    20.7956 0.0000e+00
      0.139      0.000     9.6773    107.913     32.056  29.352616     1.6231      9.757   168.9078 9.4679e+02     4.5552      0.137      0.199    20.7929 0.0000e+00
      0.140      0.000     9.6668    107.980     32.066  29.358362     1.6336      9.757   169.1425 9.6642e+02     4.5660      0.139      0.201    20.7945 0.0000e+00
      0.138      0.001     9.6537    108.069     32.064  29.352482     1.6260      9.757   169.2799 1.0462e+03     4.5475      0.136      0.197    20.7929 0.0000e+00
      0.137      0.001     9.6538    108.147     32.060  29.344938     1.6227      9.758   169.3646 1.0484e+03     4.5365      0.133      0.193    20.7861 0.0000e+00
      0.138      0.001     9.6609    108.175     32.049  29.330570     1.6529      9.758   169.3915 1.0704e+03     4.6031      0.134      0.195    20.7784 0.0000e+00
      0.139      0.001     9.6669    108.180     32.027  29.305615     1.6834      9.758   169.3477 1.0861e+03     4.6008      0.137      0.198    20.7728 0.0000e+00
      0.140      0.001     9.6769    108.205     32.023  29.296918     1.6822      9.757   169.3508 9.7618e+02     4.5098      0.138      0.200    20.7685 0.0000e+00
      0.140      0.001     9.6877    108.252     32.020  29.288846     1.6806      9.757   169.5157 9.4484e+02     4.4583      0.138      0.200    20.7615 0.0000e+00
      0.140      0.000     9.6900    108.310     32.006  29.271433     1.6968      9.756   169.7074 1.1028e+03     4.5247      0.137      0.199    20.7531 0.0000e+00
      0.140 4.2827e-07     9.6895    108.348     32.014  29.276666     1.7123      9.756   169.6892 1.3267e+03     4.5956      0.137      0.199    20.7465 0.0000e+00
      0.139      0.000     9.6940    108.333     32.029  29.288688     1.7018      9.756   169.6390 1.3068e+03     4.5294      0.137      0.198    20.7394 0.0000e+00
      0.139      0.000     9.7000    108.309     32.030  29.289926     1.6692      9.756   169.7898 1.0456e+03     4.4763      0.136      0.198    20.7304 0.0000e+00
      0.140      0.001     9.7071    108.347     32.032  29.291637     1.6677      9.757   169.8778 8.8796e+02     4.4995      0.137      0.199    20.7226 0.0000e+00
      0.140      0.001     9.7144    108.431     32.052  29.309375     1.7010      9.758   169.9284 9.1556e+02     4.5033      0.137      0.199    20.7186 0.0000e+00
      0.140      0.001     9.7105    108.494     32.058  29.314094     1.7131      9.758   170.0574 1.0207e+03     4.4534      0.137      0.199    20.7176 0.0000e+00
      0.140      0.001     9.7049    108.500     32.027  29.285263     1.6976      9.758   170.1465 1.1111e+03     4.3399      0.137      0.199    20.7179 0.0000e+00
      0.141      0.001     9.7094    108.431     32.020  29.277928     1.6886      9.758   170.1451 1.2815e+03     4.3608      0.139      0.201    20.7179 0.0000e+00
      0.141      0.001     9.7205    108.310     32.032  29.288846     1.6951      9.758   170.0410 1.4698e+03     4.5363      0.139      0.202    20.7162 0.0000e+00
      0.141      0.001     9.7270    108.217     32.034  29.290406     1.6929      9.758   169.9201 1.3203e+03     4.5825      0.138      0.200    20.7149 0.0000e+00
      0.141      0.001     9.7281    108.188     32.042  29.296796     1.6877      9.758   169.9741 1.0446e+03     4.5100      0.138      0.201    20.7140 0.0000e+00
      0.142      0.001     9.7225    108.181     32.048  29.302674     1.6906      9.758   170.1775 9.9572e+02     4.4793      0.140      0.203    20.7137 0.0000e+00
      0.142      0.002     9.7073    108.184     32.043  29.298053     1.6940      9.758   170.2287 9.9006e+02     4.5193      0.141      0.204    20.7135 0.0000e+00
      0.142      0.002     9.6977    108.192     32.051  29.304344     1.7043      9.760   170.1630 1.0133e+03     4.6168      0.139      0.202    20.7123 0.0000e+00
      0.143      0.002     9.6983    108.200     32.064  29.315310     1.6983      9.761   170.1579 1.0944e+03     4.6339      0.139      0.202    20.7121 0.0000e+00
      0.145      0.002     9.6973    108.243     32.054  29.303788     1.6797      9.761   170.2527 1.1154e+03     4.5212      0.142      0.206    20.7121 0.0000e+00
      0.146      0.002     9.6974    108.293     32.044  29.291878     1.6875      9.760   170.4487 1.1253e+03     4.4495      0.144      0.208    20.7115 0.0000e+00
      0.146      0.002     9.7002    108.301     32.054  29.298168     1.7093      9.760   170.6339 1.1632e+03     4.4499      0.143      0.207    20.7108 0.0000e+00
      0.146      0.002     9.6977    108.282     32.077  29.316402     1.7183      9.760   170.7714 1.1791e+03     4.4235      0.142      0.206    20.7086 0.0000e+00
      0.146      0.001     9.7039    108.261     32.086  29.322056     1.7048      9.760   170.9069 1.1289e+03     4.3692      0.143      0.207    20.7053 0.0000e+00
      0.146      0.000     9.7125    108.261     32.067  29.303093     1.6881      9.760   170.9822 1.0771e+03     4.4422      0.143      0.207    20.7001 0.0000e+00
      0.147      0.000     9.7117    108.294     32.041  29.277410     1.7001      9.761   170.9933 1.1629e+03     4.6242      0.144      0.208    20.6955 0.0000e+00
      0.147      0.001     9.7107    108.333     32.027  29.265244     1.7152      9.761   171.0410 1.2395e+03     4.6219      0.145      0.210    20.6925 0.0000e+00
      0.146      0.002     9.7086    108.344     32.046  29.282855     1.7130      9.761   171.1293 1.1178e+03     4.5167      0.143      0.209    20.6883 0.0000e+00
      0.146      0.002     9.7084    108.323     32.065  29.300048     1.6985      9.761   171.1999 9.8439e+02     4.5132      0.142      0.206    20.6844 0.0000e+00
      0.147      0.001     9.7133    108.287     32.047  29.282835     1.6823      9.761   171.2925 9.7370e+02     4.5460      0.143      0.208    20.6825 0.0000e+00
      0.149      0.001     9.7177    108.245     32.027  29.265016     1.6917      9.761   171.3883 1.1355e+03     4.6058      0.146      0.213    20.6826 0.0000e+00
      0.150      0.001     9.7188    108.200     32.037  29.274893     1.7122      9.761   171.4116 1.2918e+03     4.6222      0.147      0.214    20.6840 0.0000e+00
      0.149      0.001     9.7158    108.170     32.037  29.275404     1.7217      9.761   171.4886 1.2168e+03     4.5395      0.146      0.212    20.6843 0.0000e+00
      0.148      0.001     9.7128    108.201     32.031  29.271196     1.7227      9.761   171.6306 1.0947e+03     4.4940      0.144      0.210    20.6826 0.0000e+00
      0.148      0.000     9.7091    108.291     32.049  29.287445     1.7336      9.761   171.7527 1.1212e+03     4.5500      0.144      0.209    20.6827 0.0000e+00
      0.150     -0.001     9.7048    108.370     32.043  29.281583     1.7611      9.761   171.9320 1.1198e+03     4.6359      0.147      0.213    20.6833 0.0000e+00
      0.151     -0.001     9.6999    108.425     32.023  29.263751     1.7651      9.761   172.0771 9.1999e+02     4.6102      0.149      0.216    20.6846 0.0000e+00
      0.150     -0.002     9.7005    108.453     32.020  29.262126     1.7400      9.761   172.1312 8.7105e+02     4.4441      0.148      0.214    20.6877 0.0000e+00
      0.148     -0.003     9.7141    108.416     32.019  29.261936     1.7400      9.762   172.2419 9.8423e+02     4.3359      0.145      0.211    20.6877 0.0000e+00
      0.146     -0.003     9.7200    108.338     32.019  29.261446     1.7658      9.762   172.3839 9.4049e+02     4.3600      0.143      0.208    20.6859 0.0000e+00
      0.144     -0.002     9.7242    108.237     32.015  29.256204     1.7765      9.761   172.4710 8.3336e+02     4.4289      0.141      0.205    20.6864 0.0000e+00
      0.144      0.000     9.7300    108.119     32.025  29.261980     1.7691      9.761   172.5203 8.0135e+02     4.4853      0.141      0.204    20.6890 0.0000e+00
      0.145      0.002     9.7234    108.039     32.035  29.267852     1.7517      9.761   172.5497 8.7660e+02     4.5292      0.142      0.206    20.6907 0.0000e+00
      0.147      0.003     9.7164    108.041     32.035  29.263767     1.7502      9.762   172.5684 9.2103e+02     4.6183      0.144      0.208    20.6901 0.0000e+00
      0.148      0.003     9.7086    108.088     32.051  29.276018     1.7663      9.763   172.5741 8.5616e+02     4.6744      0.145      0.211    20.6876 0.0000e+00
      0.150      0.002     9.6965    108.136     32.067  29.289118     1.7552      9.763   172.5332 8.8142e+02     4.5926      0.147      0.213    20.6820 0.0000e+00
      0.150      0.002     9.6883    108.202     32.075  29.295291     1.7243      9.764   172.5035 9.3664e+02     4.4839      0.148      0.214    20.6755 0.0000e+00
      0.149      0.002     9.6914    108.292     32.067  29.287230     1.7179      9.765   172.4735 1.0116e+03     4.4867      0.146      0.212    20.6694 0.0000e+00
      0.149      0.004     9.6994    108.389     32.032  29.255083     1.7444      9.766   172.4282 1.1301e+03     4.5581      0.145      0.210    20.6656 0.0000e+00
      0.149      0.008     9.7014    108.469     31.999  29.223752     1.7614      9.767   172.4726 1.0307e+03     4.5613      0.145      0.211    20.6642 0.0000e+00
      0.150      0.009     9.7081    108.511     32.004  29.225552     1.7403      9.769   172.4937 8.9642e+02     4.4918      0.147      0.213    20.6626 0.0000e+00
      0.153     -0.001     9.7170    108.526     32.065  29.276832     1.7309      9.770   173.3714 1.0038e+03     4.5033      0.148      0.215    20.6616 0.0000e+00
      0.160     -0.025     9.7262    108.517     32.131  29.336341     1.7474      9.773   184.7201 1.1703e+03     4.5982      0.155      0.225    20.6606 0.0000e+00
      0.168     -0.060     9.7354    108.482     32.162  29.374202     1.7731      9.775   195.4496 1.1565e+03     4.5807      0.169      0.246    20.6602 0.0000e+00
      0.161     -0.102     9.7381    108.429     32.186  29.417481     1.8011      9.777   186.6901 1.1420e+03     4.4277      0.171      0.247    20.6572 0.0000e+00
      0.124     -0.143     9.7420    108.433     32.225  29.479075     1.8024      9.778   176.7220 1.2117e+03     4.2852      0.131      0.190    20.6469 0.0000e+00
      0.064     -0.181     9.7422    108.548     32.269  29.548091     1.8059      9.779   174.6455 1.1597e+03     4.2585      0.063      0.091    20.6394 0.0000e+00
     -0.002     -0.209     9.7369    108.682     32.372  29.681120     1.8097      9.777   173.3708 1.2277e+03     4.3094     -0.003     -0.006    20.6539 0.0000e+00
     -0.063     -0.220     9.7224    108.782     32.512  29.882386     1.7157      9.774   173.2691 1.5569e+03     4.2858     -0.064     -0.093    20.6917 0.0000e+00
     -0.118     -0.212     9.7102    109.012     32.458  29.951886     1.5593      9.771   174.9643 1.8537e+03     4.2122     -0.117     -0.169    20.7339 0.0000e+00
     -0.173     -0.187     9.7180    109.417     32.196  29.823874     1.4832      9.767   182.5112 1.9613e+03     4.2053     -0.169     -0.246    20.7756 0.0000e+00
     -0.226     -0.147     9.7257    109.652     31.985  29.666821     1.4862      9.763   188.2005 1.9304e+03     4.3043     -0.225     -0.328    20.8218 0.0000e+00
     -0.270     -0.095     9.7089    109.426     31.930  29.575365     1.5128      9.761   184.6444 1.8662e+03     4.4191     -0.270     -0.393    20.9127 0.0000e+00
     -0.296     -0.032     9.6810    108.838     31.971  29.542619     1.5391      9.761   181.5874 1.8437e+03     4.4320     -0.297     -0.431    21.1314 0.0000e+00
     -0.300      0.033     9.6897    108.120     32.022  29.524508     1.5536      9.762   189.1823 1.8676e+03     4.4941     -0.305     -0.442    21.3682 0.0000e+00
     -0.276      0.093     9.7137    107.502     32.030  29.483157     1.5631      9.767   197.5749 1.9074e+03     4.5894     -0.279     -0.406    21.4188 0.0000e+00
     -0.228      0.138     9.7034    107.120     32.009  29.423158     1.6131      9.772   190.5696 1.9266e+03     4.5942     -0.227     -0.329    21.3226 0.0000e+00
     -0.169      0.167     9.6696    106.905     31.992  29.369882     1.7006      9.775   180.9716 1.7839e+03     4.5862     -0.165     -0.239    21.1911 0.0000e+00
     -0.114      0.179     9.6190    106.794     32.000  29.346383     1.7306      9.775   179.0945 1.4067e+03     4.5271     -0.106     -0.154    21.0831 0.0000e+00
     -0.069      0.177     9.5688    106.835     32.008  29.329283     1.7258      9.775   178.4556 1.3610e+03     4.4943     -0.065     -0.094    21.0172 0.0000e+00
     -0.031      0.166     9.5526    107.031     31.988  29.289945     1.7761      9.776   178.0658 1.7410e+03     4.5655     -0.032     -0.046    20.9540 0.0000e+00
      0.008      0.152     9.5478    107.306     31.968  29.251291     1.8396      9.777   177.7372 1.7980e+03     4.5680      0.007      0.010    20.8934 0.0000e+00
      0.049      0.140     9.5423    107.561     31.981  29.242474     1.8440      9.779   177.4073 1.4602e+03     4.4900      0.050      0.072    20.8466 0.0000e+00
      0.085      0.131     9.5538    107.762     32.006  29.246747     1.8367      9.781   177.1743 1.0757e+03     4.4769      0.084      0.123    20.8065 0.0000e+00
      0.116      0.121     9.5796    107.932     32.015  29.239495     1.8682      9.783   177.0714 1.1120e+03     4.5459      0.115      0.166    20.7769 0.0000e+00
      0.144      0.114     9.6138    108.070     32.006  29.218196     1.9168      9.787   177.1093 1.4057e+03     4.6079      0.141      0.205    20.7472 0.0000e+00
      0.170      0.113     9.6445    108.172     31.977  29.179486     1.9333      9.790   177.2031 1.3034e+03     4.5774      0.165      0.241    20.7116 0.0000e+00
      0.196      0.121     9.6657    108.246     31.963  29.152016     1.9175      9.791   177.2590 1.0181e+03     4.5522      0.194      0.282    20.6825 0.0000e+00
      0.219      0.134     9.6865    108.257     31.973  29.139767     1.9337      9.793   177.3550 8.7920e+02     4.6782      0.213      0.309    20.6594 0.0000e+00
      0.248      0.147     9.7033    108.193     31.950  29.094783     2.0471      9.794   177.5034 8.5510e+02     4.8379      0.234      0.339    20.6389 0.0000e+00
      0.295      0.157     9.7139    108.096     31.926  29.052087     2.2145      9.797   177.6769 8.1825e+02     4.8775      0.286      0.414    20.6230 0.0000e+00
      0.350      0.162     9.7266    108.002     31.961  29.067494     2.2846      9.799   177.8174 7.5085e+02     4.8159      0.349      0.506    20.6022 0.0000e+00
      0.398      0.162     9.7355    107.942     31.997  29.090754     2.2783      9.802   177.8259 7.3680e+02     4.7416      0.393      0.570    20.5661 0.0000e+00
      0.437      0.154     9.7349    107.917     31.990  29.079608     2.4137      9.804   177.8654 7.0984e+02     4.7646      0.428      0.622    20.5254 0.0000e+00
      0.472      0.141     9.7322    107.862     31.974  29.059577     2.6730      9.806   178.1233 6.0305e+02     4.8555      0.464      0.674    20.4909 0.0000e+00
      0.504      0.129     9.7282    107.764     31.963  29.038837     2.8090      9.809   178.4486 5.1897e+02     4.8491      0.495      0.717    20.4640 0.0000e+00
      0.533      0.124     9.7237    107.654     31.957  29.019115     2.8262      9.811   178.7012 5.5170e+02     4.7557      0.523      0.757    20.4500 0.0000e+00
      0.562      0.123     9.7268    107.527     31.964  29.011389     2.9391      9.812   178.9411 6.3882e+02     4.7510      0.552      0.800    20.4461 0.0000e+00
      0.591      0.123     9.7229    107.380     31.974  29.008830     3.1580      9.812   179.1978 6.5442e+02     4.8261      0.578      0.839    20.4407 0.0000e+00
      0.623      0.123     9.7141    107.182     31.962  28.988157     3.2677      9.812   179.3959 5.7403e+02     4.8096      0.609      0.883    20.4244 0.0000e+00
      0.658      0.123     9.7115    106.892     31.933  28.951695     3.2660      9.812   179.5289 5.1439e+02     4.7229      0.646      0.937    20.3990 0.0000e+00
      0.693      0.123     9.7033    106.534     31.944  28.948528     3.3878      9.811   179.6881 4.9518e+02     4.7000      0.682      0.989    20.3747 0.0000e+00
      0.724      0.125     9.6942    106.131     31.963  28.949852     3.6332      9.809   179.8573 4.6134e+02     4.7722      0.711      1.030    20.3571 0.0000e+00
      0.751      0.129     9.6825    105.642     31.936  28.904248     3.7774      9.806   180.0258 4.4361e+02     4.8783      0.735      1.067    20.3427 0.0000e+00
      0.779      0.134     9.6563    104.998     31.901  28.841107     3.7839      9.801   180.4349 4.3917e+02     4.8891      0.762      1.106    20.3290 0.0000e+00
      0.813      0.139     9.6270    104.160     31.857  28.757229     3.6860      9.796   180.9325 4.3017e+02     4.8688      0.794      1.152    20.3082 0.0000e+00
      0.853      0.143     9.5967    103.158     31.817  28.651167     3.5341      9.793   181.1379 4.1669e+02     4.9754      0.837      1.213    20.2851 0.0000e+00
      0.895      0.144     9.5607    102.193     31.849  28.573472     3.4712      9.790   181.1974 3.8337e+02     5.1194      0.879      1.276    20.2559 0.0000e+00
      0.935      0.141     9.5137    101.731     31.923  28.515379     3.4752      9.788   181.2223 3.6247e+02     5.1740      0.918      1.332    20.2039 0.0000e+00
      0.972      0.133     9.4481    102.286     31.988  28.456017     3.4657      9.788   181.4389 3.5695e+02     5.1233      0.955      1.386    20.1446 0.0000e+00
      1.004      0.123     9.3721    104.028     32.062  28.426414     3.4806      9.788   182.0949 3.4120e+02     5.1211      0.986      1.431    20.0447 0.0000e+00
      1.032      0.113     9.3003    106.670     32.126  28.411037     3.5559      9.788   182.8730 3.2406e+02     5.2499      1.012      1.467    19.8654 0.0000e+00
      1.058      0.107     9.2775    109.725     32.169  28.396854     3.6187      9.789   183.4471 3.1751e+02     5.3147      1.038      1.506    19.6514 0.0000e+00
      1.083      0.106     9.3576    112.748     32.202  28.381723     3.6242      9.790   183.8745 3.1428e+02     5.2554      1.064      1.542    19.4610 0.0000e+00
      1.105      0.109     9.5581    115.379     32.225  28.354880     3.6217      9.791   184.2546 2.9883e+02     5.1814      1.083      1.570    19.3127 0.0000e+00
      1.131      0.115     9.8419    117.364     32.242  28.325943     3.6381      9.790   184.4296 2.8605e+02     5.1725      1.106      1.604    19.2005 0.0000e+00
      1.163      0.125    10.1521    118.592     32.237  28.285490     3.6642      9.790   184.4413 2.8050e+02     5.2505      1.141      1.654    19.1286 0.0000e+00
      1.198      0.135    10.4567    119.101     32.230  28.246275     3.6972      9.790   184.4819 2.6685e+02     5.3382      1.175      1.705    19.0673 0.0000e+00
      1.232      0.142    10.7256    119.031     32.252  28.232316     3.7612      9.791   184.4905 2.5084e+02     5.3788      1.205      1.747    18.9887 0.0000e+00
      1.272      0.145    10.9294    118.593     32.298  28.243528     3.8556      9.791   184.6312 2.3872e+02     5.4342      1.246      1.807    18.9180 0.0000e+00
      1.315      0.145    11.0529    118.003     32.339  28.254939     3.9065      9.790   185.0651 2.2517e+02     5.5291      1.293      1.875    18.8671 0.0000e+00
      1.354      0.143    11.1073    117.392     32.355  28.243409     3.9187      9.788   185.5204 2.1328e+02     5.6037      1.330      1.928    18.8161 0.0000e+00
      1.389      0.141    11.1057    116.804     32.378  28.230946     4.0120      9.787   185.9205 2.0600e+02     5.6533      1.362      1.975    18.7617 0.0000e+00
      1.420      0.137    11.0667    116.225     32.427  28.231057     4.1609      9.785   186.5476 1.9875e+02     5.6853      1.393      2.020    18.7164 0.0000e+00
      1.451      0.131    11.0157    115.605     32.503  28.244697     4.2455      9.784   187.3375 1.9105e+02     5.7177      1.420      2.061    18.6824 0.0000e+00
      1.487      0.126    10.9656    114.927     32.592  28.268932     4.2860      9.782   187.9002 1.8297e+02     5.7711      1.456      2.112    18.6456 0.0000e+00
      1.525      0.121    10.9219    114.239     32.644  28.270310     4.3750      9.780   188.2749 1.7543e+02     5.7503      1.499      2.173    18.5968 0.0000e+00
      1.557      0.116    10.8839    113.595     32.668  28.261297     4.4981      9.779   188.6838 1.6886e+02     5.6715      1.530      2.219    18.5338 0.0000e+00
      1.582      0.114    10.8467    113.032     32.714  28.286775     4.5595      9.778   189.0586 1.6392e+02     5.6729      1.551      2.249    18.4454 0.0000e+00
      1.605      0.115    10.7996    112.596     32.771  28.324634     4.5843      9.776   189.3660 1.5970e+02     5.7329      1.573      2.282    18.3574 0.0000e+00
      1.629      0.117    10.7478    112.297     32.816  28.338476     4.6728      9.772   189.7323 1.5382e+02     5.7472      1.597      2.317    18.2902 0.0000e+00
      1.658      0.122    10.6974    112.092     32.852  28.327251     5.5551      9.768   190.1318 1.4707e+02     5.7777      1.621      2.352    18.2417 0.0000e+00
      1.695      0.125    10.6459    111.919     32.891  28.315712     7.1957      9.764   190.4972 1.3993e+02     5.8966      1.660      2.408    18.2252 0.0000e+00
      1.736      0.125    10.6046    111.678     32.945  28.325753     8.1039      9.762   190.8802 1.3291e+02     5.9550      1.706      2.474    18.2221 0.0000e+00
      1.771      0.121    10.5865    111.232     32.979  28.321756     8.2297      9.760   191.2352 1.2755e+02     5.9715      1.738      2.521    18.1876 0.0000e+00
      1.800      0.114    10.5857    110.501     32.957  28.267342     8.6002      9.757   191.6070 1.2330e+02     6.0617      1.767      2.563    18.1084 0.0000e+00
      1.824      0.106    10.5883    109.484     32.896  28.175205     9.2375      9.754   192.1915 1.1939e+02     6.0902      1.791      2.597    18.0333 0.0000e+00
      1.846      0.099    10.5824    108.174     32.851  28.095663     9.5770      9.751   192.7961 1.1568e+02     6.0077      1.808      2.623    17.9849 0.0000e+00
      1.870      0.094    10.5526    106.493     32.868  28.066673     9.6170      9.748   193.1521 1.1212e+02     5.9867      1.832      2.659    17.9366 0.0000e+00
      1.894      0.091    10.4952    104.381     32.934  28.078336     9.6211      9.745   193.4841 1.0872e+02     6.0064      1.858      2.694    17.8823 0.0000e+00
      1.919      0.086    10.4094    101.812     33.014  28.109761     9.6015      9.742   193.8857 1.0543e+02     5.9732      1.882      2.729    17.8223 0.0000e+00
      1.943      0.081    10.3032     98.861     33.063  28.129460     9.5795      9.739   194.2227 1.0247e+02     5.9612      1.907      2.766    17.7608 0.0000e+00
      1.964      0.073    10.1592     95.827     33.064  28.126210     9.5554      9.737   194.5471 9.9834e+01     5.9636      1.928      2.796    17.6927 0.0000e+00
      1.981      0.065     9.9723     93.017     33.068  28.133875     9.5179      9.734   194.8826 9.7648e+01     6.0026      1.943      2.819    17.6209 0.0000e+00
      1.995      0.057     9.7422     90.679     33.090  28.158723     9.4593      9.730   195.2672 9.6004e+01     6.0223      1.957      2.838    17.5593 0.0000e+00
      2.007      0.051     9.4516     89.065     33.098  28.172940     9.4038      9.726   195.7558 9.4554e+01     5.9285      1.968      2.854    17.5242 0.0000e+00
      2.018      0.048     9.1517     88.265     33.097  28.178939     9.3628      9.722   196.2305 9.2978e+01     5.8594      1.979      2.870    17.5254 0.0000e+00
      2.030      0.047     8.8751     88.141     33.078  28.167834     9.2133      9.719   196.7043 9.1218e+01     5.9043      1.991      2.887    17.5359 0.0000e+00
      2.041      0.049     8.6394     88.522     33.000  28.102112     8.9627      9.717   197.1826 8.9321e+01     5.9926      2.001      2.902    17.5423 0.0000e+00
      2.052      0.053     8.4786     89.222     32.915  28.018561     8.8293      9.716   197.5406 8.7391e+01     6.0042      2.012      2.918    17.5550 0.0000e+00
      2.066      0.058     8.4081     89.998     32.904  27.982149     8.8071      9.713   197.9346 8.5297e+01     5.9430      2.025      2.937    17.5681 0.0000e+00
      2.081      0.062     8.4000     90.663     32.946  27.978948     8.7942      9.709   198.4189 8.2871e+01     5.9014      2.039      2.958    17.5757 0.0000e+00
      2.099      0.066     8.4402     90.976     32.997  27.979812     8.7898      9.707   198.8363 8.0386e+01     5.9117      2.058      2.985    17.5796 0.0000e+00
      2.118      0.068     8.5204     90.624     33.058  27.992539     8.7866      9.705   199.1949 7.8242e+01     5.9642      2.078      3.014    17.5672 0.0000e+00
      2.136      0.068     8.6065     89.602     33.111  28.005934     8.7806      9.700   199.5714 7.6362e+01     5.9565      2.094      3.037    17.5241 0.0000e+00
      2.153      0.067     8.6876     88.188     33.151  28.014879     8.7843      9.696   199.9469 7.4598e+01     5.8865      2.112      3.063    17.4584 0.0000e+00
      2.170      0.066     8.7463     86.514     33.207  28.037233     8.9726      9.694   200.2081 7.2997e+01     5.9040      2.128      3.087    17.3910 0.0000e+00
      2.185      0.067     8.7244     84.649     33.228  28.022473     9.3343      9.691   200.3201 7.1487e+01     5.9968      2.142      3.107    17.3311 0.0000e+00
      2.200      0.068     8.6170     82.713     33.206  27.963228     9.5212      9.687   200.4402 7.0086e+01     6.0174      2.158      3.130    17.2817 0.0000e+00
      2.216      0.069     8.4872     80.702     33.250  27.955114     9.5088      9.683   200.7142 6.8531e+01     5.9481      2.173      3.151    17.2487 0.0000e+00
      2.235      0.067     8.3308     78.582     33.335  27.987739     9.3930      9.679   201.0519 6.6381e+01     5.8424      2.191      3.177    17.2177 0.0000e+00
      2.258      0.062     8.1524     76.437     33.343  27.977079     9.2110      9.675   201.3402 6.4144e+01     5.7647      2.215      3.213    17.1651 0.0000e+00
      2.278      0.055     7.9779     74.324     33.311  27.953055     9.1311      9.672   201.6185 6.2601e+01     5.7939      2.237      3.245    17.1037 0.0000e+00
      2.291      0.045     7.8000     72.326     33.297  27.950983     9.1095      9.667   202.0078 6.1671e+01     5.8195      2.249      3.262    17.0313 0.0000e+00
      2.298      0.034     7.5995     70.671     33.287  27.952039     8.9419      9.662   202.4336 6.0924e+01     5.7331      2.255      3.270    16.9597 0.0000e+00
      2.301      0.024     7.3951     69.550     33.293  27.965839     8.6764      9.658   202.8091 6.0359e+01     5.6381      2.257      3.274    16.9386 0.0000e+00
      2.304      0.017     7.1885     69.014     33.315  27.990986     8.5473      9.655   203.1918 5.9963e+01     5.6266      2.258      3.276    16.9518 0.0000e+00
      2.308      0.012     6.9818     69.039     33.324  28.002402     8.5454      9.650   203.5338 5.9461e+01     5.6281      2.263      3.282    16.9678 0.0000e+00
      2.312      0.009     6.8126     69.554     33.291  27.977021     8.5958      9.645   203.7600 5.9048e+01     5.5537      2.268      3.290    16.9831 0.0000e+00
      2.315      0.009     6.7016     70.383     33.245  27.937810     8.6822      9.641   203.8621 5.8976e+01     5.5130      2.270      3.293    16.9971 0.0000e+00
      2.315      0.010     6.6498     71.283     33.220  27.908865     8.7415      9.637   203.9071 5.8936e+01     5.5802      2.271      3.294    17.0073 0.0000e+00
      2.315      0.015     6.6525     72.084     33.213  27.880744     8.7716      9.633   203.9601 5.8603e+01     5.5797      2.269      3.291    17.0113 0.0000e+00
      2.317      0.024     6.7083     72.683     33.227  27.851472     8.7550      9.629   204.0738 5.8013e+01     5.4729      2.270      3.292    17.0153 0.0000e+00
      2.322      0.036     6.7976     72.934     33.253  27.808590     8.6236      9.626   204.2494 5.7281e+01     5.3829      2.275      3.300    17.0170 0.0000e+00
      2.332      0.050     6.8919     72.702     33.279  27.742736     8.4306      9.623   204.3621 5.6201e+01     5.3454      2.284      3.312    17.0092 0.0000e+00
      2.348      0.063     6.9749     71.963     33.334  27.689379     8.3443      9.621   204.4897 5.4606e+01     5.3601      2.300      3.336    16.9785 0.0000e+00
      2.370      0.073     7.0477     70.799     33.429  27.670730     8.3790      9.618   204.7594 5.2693e+01     5.3562      2.323      3.369    16.9185 0.0000e+00
      2.393      0.078     7.0916     69.375     33.502  27.643989     8.6262      9.615   205.0419 5.0733e+01     5.2987      2.347      3.404    16.8236 0.0000e+00
      2.415      0.079     7.0900     67.879     33.563  27.619647     9.0604      9.612   205.3251 4.8935e+01     5.2790      2.370      3.437    16.6858 0.0000e+00
      2.436      0.075     7.0385     66.392     33.652  27.630022     9.3095      9.608   205.6017 4.7358e+01     5.3234      2.389      3.465    16.5268 0.0000e+00
      2.455      0.068     6.9416     64.972     33.726  27.642502     9.4158      9.604   205.8056 4.5968e+01     5.3574      2.407      3.492    16.3761 0.0000e+00
      2.473      0.061     6.8121     63.758     33.766  27.643631    10.1703      9.601   205.8973 4.4899e+01     5.3135      2.426      3.518    16.2467 0.0000e+00
      2.487      0.056     6.6788     62.788     33.790  27.643633    11.5156      9.596   205.9359 4.4329e+01     5.2032      2.441      3.540    16.1362 0.0000e+00
      2.497      0.052     6.5468     62.023     33.812  27.642510    12.2562      9.592   206.1007 4.3862e+01     5.1853      2.449      3.552    16.0419 0.0000e+00
      2.506      0.049     6.4077     61.457     33.825  27.630040    12.4091      9.589   206.3408 4.2982e+01     5.3015      2.456      3.563    15.9671 0.0000e+00
      2.519      0.046     6.2935     61.033     33.845  27.619665    13.1396      9.585   206.6022 4.1826e+01     5.4465      2.469      3.582    15.9230 0.0000e+00
      2.534      0.045     6.2043     60.693     33.905  27.643895    14.4387      9.581   206.8519 4.0806e+01     5.5727      2.486      3.606    15.9021 0.0000e+00
      2.547      0.046     6.1287     60.415     33.961  27.669266    15.1404      9.577   207.0367 4.0168e+01     5.6319      2.500      3.627    15.8775 0.0000e+00
      2.556      0.048     6.0817     60.161     33.991  27.672709    15.1066      9.574   207.2018 3.9722e+01     5.6842      2.507      3.636    15.8410 0.0000e+00
      2.565      0.051     6.0475     59.909     34.036  27.685492    13.9141      9.570   207.3003 3.9171e+01     5.6591      2.514      3.646    15.7960 0.0000e+00
      2.576      0.054     6.0179     59.644     34.086  27.696942    11.6835      9.566   207.4525 3.8411e+01     5.4304      2.525      3.662    15.7601 0.0000e+00
      2.591      0.057     5.9959     59.321     34.111  27.684260    10.4419      9.563   207.7516 3.7386e+01     5.2074      2.539      3.683    15.7350 0.0000e+00
      2.610      0.060     5.9749     58.901     34.122  27.658972    10.3130      9.559   207.9916 3.6353e+01     5.1498      2.561      3.714    15.7035 0.0000e+00
      2.628      0.061     5.9547     58.400     34.147  27.644851    10.2160      9.554   208.1176 3.5549e+01     5.1771      2.580      3.741    15.6691 0.0000e+00
      2.644      0.060     5.9352     57.844     34.182  27.640327     9.2113      9.549   208.3276 3.4857e+01     5.1273      2.594      3.761    15.6276 0.0000e+00
      2.659      0.059     5.9120     57.247     34.172  27.604239     7.3620      9.544   208.6384 3.4212e+01     4.9568      2.608      3.783    15.5763 0.0000e+00
      2.672      0.059     5.8748     56.637     34.106  27.525603     6.3340      9.540   208.9504 3.3717e+01     4.8246      2.621      3.802    15.5263 0.0000e+00
      2.684      0.060     5.8300     56.022     34.048  27.450616     6.2040      9.537   209.3467 3.3150e+01     4.8269      2.630      3.815    15.4750 0.0000e+00
      2.699      0.062     5.7818     55.410     34.021  27.395217     5.8312      9.533   209.8158 3.2230e+01     4.7118      2.643      3.835    15.4236 0.0000e+00
      2.718      0.063     5.7243     54.836     34.028  27.363135     5.1387      9.527   210.2347 3.1273e+01     4.4233      2.666      3.866    15.3837 0.0000e+00
      2.736      0.066     5.6678     54.322     34.018  27.316366     4.7482      9.522   210.5393 3.0459e+01     4.2760      2.685      3.892    15.3527 0.0000e+00
      2.753      0.071     5.6114     53.906     33.933  27.210238     4.6722      9.518   210.8318 2.9684e+01     4.2296      2.700      3.916    15.3120 0.0000e+00
      2.768      0.074     5.5537     53.615     33.843  27.094692     4.3856      9.515   211.2761 2.9015e+01     4.1354      2.715      3.939    15.2599 0.0000e+00
      2.783      0.076     5.5034     53.420     33.788  26.997453     3.8798      9.512   211.6951 2.8133e+01     3.9906      2.726      3.955    15.2024 0.0000e+00
      2.805      0.077     5.4569     53.298     33.765  26.922398     3.5921      9.508   211.9408 2.6846e+01     3.8458      2.748      3.987    15.1442 0.0000e+00
      2.831      0.076     5.4189     53.290     33.784  26.884794     3.5373      9.503   212.1813 2.5671e+01     3.7848      2.778      4.031    15.0945 0.0000e+00
      2.854      0.074     5.3985     53.431     33.812  26.859844     3.4168      9.499   212.3662 2.4853e+01     3.7655      2.801      4.062    15.0352 0.0000e+00
      2.871      0.070     5.3908     53.710     33.799  26.810944     3.2254      9.496   212.4562 2.4206e+01     3.7148      2.817      4.085    14.9479 0.0000e+00
      2.886      0.063     5.3861     54.082     33.745  26.737469     3.1218      9.493   212.5803 2.3658e+01     3.6154      2.832      4.106    14.8587 0.0000e+00
      2.900      0.057     5.3926     54.493     33.693  26.669070     3.0797      9.488   212.6625 2.3168e+01     3.5199      2.844      4.125    14.7830 0.0000e+00
      2.913      0.054     5.4162     54.904     33.664  26.618127     2.8659      9.483   212.7615 2.2703e+01     3.5516      2.857      4.144    14.7122 0.0000e+00
      2.926      0.052     5.4527     55.291     33.636  26.565438     2.5178      9.480   213.0032 2.2304e+01     3.6566      2.870      4.163    14.6533 0.0000e+00
      2.938      0.051     5.4982     55.649     33.650  26.539359     2.3326      9.478   213.2614 2.1903e+01     3.6964      2.881      4.178    14.6115 0.0000e+00
      2.952      0.049     5.5452     55.961     33.725  26.556457     2.2917      9.474   213.4746 2.1405e+01     3.6574      2.894      4.197    14.5748 0.0000e+00
      2.967      0.049     5.5936     56.218     33.804  26.581857     2.2563      9.469   213.6877 2.0942e+01     3.5603      2.910      4.221    14.5321 0.0000e+00
      2.979      0.050     5.6377     56.440     33.851  26.592728     2.1962      9.465   213.9450 2.0631e+01     3.5474      2.923      4.240    14.4900 0.0000e+00
      2.989      0.051     5.6812     56.613     33.844  26.561028     2.1052      9.462   214.2633 2.0365e+01     3.6380      2.931      4.252    14.4364 0.0000e+00
      2.999      0.052     5.7241     56.706     33.832  26.515650     2.0472      9.459   214.5243 1.9959e+01     3.6319      2.938      4.262    14.3644 0.0000e+00
      3.014      0.053     5.7546     56.678     33.852  26.487976     2.0282      9.456   214.6921 1.9379e+01     3.5749      2.954      4.284    14.3056 0.0000e+00
      3.032      0.056     5.7828     56.462     33.897  26.480068     2.0083      9.453   214.8292 1.8831e+01     3.6323      2.974      4.313    14.2761 0.0000e+00
      3.047      0.059     5.8057     56.033     33.951  26.483404     1.9892      9.450   214.9780 1.8441e+01     3.7110      2.989      4.336    14.2452 0.0000e+00
      3.060      0.060     5.8233     55.446     33.972  26.464852     1.9969      9.446   215.2002 1.8110e+01     3.7063      3.001      4.352    14.1862 0.0000e+00
      3.073      0.060     5.8326     54.759     33.996  26.445976     2.0010      9.441   215.4517 1.7681e+01     3.6107      3.012      4.368    14.1198 0.0000e+00
      3.090      0.058     5.8199     53.992     34.046  26.445405     1.9476      9.437   215.6955 1.7155e+01     3.5449      3.029      4.394    14.0534 0.0000e+00
      3.107      0.054     5.7806     53.221     34.112  26.457895     1.8673      9.433   215.9105 1.6677e+01     3.6287      3.047      4.420    13.9956 0.0000e+00
      3.123      0.049     5.7223     52.537     34.171  26.470102     1.8206      9.429   216.1577 1.6287e+01     3.6674      3.063      4.443    13.9496 0.0000e+00
      3.136      0.044     5.6602     51.942     34.197  26.466110     1.8074      9.425   216.4480 1.6027e+01     3.5693      3.078      4.464    13.8923 0.0000e+00
      3.145      0.039     5.5847     51.422     34.230  26.473021     1.7917      9.420   216.6668 1.5844e+01     3.5018      3.084      4.473    13.8352 0.0000e+00
      3.151      0.037     5.5065     50.965     34.277  26.490226     1.7635      9.416   216.8241 1.5677e+01     3.5673      3.090      4.482    13.7746 0.0000e+00
      3.156      0.040     5.4449     50.536     34.297  26.483845     1.7579      9.412   216.9735 1.5547e+01     3.6788      3.096      4.490    13.7211 0.0000e+00
      3.162      0.045     5.3864     50.141     34.287  26.459264     1.7565      9.407   217.2688 1.5242e+01     3.6538      3.097      4.492    13.6906 0.0000e+00
      3.176      0.050     5.3347     49.768     34.283  26.446684     1.7304      9.403   217.8129 1.4714e+01     3.5381      3.112      4.514    13.6665 0.0000e+00
      3.196      0.051     5.2940     49.388     34.317  26.458586     1.7169      9.399   218.3900 1.4199e+01     3.4761      3.134      4.546    13.6425 0.0000e+00
      3.215      0.049     5.2512     49.012     34.364  26.476305     1.7268      9.395   218.8262 1.3785e+01     3.4509      3.153      4.573    13.6036 0.0000e+00
      3.230      0.046     5.2148     48.672     34.374  26.470634     1.7338      9.391   219.2150 1.3547e+01     3.4381      3.171      4.599    13.5738 0.0000e+00
      3.238      0.041     5.1779     48.389     34.363  26.453432     1.7185      9.387   219.4773 1.3531e+01     3.4239      3.179      4.611    13.5722 0.0000e+00
      3.240      0.037     5.1399     48.156     34.390  26.458573     1.7000      9.383   219.5891 1.3513e+01     3.4153      3.177      4.606    13.5521 0.0000e+00
      3.245      0.036     5.1038     47.963     34.443  26.469349     1.7020      9.379   219.7060 1.3304e+01     3.4370      3.179      4.611    13.5134 0.0000e+00
      3.256      0.036     5.0692     47.802     34.470  26.456847     1.7001      9.375   219.8589 1.2988e+01     3.4125      3.192      4.630    13.4961 0.0000e+00
      3.270      0.041     5.0408     47.645     34.479  26.434212     1.6932      9.371   220.0608 1.2733e+01     3.3583      3.209      4.654    13.4929 0.0000e+00
      3.282      0.046     5.0187     47.462     34.455  26.385909     1.6940      9.368   220.3405 1.2556e+01     3.2943      3.220      4.670    13.4756 0.0000e+00
      3.292      0.051     5.0043     47.219     34.422  26.316737     1.6933      9.365   220.8325 1.2347e+01     3.2190      3.227      4.680    13.4229 0.0000e+00
      3.302      0.053     4.9951     46.889     34.474  26.295452     1.7012      9.360   221.5349 1.2077e+01     3.2335      3.237      4.695    13.3677 0.0000e+00
      3.317      0.050     4.9838     46.505     34.579  26.318749     1.6979      9.357   222.1211 1.1732e+01     3.2303      3.251      4.715    13.3320 0.0000e+00
      3.335      0.045     4.9692     46.112     34.656  26.344667     1.6450      9.354   222.4143 1.1324e+01     3.1122      3.271      4.745    13.2952 0.0000e+00
      3.353      0.041     4.9536     45.753     34.678  26.355087     1.5860      9.349   222.5845 1.1054e+01     3.0355      3.292      4.776    13.2362 0.0000e+00
      3.362      0.036     4.9264     45.463     34.614  26.317887     1.5758      9.344   222.8035 1.1007e+01     3.0894      3.300      4.787    13.1338 0.0000e+00
      3.362      0.032     4.8963     45.248     34.463  26.212008     1.5789      9.340   222.9966 1.0973e+01     3.1481      3.297      4.781    13.0363 0.0000e+00
      3.364      0.028     4.8577     45.113     34.323  26.089677     1.5662      9.336   223.1122 1.0815e+01     3.1303      3.296      4.781    12.9925 0.0000e+00
      3.372      0.027     4.8185     45.041     34.311  26.043768     1.5556      9.332   223.2550 1.0565e+01     3.1135      3.304      4.793    12.9869 0.0000e+00
      3.384      0.030     4.7866     45.029     34.351  26.037406     1.5673      9.328   223.4319 1.0305e+01     3.1496      3.319      4.813    13.0114 0.0000e+00
      3.395      0.034     4.7588     45.071     34.355  26.012720     1.5909      9.325   223.6166 1.0136e+01     3.1918      3.331      4.831    13.0424 0.0000e+00
      3.402      0.035     4.7498     45.201     34.368  25.998937     1.5914      9.321   223.7676 1.0045e+01     3.1793      3.337      4.841    13.0180 0.0000e+00
      3.408      0.035     4.7483     45.432     34.394  25.997572     1.5726      9.318   223.8806 9.9203e+00     3.1009      3.340      4.846    12.9457 0.0000e+00
      3.417      0.035     4.7549     45.696     34.410  25.996192     1.5561      9.313   224.0362 9.7529e+00     3.0296      3.350      4.860    12.8882 0.0000e+00
      3.428      0.036     4.7613     45.980     34.403  25.982238     1.5579      9.308   224.2731 9.6128e+00     3.0348      3.363      4.878    12.8559 0.0000e+00
      3.437      0.037     4.7748     46.283     34.383  25.955697     1.5782      9.304   224.5938 9.4918e+00     3.0272      3.370      4.888    12.8224 0.0000e+00
      3.447      0.039     4.8110     46.558     34.366  25.928954     1.5680      9.301   224.9027 9.3794e+00     2.9712      3.380      4.902    12.7849 0.0000e+00
      3.457      0.041     4.8381     46.768     34.375  25.912551     1.5345      9.296   225.0821 9.3016e+00     2.9731      3.391      4.918    12.7688 0.0000e+00
      3.467      0.044     4.8687     46.893     34.389  25.884186     1.5310      9.292   225.2150 9.2069e+00     3.0498      3.398      4.929    12.7615 0.0000e+00
      3.477      0.046     4.9065     46.909     34.400  25.839630     1.5422      9.289   225.4774 9.0702e+00     3.0782      3.408      4.943    12.7400 0.0000e+00
      3.489      0.048     4.9376     46.796     34.447  25.817718     1.5207      9.287   225.8452 8.9184e+00     3.0102      3.422      4.963    12.7245 0.0000e+00
      3.504      0.048     4.9641     46.563     34.497  25.809442     1.4703      9.282   226.1342 8.7582e+00     2.9442      3.436      4.983    12.6983 0.0000e+00
      3.519      0.047     4.9843     46.224     34.528  25.802928     1.4573      9.278   226.3041 8.6396e+00     2.9635      3.452      5.007    12.6372 0.0000e+00
      3.531      0.044     4.9970     45.792     34.563  25.802349     1.4799      9.275   226.4371 8.5667e+00     3.0388      3.465      5.025    12.5591 0.0000e+00
      3.540      0.040     4.9943     45.286     34.599  25.802415     1.4780      9.271   226.6234 8.4792e+00     3.0693      3.471      5.034    12.4628 0.0000e+00
      3.549      0.036     4.9769     44.736     34.637  25.803692     1.4592      9.268   226.9228 8.4032e+00     3.0931      3.482      5.048    12.3932 0.0000e+00
      3.558      0.033     4.9437     44.175     34.688  25.817761     1.4520      9.265   227.2175 8.3530e+00     3.1556      3.490      5.061    12.3656 0.0000e+00
      3.566      0.033     4.9010     43.642     34.748  25.845657     1.4573      9.261   227.5192 8.2757e+00     3.1765      3.496      5.070    12.3240 0.0000e+00
      3.574      0.034     4.8506     43.162     34.823  25.887274     1.4723      9.256   227.8171 8.2039e+00     3.1055      3.505      5.084    12.2835 0.0000e+00
      3.581      0.035     4.7940     42.730     34.921  25.940413     1.4839      9.252   227.9807 8.1576e+00     2.9809      3.511      5.094    12.2469 0.0000e+00
      3.589      0.035     4.7372     42.361     35.014  25.980775     1.4980      9.248   228.0348 8.0536e+00     2.9682      3.518      5.103    12.2050 0.0000e+00
      3.601      0.035     4.6801     42.055     35.072  25.994733     1.5186      9.245   228.0412 7.9036e+00     3.0549      3.531      5.121    12.1851 0.0000e+00
      3.612      0.034     4.6319     41.742     35.082  25.982301     1.4995      9.242   228.1441 7.7820e+00     3.1405      3.543      5.138    12.1715 0.0000e+00
      3.621      0.033     4.5876     41.427     35.057  25.957279     1.4339      9.237   228.3320 7.6880e+00     3.1835      3.552      5.152    12.1439 0.0000e+00
      3.629      0.032     4.5500     41.131     35.037  25.945864     1.3830      9.233   228.5920 7.6073e+00     3.1304      3.560      5.163    12.0991 0.0000e+00
      3.634      0.031     4.5290     40.800     35.060  25.971140     1.3838      9.229   228.8786 7.5269e+00     3.1479      3.564      5.170    12.0495 0.0000e+00
      3.641      0.031     4.4965     40.456     35.101  26.009212     1.4094      9.224   228.9581 7.4129e+00     3.2589      3.569      5.177    12.0202 0.0000e+00
      3.649      0.032     4.4597     40.167     35.123  26.025672     1.4094      9.220   228.9507 7.2660e+00     3.3101      3.578      5.190    12.0151 0.0000e+00
      3.659      0.033     4.4334     39.942     35.151  26.043315     1.3842      9.216   229.1333 7.1320e+00     3.3573      3.587      5.204    12.0204 0.0000e+00
      3.669      0.036     4.3941     39.815     35.226  26.095681     1.3708      9.212   229.4449 7.0345e+00     3.3854      3.597      5.219    12.0360 0.0000e+00
      3.678      0.037     4.3507     39.820     35.315  26.151456     1.3811      9.207   229.7068 6.9553e+00     3.3433      3.606      5.231    12.0512 0.0000e+00
      3.686      0.036     4.3221     39.873     35.338  26.146886     1.3756      9.202   229.9763 6.8700e+00     3.3600      3.615      5.243    12.0479 0.0000e+00
      3.696      0.034     4.2972     39.917     35.301  26.103825     1.3198      9.197   230.3811 6.7632e+00     3.4515      3.623      5.255    12.0390 0.0000e+00
      3.706      0.034     4.2794     40.000     35.258  26.074736     1.2638      9.193   230.8157 6.6657e+00     3.5611      3.634      5.272    12.0406 0.0000e+00
      3.715      0.035     4.2862     40.101     35.295  26.112280     1.2565      9.188   231.1865 6.6285e+00     3.6605      3.647      5.288    12.0350 0.0000e+00
      3.721      0.036     4.3004     40.140     35.474  26.240683     1.2657      9.182   231.4231 6.5927e+00     3.6958      3.649      5.292    11.9890 0.0000e+00
      3.727      0.037     4.3026     40.095     35.689  26.358816     1.2587      9.177   231.4397 6.5006e+00     3.7147      3.654      5.300    11.9564 0.0000e+00
      3.737      0.036     4.3116     39.974     35.840  26.398974     1.2553      9.173   231.4733 6.3786e+00     3.7523      3.664      5.314    11.9707 0.0000e+00
      3.751      0.035     4.3257     39.803     35.949  26.409036     1.2660      9.168   231.6579 6.2566e+00     3.8088      3.677      5.333    11.9935 0.0000e+00
      3.764      0.035     4.3279     39.617     36.025  26.416979     1.2792      9.162   231.8645 6.1804e+00     3.8858      3.694      5.358    12.0048 0.0000e+00
      3.771      0.035     4.3290     39.399     36.085  26.431547     1.2817      9.156   232.0785 6.1485e+00     3.8974      3.699      5.365    11.9469 0.0000e+00
      3.775      0.034     4.3274     39.124     36.146  26.458300     1.2713      9.151   232.3522 6.1166e+00     3.8133      3.700      5.366    11.8202 0.0000e+00
      3.781      0.033     4.3167     38.828     36.203  26.486736     1.2783      9.146   232.7644 6.0692e+00     3.7906      3.707      5.377    11.7155 0.0000e+00
      3.791      0.033     4.3040     38.558     36.270  26.521658     1.3163      9.140   233.2771 6.0013e+00     3.9298      3.717      5.391    11.6532 0.0000e+00
      3.803      0.034     4.2859     38.313     36.350  26.563413     1.3488      9.134   233.6463 5.9287e+00     4.0959      3.729      5.409    11.6170 0.0000e+00
      3.814      0.035     4.2562     38.098     36.441  26.611039     1.3460      9.128   233.9593 5.8883e+00     4.1259      3.742      5.428    11.5956 0.0000e+00
      3.821      0.036     4.2225     37.930     36.526  26.653519     1.3245      9.122   234.3944 5.8838e+00     4.0529      3.748      5.436    11.5777 0.0000e+00
      3.826      0.039     4.1963     37.813     36.616  26.696470     1.3220      9.117   234.6056 5.8641e+00     4.0679      3.750      5.440    11.5628 0.0000e+00
      3.834      0.044     4.1718     37.741     36.734  26.749795     1.3490      9.111   234.5331 5.8131e+00     4.1362      3.759      5.452    11.5357 0.0000e+00
      3.846      0.049     4.1492     37.697     36.848  26.790847     1.3765      9.104   234.6368 5.7456e+00     4.0925      3.771      5.469    11.5094 0.0000e+00
      3.861      0.054     4.1343     37.682     36.934  26.812242     1.3788      9.098   234.9978 5.6396e+00     4.0184      3.785      5.489    11.4845 0.0000e+00
      3.880      0.056     4.1232     37.707     36.987  26.818156     1.3685      9.092   235.4576 5.5362e+00     4.0259      3.806      5.520    11.4563 0.0000e+00
      3.896      0.054     4.1211     37.788     36.995  26.798899     1.3776      9.086   235.9796 5.4827e+00     4.1480      3.822      5.544    11.4151 0.0000e+00
      3.909      0.050     4.1222     37.950     36.980  26.769661     1.3969      9.081   236.4053 5.4164e+00     4.2655      3.831      5.557    11.3486 0.0000e+00
      3.923      0.046     4.1256     38.185     37.010  26.781734     1.3941      9.075   236.6477 5.3319e+00     4.2510      3.848      5.581    11.2894 0.0000e+00
      3.934      0.045     4.1322     38.455     37.066  26.818013     1.3855      9.068   236.7588 5.2877e+00     4.2800      3.861      5.600    11.2476 0.0000e+00
      3.939      0.047     4.1423     38.721     37.090  26.827759     1.3836      9.062   236.8028 5.2515e+00     4.4123      3.860      5.600    11.2133 0.0000e+00
      3.946      0.051     4.1638     38.989     37.125  26.836146     1.3801      9.057   237.0064 5.1700e+00     4.4843      3.866      5.609    11.1867 0.0000e+00
      3.961      0.053     4.1914     39.252     37.184  26.855971     1.3683      9.051   237.4146 5.0493e+00     4.3983      3.883      5.633    11.1749 0.0000e+00
      3.981      0.055     4.2240     39.457     37.248  26.877164     1.3403      9.044   237.7797 4.9103e+00     4.2614      3.904      5.662    11.1763 0.0000e+00
      4.001      0.056     4.2526     39.570     37.320  26.902095     1.3168      9.038   237.9796 4.7879e+00     4.3310      3.925      5.693    11.1679 0.0000e+00
      4.015      0.055     4.2841     39.633     37.366  26.903689     1.3086      9.031   238.2827 4.7110e+00     4.4886      3.940      5.716    11.1417 0.0000e+00
      4.025      0.051     4.3200     39.747     37.401  26.896396     1.2906      9.024   238.8639 4.6362e+00     4.4932      3.946      5.723    11.1090 0.0000e+00
      4.035      0.046     4.3465     39.948     37.501  26.940731     1.2571      9.018   239.3274 4.5387e+00     4.4890      3.955      5.737    11.0780 0.0000e+00
      4.048      0.042     4.3622     40.246     37.610  26.995741     1.2536      9.012   239.5856 4.4560e+00     4.5061      3.972      5.759    11.0429 0.0000e+00
      4.059      0.040     4.3665     40.687     37.635  26.990685     1.2978      9.005   240.0070 4.3867e+00     4.4610      3.980      5.773    10.9978 0.0000e+00
      4.069      0.040     4.3839     41.257     37.605  26.942998     1.3425      8.998   240.5504 4.3158e+00     4.3874      3.989      5.786    10.9502 0.0000e+00
      4.079      0.041     4.4114     41.933     37.531  26.863103     1.3449      8.992   240.8219 4.2662e+00     4.2990      4.001      5.803    10.9136 0.0000e+00
      4.087      0.044     4.4418     42.697     37.466  26.785742     1.3273      8.985   240.9666 4.2358e+00     4.2805      4.008      5.814    10.8869 0.0000e+00
      4.094      0.046     4.4967     43.512     37.501  26.768674     1.3207      8.980   241.4394 4.1843e+00     4.3355      4.013      5.821    10.8591 0.0000e+00
      4.107      0.048     4.5641     44.388     37.584  26.783536     1.3152      8.974   241.9783 4.0840e+00     4.3827      4.025      5.837    10.8201 0.0000e+00
      4.126      0.050     4.6423     45.354     37.624  26.775124     1.3024      8.967   242.2345 3.9749e+00     4.3729      4.048      5.871    10.7840 0.0000e+00
      4.141      0.052     4.7345     46.476     37.599  26.730351     1.2824      8.960   242.3857 3.9161e+00     4.2853      4.065      5.895    10.7523 0.0000e+00
      4.151      0.052     4.8292     47.838     37.564  26.686126     1.2722      8.953   242.5159 3.8782e+00     4.2807      4.070      5.904    10.6894 0.0000e+00
      4.162      0.047     4.9343     49.448     37.591  26.684343     1.2878      8.947   242.6906 3.8249e+00     4.3847      4.079      5.916    10.6233 0.0000e+00
      4.177      0.039     5.0450     51.258     37.653  26.708767     1.2963      8.939   243.1209 3.7729e+00     4.3826      4.097      5.942    10.5754 0.0000e+00
      4.191      0.033     5.1694     53.263     37.688  26.727727     1.2754      8.932   243.6742 3.7401e+00     4.2887      4.112      5.965    10.5387 0.0000e+00
      4.199      0.033     5.3231     55.416     37.672  26.723312     1.2430      8.925   244.0467 3.7380e+00     4.2406      4.121      5.977    10.5227 0.0000e+00
      4.200      0.036     5.5108     57.527     37.655  26.718811     1.2200      8.919   244.2697 3.7408e+00     4.2790      4.119      5.975    10.4916 0.0000e+00
      4.200      0.040     5.7161     59.340     37.682  26.736738     1.2229      8.911   244.5625 3.7029e+00     4.3422      4.115      5.969    10.4549 0.0000e+00
      4.210      0.045     5.9403     60.624     37.712  26.749791     1.2280      8.903   244.9194 3.6283e+00     4.3219      4.123      5.980    10.4496 0.0000e+00
      4.230      0.050     6.1884     61.301     37.726  26.749783     1.2818      8.896   245.1438 3.5513e+00     4.2385      4.147      6.016    10.4660 0.0000e+00
      4.252      0.055     6.4308     61.464     37.718  26.736627     1.4078      8.890   245.3830 3.4948e+00     4.1884      4.173      6.052    10.4809 0.0000e+00
      4.267      0.056     6.6454     61.267     37.693  26.717557     1.4773      8.882   245.9192 3.4544e+00     4.1937      4.185      6.070    10.4789 0.0000e+00
      4.279      0.053     6.7935     60.858     37.673  26.709482     1.4728      8.874   246.5505 3.4113e+00     4.1667      4.196      6.086    10.4638 0.0000e+00
      4.290      0.049     6.8665     60.384     37.652  26.702431     1.4627      8.867   246.9071 3.3703e+00     4.0662      4.208      6.102    10.4493 0.0000e+00
      4.300      0.046     6.8797     59.975     37.637  26.695731     1.4372      8.859   247.0474 3.3439e+00     4.0377      4.215      6.115    10.4385 0.0000e+00
      4.310      0.046     6.8535     59.743     37.637  26.691894     1.3981      8.851   247.2141 3.3144e+00     4.1288      4.226      6.129    10.4321 0.0000e+00
      4.323      0.047     6.7997     59.737     37.602  26.656041     1.3636      8.844   247.4600 3.2619e+00     4.1435      4.238      6.148    10.4460 0.0000e+00
      4.338      0.049     6.7392     59.881     37.522  26.579339     1.3286      8.838   247.7835 3.2035e+00     4.0440      4.254      6.171    10.4603 0.0000e+00
      4.351      0.050     6.6891     60.089     37.497  26.525544     1.2826      8.830   248.0276 3.1663e+00     3.9174      4.268      6.190    10.4647 0.0000e+00
      4.362      0.050     6.6596     60.328     37.544  26.512960     1.2405      8.822   248.1756 3.1283e+00     3.8421      4.276      6.202    10.4593 0.0000e+00
      4.374      0.050     6.6668     60.589     37.569  26.490559     1.2275      8.814   248.3686 3.0753e+00     3.8852      4.289      6.221    10.4457 0.0000e+00
      4.388      0.052     6.6897     60.961     37.547  26.444928     1.2161      8.807   248.5541 3.0333e+00     3.8914      4.303      6.242    10.4272 0.0000e+00
      4.400      0.056     6.7211     61.626     37.521  26.405153     1.1691      8.800   248.7828 2.9963e+00     3.8153      4.316      6.258    10.3731 0.0000e+00
      4.413      0.061     6.7610     62.716     37.522  26.390162     1.1177      8.792   248.9831 2.9563e+00     3.8183      4.326      6.275    10.3031 0.0000e+00
      4.428      0.064     6.7960     64.239     37.538  26.390501     1.1107      8.784   249.0837 2.8946e+00     3.8596      4.339      6.294    10.2476 0.0000e+00
      4.448      0.065     6.8346     66.165     37.573  26.409246     1.1264      8.775   249.3965 2.8179e+00     3.8708      4.362      6.327    10.2092 0.0000e+00
      4.469      0.066     6.9071     68.430     37.600  26.426533     1.1239      8.767   249.8394 2.7722e+00     3.8850      4.384      6.359    10.1841 0.0000e+00
      4.486      0.067     7.0349     70.860     37.577  26.409245     1.1230      8.759   250.1370 2.7367e+00     3.8948      4.401      6.383    10.1618 0.0000e+00
      4.499      0.066     7.2102     73.283     37.555  26.390485     1.1318      8.751   250.4990 2.6975e+00     3.9217      4.413      6.400    10.1470 0.0000e+00
      4.513      0.065     7.4276     75.573     37.559  26.389967     1.1136      8.742   250.9477 2.6481e+00     3.9025      4.424      6.415    10.1395 0.0000e+00
      4.531      0.063     7.6929     77.568     37.577  26.402981     1.0601      8.733   251.3463 2.5837e+00     3.7995      4.444      6.445    10.1383 0.0000e+00
      4.550      0.061     7.9729     79.173     37.597  26.420996     1.0013      8.724   251.7043 2.5455e+00     3.7347      4.464      6.474    10.1396 0.0000e+00
      4.567      0.060     8.2491     80.389     37.587  26.417518     0.9781      8.716   251.9204 2.5143e+00     3.8018      4.477      6.493    10.1332 0.0000e+00
      4.582      0.057     8.5166     81.228     37.595  26.424343     0.9873      8.707   252.0669 2.4735e+00     3.9273      4.495      6.520    10.1270 0.0000e+00
      4.595      0.052     8.7453     81.749     37.619  26.440096     0.9869      8.699   252.2712 2.4433e+00     3.9205      4.507      6.537    10.1286 0.0000e+00
      4.607      0.047     8.9219     82.059     37.587  26.417724     0.9739      8.690   252.4975 2.4034e+00     3.8230      4.515      6.548    10.1342 0.0000e+00
      4.621      0.042     9.0587     82.249     37.570  26.407536     0.9802      8.682   252.8235 2.3584e+00     3.8412      4.534      6.575    10.1411 0.0000e+00
      4.631      0.038     9.1506     82.397     37.620  26.443764     1.0050      8.674   253.2027 2.3315e+00     3.9357      4.545      6.592    10.1425 0.0000e+00
      4.637      0.036     9.2042     82.562     37.665  26.475214     1.0157      8.665   253.5546 2.3071e+00     3.9745      4.546      6.595    10.1373 0.0000e+00
      4.644      0.034     9.2368     82.748     37.663  26.470688     0.9838      8.656   253.8940 2.2816e+00     3.9341      4.554      6.606    10.1379 0.0000e+00
      4.653      0.030     9.2533     82.959     37.647  26.452456     0.9282      8.646   254.1234 2.2692e+00     3.8916      4.564      6.619    10.1432 0.0000e+00
      4.662      0.027     9.2672     83.238     37.644  26.445034     0.9171      8.637   254.3492 2.2559e+00     3.9041      4.572      6.630    10.1431 0.0000e+00
      4.671      0.026     9.2859     83.623     37.647  26.444364     0.9413      8.628   254.5591 2.2288e+00     3.8807      4.582      6.645    10.1449 0.0000e+00
      4.677      0.026     9.3086     84.119     37.646  26.444355     0.9292      8.619   254.7691 2.2141e+00     3.8146      4.589      6.657    10.1416 0.0000e+00
      4.679      0.028     9.3316     84.680     37.642  26.444921     0.8962      8.610   255.0809 2.2216e+00     3.8219      4.590      6.656    10.1287 0.0000e+00
      4.682      0.033     9.3643     85.250     37.653  26.451210     0.8835      8.603   255.2312 2.2133e+00     3.9006      4.589      6.656    10.1214 0.0000e+00
      4.690      0.038     9.4069     85.776     37.678  26.456976     0.8843      8.594   255.3825 2.1784e+00     3.9466      4.599      6.670    10.1169 0.0000e+00
      4.703      0.044     9.4657     86.194     37.694  26.451203     0.8974      8.585   255.7054 2.1332e+00     3.8995      4.611      6.688    10.1164 0.0000e+00
      4.721      0.049     9.5289     86.489     37.704  26.444812     0.9084      8.575   255.8662 2.0857e+00     3.8088      4.629      6.713    10.1275 0.0000e+00
      4.737      0.051     9.5930     86.681     37.713  26.443113     0.9177      8.566   255.9498 2.0508e+00     3.8064      4.649      6.742    10.1304 0.0000e+00
      4.748      0.050     9.6623     86.829     37.700  26.430647     0.9352      8.557   256.1999 2.0339e+00     3.8705      4.655      6.752    10.1090 0.0000e+00
      4.758      0.046     9.7139     87.002     37.686  26.420931     0.9360      8.548   256.4812 2.0122e+00     3.8327      4.663      6.764    10.0820 0.0000e+00
      4.773      0.042     9.7519     87.247     37.728  26.452476     0.9198      8.538   256.7701 1.9795e+00     3.7252      4.684      6.793    10.0643 0.0000e+00
      4.785      0.040     9.7725     87.564     37.785  26.494942     0.9143      8.530   257.1114 1.9547e+00     3.6986      4.695      6.809    10.0543 0.0000e+00
      4.791      0.040     9.7872     87.897     37.776  26.490433     0.9267      8.522   257.4246 1.9327e+00     3.7838      4.697      6.813    10.0503 0.0000e+00
      4.798      0.039     9.8049     88.202     37.736  26.461389     0.9292      8.513   257.7178 1.9007e+00     3.8670      4.703      6.821    10.0505 0.0000e+00
      4.808      0.039     9.8310     88.459     37.741  26.460881     0.9116      8.504   257.9888 1.8636e+00     3.8165      4.715      6.838    10.0531 0.0000e+00
      4.820      0.041     9.8700     88.666     37.781  26.484276     0.9133      8.496   258.2062 1.8353e+00     3.7881      4.728      6.857    10.0576 0.0000e+00
      4.832      0.042     9.9071     88.817     37.797  26.490562     0.9247      8.487   258.2818 1.8129e+00     3.8655      4.739      6.873    10.0628 0.0000e+00
      4.842      0.042     9.9431     88.914     37.781  26.473464     0.9243      8.477   258.3008 1.7873e+00     3.8990      4.749      6.887    10.0612 0.0000e+00
      4.854      0.039     9.9734     88.974     37.781  26.467812     0.9167      8.468   258.5213 1.7647e+00     3.8845      4.759      6.902    10.0529 0.0000e+00
      4.866      0.038     9.9986     89.039     37.811  26.485636     0.8830      8.459   258.7968 1.7542e+00     3.8278      4.773      6.923    10.0470 0.0000e+00
      4.875      0.039    10.0170     89.138     37.834  26.498699     0.8655      8.450   258.8784 1.7513e+00     3.7936      4.783      6.937    10.0415 0.0000e+00
      4.880      0.041    10.0296     89.239     37.839  26.498907     0.8880      8.440   258.9925 1.7434e+00     3.8806      4.785      6.940    10.0322 0.0000e+00
      4.887      0.043    10.0364     89.320     37.829  26.488152     0.9141      8.431   259.2300 1.7265e+00     3.9243      4.789      6.946    10.0246 0.0000e+00
      4.901      0.043    10.0423     89.403     37.841  26.495501     0.9405      8.422   259.4267 1.6985e+00     3.8428      4.804      6.968    10.0199 0.0000e+00
      4.919      0.045    10.0567     89.493     37.878  26.524341     0.9653      8.413   259.6499 1.6653e+00     3.7832      4.826      7.000    10.0177 0.0000e+00
      4.933      0.048    10.0708     89.588     37.867  26.519738     0.9891      8.404   259.8629 1.6377e+00     3.8188      4.839      7.019    10.0137 0.0000e+00
      4.940      0.049    10.0788     89.671     37.842  26.503270     1.0044      8.395   260.0244 1.6250e+00     3.8636      4.845      7.026    10.0065 0.0000e+00
      4.948      0.049    10.0892     89.717     37.862  26.515501     0.9917      8.387   260.2251 1.6189e+00     3.8126      4.850      7.035    10.0047 0.0000e+00
      4.961      0.048    10.0986     89.713     37.904  26.540775     0.9684      8.378   260.3968 1.5985e+00     3.7821      4.861      7.051    10.0094 0.0000e+00
      4.979      0.048    10.1078     89.655     37.930  26.555161     0.9723      8.369   260.5517 1.5779e+00     3.8707      4.883      7.082    10.0157 0.0000e+00
      4.995      0.046    10.1187     89.594     37.942  26.562595     0.9727      8.359   260.8070 1.5618e+00     3.9617      4.900      7.108    10.0184 0.0000e+00
      5.006      0.043    10.1234     89.584     37.947  26.567227     0.9307      8.351   261.0753 1.5394e+00     3.9260      4.909      7.120    10.0155 0.0000e+00
      5.015      0.038    10.1271     89.609     37.920  26.547749     0.8901      8.342   261.3008 1.5309e+00     3.8152      4.918      7.133    10.0083 0.0000e+00
      5.022      0.033    10.1189     89.652     37.876  26.517350     0.8721      8.332   261.5537 1.5229e+00     3.7827      4.925      7.144    10.0015 0.0000e+00
      5.027      0.031    10.1088     89.722     37.870  26.516792     0.8626      8.324   261.8106 1.5010e+00     3.7721      4.928      7.149    10.0009 0.0000e+00
      5.034      0.032    10.1089     89.823     37.899  26.541005     0.8667      8.317   262.0837 1.4848e+00     3.7213      4.936      7.159    10.0043 0.0000e+00
      5.043      0.035    10.1129     89.924     37.920  26.556430     0.8887      8.309   262.2744 1.4700e+00     3.7502      4.946      7.174    10.0029 0.0000e+00
      5.052      0.040    10.1173     89.976     37.953  26.576445     0.9042      8.299   262.3959 1.4588e+00     3.8137      4.954      7.186    10.0012 0.0000e+00
      5.062      0.045    10.1233     89.962     37.985  26.592727     0.9050      8.289   262.6063 1.4545e+00     3.8406      4.964      7.198    10.0073 0.0000e+00
      5.074      0.049    10.1339     89.890     37.951  26.563019     0.8810      8.279   262.7535 1.4389e+00     3.9378      4.973      7.213    10.0148 0.0000e+00
      5.089      0.051    10.1485     89.809     37.916  26.534349     0.8145      8.271   262.8846 1.4185e+00     4.0333      4.989      7.236    10.0158 0.0000e+00
      5.104      0.052    10.1548     89.767     37.961  26.563190     0.7585      8.263   263.0726 1.4018e+00     4.0039      5.007      7.262    10.0109 0.0000e+00
      5.118      0.055    10.1561     89.769     38.007  26.594628     0.7520      8.253   263.2204 1.3780e+00     3.9929      5.019      7.280    10.0021 0.0000e+00
      5.131      0.057    10.1481     89.853     38.012  26.597346     0.7534      8.244   263.3813 1.3593e+00     4.0362      5.032      7.299     9.9930 0.0000e+00
      5.143      0.059    10.1359     89.995     38.013  26.596045     0.7416      8.236   263.5551 1.3552e+00     4.0154      5.044      7.315     9.9875 0.0000e+00
      5.156      0.061    10.1359     90.123     37.993  26.578904     0.7260      8.228   263.6868 1.3392e+00     3.9117      5.055      7.331     9.9850 0.0000e+00
      5.174      0.063    10.1308     90.241     37.998  26.580362     0.7060      8.219   263.6831 1.3025e+00     3.8082      5.074      7.359     9.9841 0.0000e+00
      5.194      0.064    10.1425     90.385     38.047  26.613670     0.7165      8.210   263.5966 1.2727e+00     3.8226      5.094      7.389     9.9838 0.0000e+00
      5.213      0.064    10.1640     90.533     38.028  26.601089     0.7452      8.202   263.6736 1.2536e+00     3.8464      5.114      7.416     9.9813 0.0000e+00
      5.229      0.062    10.1782     90.652     37.962  26.555093     0.7452      8.195   263.8397 1.2335e+00     3.7881      5.130      7.440     9.9765 0.0000e+00
      5.240      0.057    10.1903     90.749     37.977  26.564923     0.7329      8.187   263.9699 1.2185e+00     3.7668      5.137      7.452     9.9715 0.0000e+00
      5.255      0.053    10.2079     90.821     38.018  26.593084     0.7292      8.178   264.2159 1.2053e+00     3.8279      5.152      7.472     9.9709 0.0000e+00
      5.271      0.048    10.2270     90.901     37.997  26.578476     0.7341      8.170   264.4913 1.1889e+00     3.9129      5.173      7.502     9.9743 0.0000e+00
      5.283      0.045    10.2375     91.017     37.997  26.578566     0.7256      8.163   264.6313 1.1814e+00     3.9059      5.181      7.514     9.9742 0.0000e+00
      5.293      0.043    10.2512     91.124     38.016  26.594170     0.7011      8.156   264.7038 1.1817e+00     3.8116      5.190      7.527     9.9718 0.0000e+00
      5.303      0.043    10.2577     91.190     37.986  26.576872     0.6881      8.148   264.7668 1.1771e+00     3.7291      5.201      7.545     9.9718 0.0000e+00
      5.310      0.044    10.2633     91.249     37.960  26.559694     0.7014      8.140   264.7902 1.1691e+00     3.7622      5.207      7.553     9.9719 0.0000e+00
      5.319      0.048    10.2807     91.319     37.986  26.576743     0.7283      8.132   264.8143 1.1521e+00     3.9729      5.213      7.562     9.9712 0.0000e+00
      5.333      0.053    10.2934     91.376     38.014  26.592741     0.7300      8.124   264.8870 1.1224e+00     4.1240      5.228      7.583     9.9751 0.0000e+00
      5.349      0.056    10.2970     91.409     37.978  26.562850     0.7051      8.116   265.0667 1.0951e+00     4.0524      5.245      7.607     9.9809 0.0000e+00
      5.366      0.057    10.3021     91.412     37.940  26.532439     0.7030      8.109   265.3521 1.0804e+00     3.9950      5.261      7.630     9.9819 0.0000e+00
      5.384      0.060    10.3127     91.399     37.956  26.542157     0.7372      8.102   265.5844 1.0781e+00     4.0109      5.282      7.660     9.9806 0.0000e+00
      5.398      0.065    10.3200     91.399     37.973  26.553505     0.7613      8.095   265.6386 1.0776e+00     3.9715      5.297      7.682     9.9761 0.0000e+00
      5.408      0.070    10.3260     91.384     37.960  26.542797     0.7529      8.089   265.6633 1.0628e+00     3.9968      5.303      7.692     9.9679 0.0000e+00
      5.422      0.073    10.3282     91.339     37.958  26.539530     0.7438      8.082   265.8835 1.0377e+00     4.1123      5.313      7.706     9.9624 0.0000e+00
      5.445      0.073    10.3231     91.280     38.015  26.577421     0.7504      8.074   266.1491 1.0217e+00     4.1719      5.338      7.742     9.9615 0.0000e+00
      5.473      0.070    10.3262     91.209     38.076  26.620404     0.7503      8.067   266.2937 1.0095e+00     4.1374      5.370      7.789     9.9615 0.0000e+00
      5.497      0.062    10.3260     91.134     38.064  26.615272     0.7418      8.060   266.4276 9.9052e-01     4.0711      5.393      7.822     9.9597 0.0000e+00
      5.513      0.052    10.3196     91.069     38.006  26.578793     0.7482      8.054   266.6492 9.8152e-01     4.0875      5.411      7.847     9.9562 0.0000e+00
      5.521      0.040    10.3146     91.013     37.973  26.559882     0.7689      8.047   266.8229 9.8556e-01     4.1640      5.418      7.857     9.9532 0.0000e+00
      5.522      0.030    10.3061     90.944     37.990  26.576890     0.7846      8.041   266.8931 9.8122e-01     4.1767      5.414      7.852     9.9533 0.0000e+00
      5.524      0.023    10.2954     90.875     38.007  26.594174     0.7801      8.034   266.9810 9.7437e-01     4.1045      5.416      7.855     9.9582 0.0000e+00
      5.532      0.022    10.2865     90.810     37.981  26.578591     0.7721      8.028   267.1111 9.7128e-01     4.0761      5.425      7.868     9.9645 0.0000e+00
      5.541      0.026    10.2810     90.728     37.981  26.578761     0.7963      8.022   267.1758 9.5548e-01     4.2100      5.434      7.881     9.9693 0.0000e+00
      5.547      0.034    10.2701     90.649     38.009  26.596231     0.8314      8.016   267.0749 9.3692e-01     4.3574      5.441      7.891     9.9768 0.0000e+00
      5.552      0.044    10.2595     90.590     38.020  26.599546     0.8300      8.010   267.0968 9.3168e-01     4.3544      5.444      7.895     9.9847 0.0000e+00
      5.560      0.052    10.2541     90.533     38.057  26.618832     0.8048      8.005   267.2676 9.2877e-01     4.2760      5.448      7.903     9.9886 0.0000e+00
      5.576      0.057    10.2423     90.461     38.097  26.639143     0.8020      7.999   267.3332 9.1223e-01     4.3323      5.466      7.927     9.9888 0.0000e+00
      5.598      0.061    10.2333     90.372     38.127  26.654850     0.8370      7.994   267.4602 8.8149e-01     4.5564      5.491      7.963     9.9865 0.0000e+00
      5.620      0.065    10.2294     90.260     38.171  26.681884     0.8787      7.988   267.5981 8.5007e-01     4.6636      5.514      7.997     9.9799 0.0000e+00
      5.637      0.068    10.2266     90.099     38.217  26.712309     0.8890      7.983   267.6246 8.3466e-01     4.6037      5.530      8.021     9.9692 0.0000e+00
      5.648      0.070    10.2203     89.859     38.301  26.769020     0.8953      7.977   267.6938 8.3018e-01     4.7539      5.538      8.033     9.9593 0.0000e+00
      5.659      0.071    10.2122     89.527     38.433  26.860182     0.9295      7.971   267.7466 8.1658e-01     5.1471      5.545      8.043     9.9519 0.0000e+00
      5.679      0.073    10.2023     89.133     38.529  26.926612     0.9451      7.964   267.7461 7.9858e-01     5.3278      5.567      8.075     9.9477 0.0000e+00
      5.704      0.074    10.1847     88.672     38.548  26.937981     0.9339      7.958   267.8606 7.8451e-01     5.2653      5.596      8.116     9.9453 0.0000e+00
      5.729      0.072    10.1609     88.096     38.545  26.934207     0.9443      7.954   267.9264 7.5630e-01     5.3813      5.618      8.148     9.9431 0.0000e+00
      5.750      0.067    10.1198     87.394     38.560  26.944402     0.9795      7.949   267.7668 7.2225e-01     5.7398      5.640      8.180     9.9423 0.0000e+00
      5.765      0.061    10.0759     86.554     38.637  26.997829     1.0103      7.944   267.6514 7.1797e-01     6.0470      5.658      8.206     9.9410 0.0000e+00
      5.773      0.055    10.0284     85.567     38.746  27.072785     1.0084      7.940   267.6500 7.2053e-01     6.3634      5.661      8.211     9.9384 0.0000e+00
      5.780      0.051     9.9629     84.508     38.772  27.089596     1.0229      7.935   267.5775 6.9960e-01     9.3260      5.664      8.215     9.9359 0.0000e+00
      5.795      0.050     9.8840     83.466     38.752  27.074239     1.1022      7.931   267.5499 6.7744e-01    14.8820      5.682      8.240     9.9348 0.0000e+00
      5.812      0.051     9.7910     82.446     38.758  27.077384     1.1677      7.926   267.6604 6.6940e-01    18.0300      5.702      8.270     9.9351 0.0000e+00
      5.826      0.051     9.6761     81.502     38.739  27.064198     1.1908      7.921   267.7082 6.6724e-01    19.2415      5.715      8.288     9.9350 0.0000e+00
      5.838      0.048     9.5500     80.709     38.707  27.041654     1.3156      7.916   267.6982 6.5975e-01    29.1893      5.725      8.303     9.9324 0.0000e+00
      5.851      0.042     9.4368     80.058     38.731  27.058508     1.5449      7.912   267.7980 6.4810e-01    47.3750      5.739      8.324     9.9302 0.0000e+00
      5.862      0.035     9.3186     79.557     38.850  27.141123     1.6826      7.908   267.9679 6.4127e-01    57.3612      5.751      8.341     9.9294 0.0000e+00
      5.870      0.029     9.2061     79.200     39.048  27.279453     1.7146      7.905   268.1181 6.4111e-01    58.4182      5.756      8.349     9.9287 0.0000e+00
      5.875      0.024     9.1208     78.927     39.221  27.399111     1.7325      7.901   268.2375 6.4231e-01    59.9504      5.762      8.357     9.9288 0.0000e+00
      5.880      0.019     9.0447     78.727     39.290  27.446239     2.0150      7.897   268.3788 6.4069e-01    76.5359      5.766      8.364     9.9289 0.0000e+00
      5.884      0.015     8.9874     78.627     39.324  27.468728     2.5679      7.892   268.6216 6.3525e-01   107.0112      5.771      8.370     9.9288 0.0000e+00
      5.887      0.013     8.9520     78.601     39.432  27.544170     2.8742      7.888   268.8511 6.3189e-01   123.6197      5.774      8.375     9.9285 0.0000e+00
      5.889      0.013     8.9210     78.566     39.599  27.660707     2.8793      7.884   269.0018 6.3592e-01   124.5875      5.775      8.377     9.9273 0.0000e+00
      5.891      0.013     8.8970     78.496     39.708  27.736093     2.4638      7.882   269.1538 6.4262e-01   118.4387      5.777      8.379     9.9256 0.0000e+00
      5.894      0.014     8.8858     78.390     39.740  27.757969     1.6794      7.879   269.2258 6.4283e-01   106.9712      5.779      8.382     9.9239 0.0000e+00
      5.898      0.015     8.8893     78.218     39.797  27.798358     1.2515      7.876   269.3566 6.3494e-01   100.5742      5.784      8.389     9.9232 0.0000e+00
      5.903      0.016     8.8854     78.008     39.861  27.843869     1.1855      7.872   269.7024 6.2239e-01    97.8312      5.790      8.398     9.9235 0.0000e+00
      5.908      0.015     8.8755     77.774     39.797  27.800826     0.8652      7.869   270.0514 6.1856e-01    73.3277      5.794      8.404     9.9222 0.0000e+00
      5.912      0.012     8.8686     77.490     39.592  27.658494     0.2747      7.865   270.3072 6.3212e-01    28.4243      5.797      8.409     9.9218 0.0000e+00
      5.917      0.006     8.8448     77.188     39.298  27.454902    -0.0364      7.862   270.6447 6.3410e-01     4.0358      5.803      8.416     9.9226 0.0000e+00
      5.919      0.000     8.8205     76.918     38.990  27.241992    -0.0331      7.858   271.0337 6.2271e-01     2.8078      5.807      8.422     9.9237 0.0000e+00
      5.919     -0.008     8.7968     76.703     38.800  27.113837     0.0225      7.856   271.2248 6.2907e-01    12.5859      5.805      8.420     9.9258 0.0000e+00
      5.915     -0.015     8.7618     76.576     38.789  27.110471     0.1038      7.854   271.3206 6.3633e-01    30.7833      5.801      8.414     9.9276 0.0000e+00
      5.909     -0.020     8.7244     76.574     38.823  27.137879     0.1509      7.851   271.4174 6.3468e-01    40.8979      5.795      8.405     9.9287 0.0000e+00
      5.901     -0.022     8.6941     76.731     38.806  27.128105     0.2004      7.848   271.3634 6.4353e-01    43.5726      5.787      8.393     9.9308 0.0000e+00
      5.892     -0.020     8.6666     77.093     38.791  27.119147     0.5616      7.845   271.2694 6.4907e-01    62.2691      5.778      8.381     9.9374 0.0000e+00
      5.886     -0.017     8.6487     77.638     38.841  27.156417     1.1716      7.842   271.3144 6.4683e-01    96.2268      5.772      8.371     9.9446 0.0000e+00
      5.883     -0.016     8.6481     78.309     38.898  27.198182     1.4759      7.840   271.5634 6.4330e-01   114.6408      5.769      8.367     9.9482 0.0000e+00
      5.882     -0.021     8.6607     79.076     38.778  27.116725     1.4860      7.837   271.9560 6.3359e-01   116.1298      5.768      8.366     9.9508 0.0000e+00
      5.882     -0.033     8.7030     79.848     38.511  26.932625     1.4852      7.834   272.2760 6.3035e-01   115.1182      5.769      8.368     9.9531 0.0000e+00
      5.879     -0.051     8.7684     80.523     38.329  26.811562     1.4319      7.831   272.5066 6.4018e-01   102.7175      5.768      8.367     9.9553 0.0000e+00
      5.869     -0.070     8.8418     81.057     38.293  26.794599     1.3080      7.828   272.6793 6.5975e-01    79.9105      5.761      8.356     9.9591 0.0000e+00
      5.844     -0.081     8.9325     81.462     38.275  26.790960     1.2188      7.827   272.7293 6.9183e-01    67.3070      5.738      8.322     9.9616 0.0000e+00
      5.805     -0.085     9.0255     81.843     38.232  26.767580     1.2028      7.825   272.6813 7.2163e-01    65.2073      5.693      8.257     9.9635 0.0000e+00
      5.769     -0.085     9.0992     82.260     38.224  26.765615     1.1891      7.822   272.7010 7.3472e-01    54.6608      5.650      8.194     9.9713 0.0000e+00
      5.749     -0.082     9.1599     82.760     38.228  26.767205     1.1451      7.820   272.8823 7.3920e-01    35.4022      5.633      8.168     9.9840 0.0000e+00
      5.743     -0.077     9.1942     83.450     38.169  26.723378     1.1112      7.817   273.0662 7.4197e-01    24.8750      5.632      8.169     9.9969 0.0000e+00
      5.737     -0.073     9.2337     84.305     38.108  26.679663     1.0966      7.814   273.2031 7.5200e-01    23.6040      5.630      8.167    10.0065 0.0000e+00
      5.720     -0.069     9.2821     85.227     38.112  26.682616     1.0684      7.812   273.2475 7.7659e-01    20.3082      5.614      8.141    10.0106 0.0000e+00
      5.692     -0.068     9.3276     86.134     38.131  26.695658     1.0195      7.810   273.2582 8.0565e-01    14.4712      5.583      8.097    10.0091 0.0000e+00
      5.662     -0.069     9.4119     86.944     38.155  26.710505     0.9800      7.809   273.4188 8.2126e-01    11.2374      5.548      8.047    10.0032 0.0000e+00
      5.642     -0.070     9.5125     87.602     38.195  26.735287     0.9740      7.808   273.5543 8.2442e-01    10.9614      5.526      8.014    10.0015 0.0000e+00
      5.636     -0.072     9.6186     88.114     38.206  26.741595     0.9882      7.807   273.6928 8.2972e-01    11.1681      5.526      8.015    10.0034 0.0000e+00
      5.632     -0.077     9.7253     88.511     38.179  26.723353     1.0012      7.804   273.8878 8.5357e-01    11.4481      5.529      8.020    10.0035 0.0000e+00
      5.615     -0.087     9.8194     88.764     38.151  26.705007     0.9982      7.802   273.9334 8.9853e-01    11.5126      5.510      7.992    10.0002 0.0000e+00
      5.586     -0.097     9.8952     88.867     38.156  26.710044     0.9857      7.800   273.9008 9.4813e-01    11.4352      5.479      7.947     9.9945 0.0000e+00
      5.552     -0.102     9.9496     88.858     38.167  26.720828     0.9741      7.798   273.8368 1.0029e+00    11.7414      5.448      7.902     9.9928 0.0000e+00
      5.513     -0.097     9.9974     88.765     38.144  26.708558     0.9581      7.797   273.8481 1.0452e+00    12.4828      5.406      7.839     9.9951 0.0000e+00
      5.480     -0.087    10.0262     88.659     38.110  26.688538     0.9508      7.796   273.9513 1.0587e+00    12.9181      5.367      7.783     9.9967 0.0000e+00
      5.462     -0.078    10.0340     88.610     38.080  26.669039     0.9439      7.794   273.9660 1.0466e+00    12.8716      5.351      7.761     9.9978 0.0000e+00
      5.459     -0.074    10.0328     88.595     38.070  26.663064     0.9244      7.792   273.9397 1.0201e+00    12.7405      5.353      7.764    10.0020 0.0000e+00
      5.457     -0.076    10.0174     88.589     38.091  26.679723     0.9153      7.791   273.8913 1.0176e+00    12.4938      5.357      7.770    10.0089 0.0000e+00
      5.440     -0.086     9.9994     88.621     38.088  26.680193     0.9081      7.790   273.8973 1.0470e+00    12.0747      5.340      7.747    10.0133 0.0000e+00
      5.407     -0.101     9.9970     88.700     38.066  26.668754     0.8872      7.789   274.0127 1.1000e+00    11.7719      5.303      7.693    10.0137 0.0000e+00
      5.370     -0.114     9.9964     88.796     38.061  26.668272     0.8631      7.787   274.0821 1.1555e+00    11.5319      5.266      7.637    10.0153 0.0000e+00
      5.335     -0.122     9.9925     88.892     38.068  26.674362     0.8329      7.785   274.2194 1.1921e+00    10.3001      5.231      7.588    10.0180 0.0000e+00
      5.302     -0.126     9.9951     88.982     38.076  26.678967     0.8047      7.784   274.4689 1.2217e+00     8.1850      5.198      7.539    10.0214 0.0000e+00
      5.272     -0.129    10.0043     89.042     38.051  26.660523     0.8059      7.784   274.6034 1.2378e+00     7.0349      5.168      7.495    10.0276 0.0000e+00
      5.247     -0.134    10.0148     89.072     38.024  26.641638     0.8139      7.783   274.6417 1.2547e+00     6.8473      5.146      7.463    10.0333 0.0000e+00
      5.218     -0.140    10.0247     89.102     38.026  26.640901     0.8013      7.781   274.5878 1.3102e+00     6.3273      5.123      7.430    10.0337 0.0000e+00
      5.177     -0.147    10.0376     89.167     38.045  26.651608     0.7864      7.780   274.4682 1.3882e+00     5.4608      5.079      7.367    10.0299 0.0000e+00
      5.130     -0.154    10.0443     89.248     38.038  26.644239     0.7674      7.780   274.4855 1.4547e+00     4.9442      5.027      7.291    10.0300 0.0000e+00
      5.087     -0.159    10.0458     89.306     38.001  26.615228     0.7466      7.780   274.6247 1.5014e+00     4.7617      4.987      7.233    10.0314 0.0000e+00
      5.048     -0.161    10.0483     89.382     38.009  26.617955     0.7425      7.781   274.7747 1.5406e+00     4.4838      4.951      7.180    10.0280 0.0000e+00
      5.010     -0.161    10.0566     89.526     38.007  26.613780     0.7515      7.781   274.9225 1.5970e+00     4.1801      4.914      7.126    10.0238 0.0000e+00
      4.970     -0.161    10.0708     89.709     37.940  26.564749     0.7712      7.782   274.9499 1.6606e+00     4.0947      4.875      7.070    10.0215 0.0000e+00
      4.930     -0.162    10.0748     89.891     37.897  26.532509     0.7730      7.782   274.8476 1.7215e+00     4.1007      4.834      7.011    10.0172 0.0000e+00
      4.888     -0.159    10.0810     90.054     37.914  26.541074     0.7481      7.781   274.8036 1.8124e+00     4.0821      4.795      6.955    10.0122 0.0000e+00
      4.843     -0.150    10.1016     90.194     37.919  26.541466     0.7541      7.781   274.7631 1.9289e+00     4.1081      4.751      6.890    10.0087 0.0000e+00
      4.797     -0.137    10.1236     90.289     37.914  26.537250     0.8037      7.781   274.7014 2.0154e+00     4.1424      4.699      6.817    10.0064 0.0000e+00
      4.761     -0.121    10.1461     90.349     37.939  26.553520     0.8392      7.781   274.7456 2.0619e+00     4.1896      4.663      6.764    10.0042 0.0000e+00
      4.736     -0.103    10.1645     90.390     37.931  26.547910     0.8259      7.781   274.7812 2.1064e+00     4.1665      4.643      6.734     9.9988 0.0000e+00
      4.719     -0.086    10.1835     90.407     37.910  26.532849     0.8257      7.781   274.8734 2.1615e+00     4.1028      4.628      6.711     9.9944 0.0000e+00
      4.703     -0.076    10.1940     90.446     37.953  26.561680     0.8954      7.781   275.0862 2.2156e+00     4.1368      4.613      6.689     9.9939 0.0000e+00
      4.685     -0.073    10.1978     90.500     37.980  26.579391     0.9520      7.781   275.2029 2.2588e+00     4.1328      4.593      6.662     9.9931 0.0000e+00
      4.670     -0.078    10.2075     90.529     37.946  26.556724     0.9525      7.780   275.1659 2.3065e+00     4.0544      4.579      6.642     9.9921 0.0000e+00
      4.653     -0.085    10.2029     90.543     37.920  26.541312     0.9524      7.780   275.0702 2.3844e+00     3.9746      4.568      6.624     9.9921 0.0000e+00
      4.629     -0.095    10.2098     90.544     37.884  26.519898     0.9665      7.780   275.0779 2.4759e+00     3.8854      4.542      6.587     9.9900 0.0000e+00
      4.601     -0.105    10.2195     90.513     37.833  26.488075     0.9907      7.780   275.1727 2.5619e+00     3.8986      4.510      6.541     9.9882 0.0000e+00
      4.572     -0.114    10.2197     90.435     37.806  26.473664     0.9947      7.780   275.2697 2.6595e+00     3.9289      4.484      6.504     9.9900 0.0000e+00
      4.542     -0.118    10.2218     90.341     37.798  26.472508     0.9575      7.780   275.3911 2.7671e+00     3.8414      4.456      6.463     9.9937 0.0000e+00
      4.510     -0.114    10.2200     90.231     37.793  26.474103     0.9324      7.780   275.4356 2.8796e+00     3.7978      4.423      6.415     9.9990 0.0000e+00
      4.475     -0.106    10.2184     90.083     37.815  26.492953     0.9408      7.781   275.4633 2.9950e+00     3.8792      4.387      6.363    10.0045 0.0000e+00
      4.443     -0.099    10.2042     89.873     37.839  26.510154     0.9500      7.782   275.6405 3.0806e+00     3.9380      4.352      6.313    10.0094 0.0000e+00
      4.421     -0.097    10.1930     89.552     37.812  26.491818     0.9862      7.782   275.8570 3.1275e+00     3.8936      4.331      6.282    10.0159 0.0000e+00
      4.408     -0.099    10.1804     89.136     37.763  26.461513     1.0535      7.781   276.0165 3.1601e+00     3.8543      4.324      6.270    10.0239 0.0000e+00
      4.394     -0.104    10.1615     88.709     37.751  26.460860     1.1057      7.781   276.0198 3.2293e+00     3.9075      4.316      6.259    10.0293 0.0000e+00
      4.366     -0.109    10.1426     88.330     37.772  26.483931     1.1345      7.780   275.8973 3.3645e+00     3.9561      4.288      6.218    10.0281 0.0000e+00
      4.326     -0.115    10.1060     87.976     37.767  26.486786     1.1280      7.780   275.9113 3.5175e+00     3.8954      4.241      6.152    10.0261 0.0000e+00
      4.286     -0.121    10.0525     87.526     37.774  26.495381     1.1263      7.780   276.0173 3.6462e+00     3.8571      4.199      6.091    10.0322 0.0000e+00
      4.255     -0.126     9.9994     86.860     37.809  26.524438     1.1724      7.780   276.1468 3.7522e+00     3.9714      4.170      6.048    10.0448 0.0000e+00
      4.230     -0.129     9.9539     85.983     37.793  26.521005     1.2198      7.780   276.3575 3.8522e+00     4.1158      4.149      6.017    10.0568 0.0000e+00
      4.205     -0.132     9.9178     84.990     37.768  26.517297     1.2408      7.780   276.5002 3.9765e+00     4.1343      4.126      5.984    10.0648 0.0000e+00
      4.172     -0.136     9.8732     83.954     37.775  26.543049     1.2429      7.780   276.4966 4.1508e+00     4.0588      4.095      5.939    10.0689 0.0000e+00
      4.132     -0.143     9.7958     82.896     37.797  26.578701     1.2620      7.781   276.4857 4.3749e+00     4.0561      4.054      5.880    10.0730 0.0000e+00
      4.087     -0.150     9.6901     81.756     37.849  26.631274     1.2968      7.781   276.5406 4.6142e+00     4.1364      4.007      5.813    10.0809 0.0000e+00
      4.047     -0.156     9.5709     80.335     37.878  26.671335     1.3061      7.781   276.6446 4.8308e+00     4.2094      3.966      5.752    10.0999 0.0000e+00
      4.011     -0.158     9.4476     78.559     37.851  26.682558     1.2919      7.780   276.7951 5.0425e+00     4.2558      3.935      5.707    10.1309 0.0000e+00
      3.974     -0.157     9.3205     76.562     37.836  26.703579     1.2740      7.780   276.8985 5.3027e+00     4.2531      3.901      5.657    10.1615 0.0000e+00
      3.931     -0.152     9.2021     74.436     37.847  26.735266     1.2811      7.780   276.8632 5.5932e+00     4.2790      3.855      5.592    10.1771 0.0000e+00
      3.888     -0.146     9.0430     72.176     37.841  26.748593     1.3029      7.780   276.7981 5.8668e+00     4.3644      3.811      5.527    10.1965 0.0000e+00
      3.848     -0.139     8.8221     69.770     37.806  26.737884     1.2959      7.780   276.7992 6.1206e+00     4.4650      3.770      5.468    10.2448 0.0000e+00
      3.814     -0.129     8.5868     67.316     37.772  26.732645     1.2726      7.780   276.7909 6.3367e+00     4.6081      3.738      5.421    10.2919 0.0000e+00
      3.786     -0.117     8.3434     65.063     37.751  26.748691     1.2707      7.781   276.7839 6.5359e+00     4.7283      3.714      5.386    10.3191 0.0000e+00
      3.759     -0.108     8.0879     63.285     37.690  26.741665     1.2894      7.782   276.7994 6.7482e+00     4.7906      3.687      5.348    10.3439 0.0000e+00
      3.733     -0.105     7.8119     62.020     37.609  26.711147     1.3245      7.782   276.8073 6.9530e+00     4.6783      3.659      5.306    10.3579 0.0000e+00
      3.711     -0.108     7.5242     61.020     37.569  26.696844     1.3614      7.782   276.8783 7.1524e+00     4.3956      3.638      5.276    10.3755 0.0000e+00
      3.688     -0.112     7.2498     60.006     37.549  26.695595     1.3779      7.781   276.7984 7.4049e+00     4.3106      3.620      5.250    10.4223 0.0000e+00
      3.658     -0.114     7.0394     58.881     37.519  26.696055     1.3993      7.781   276.4442 7.7588e+00     4.4018      3.590      5.208    10.4784 0.0000e+00
      3.622     -0.111     6.9051     57.685     37.496  26.702436     1.4530      7.782   276.2082 8.1611e+00     4.3366      3.551      5.151    10.5187 0.0000e+00
      3.586     -0.101     6.8055     56.527     37.487  26.709341     1.5025      7.784   276.0966 8.5390e+00     4.1026      3.514      5.096    10.5263 0.0000e+00
      3.556     -0.084     6.6930     55.503     37.500  26.716144     1.5075      7.784   275.8683 8.8345e+00     3.8949      3.484      5.052    10.5395 0.0000e+00
      3.536     -0.062     6.5601     54.610     37.520  26.721257     1.5056      7.785   275.5996 9.0203e+00     3.8414      3.463      5.024    10.5734 0.0000e+00
      3.525     -0.044     6.4176     53.886     37.512  26.707729     1.5216      7.786   275.3423 9.0899e+00     3.9001      3.454      5.011    10.6094 0.0000e+00
      3.523     -0.038     6.2782     53.471     37.478  26.679417     1.5087      7.787   275.1668 9.0490e+00     3.8181      3.452      5.007    10.6340 0.0000e+00
      3.528     -0.047     6.1700     53.481     37.399  26.632623     1.4657      7.788   275.1130 9.0130e+00     3.6024      3.459      5.017    10.6214 0.0000e+00
      3.530     -0.068     6.0721     53.859     37.292  26.585925     1.4433      7.790   274.9491 9.1692e+00     3.5120      3.468      5.030    10.6032 0.0000e+00
      3.514     -0.094     5.9851     54.403     37.195  26.558785     1.4535      7.793   274.6486 9.6582e+00     3.5457      3.454      5.011    10.5970 0.0000e+00
      3.474     -0.119     5.9348     54.923     37.140  26.558225     1.4731      7.794   274.4049 1.0433e+01     3.4623      3.412      4.948    10.5852 0.0000e+00
      3.424     -0.138     5.9367     55.260     37.137  26.579184     1.4723      7.797   274.2391 1.1275e+01     3.1868      3.356      4.867    10.5902 0.0000e+00
      3.378     -0.149     5.9834     55.292     37.099  26.558536     1.4514      7.801   274.1931 1.1999e+01     3.0512      3.308      4.798    10.6388 0.0000e+00
      3.340     -0.149     6.0416     55.008     36.995  26.498855     1.4542      7.804   274.1926 1.2611e+01     3.1540      3.273      4.748    10.6992 0.0000e+00
      3.309     -0.140     6.0964     54.519     36.835  26.428398     1.5224      7.808   273.9745 1.3251e+01     3.2683      3.245      4.706    10.7612 0.0000e+00
      3.277     -0.125     6.1354     54.035     36.613  26.340920     1.6187      7.811   273.4488 1.4024e+01     3.2716      3.215      4.662    10.7939 0.0000e+00
      3.243     -0.105     6.1396     53.759     36.381  26.265735     1.6699      7.816   272.8270 1.4887e+01     3.2290      3.180      4.613    10.7885 0.0000e+00
      3.209     -0.082     6.1032     53.772     36.138  26.217080     1.6834      7.820   272.3926 1.5637e+01     3.2986      3.143      4.559    10.7938 0.0000e+00
      3.184     -0.056     6.0315     54.034     35.896  26.196719     1.7323      7.825   272.1552 1.6015e+01     3.4302      3.116      4.519    10.8549 0.0000e+00
      3.175     -0.031     5.9526     54.337     35.734  26.209991     1.8112      7.830   272.0208 1.5991e+01     3.4202      3.110      4.510    10.9679 0.0000e+00
      3.180     -0.015     5.9059     54.346     35.696  26.250849     1.8392      7.834   271.9728 1.5743e+01     3.2795      3.116      4.520    11.0749 0.0000e+00
      3.190     -0.013     5.8836     53.785     35.771  26.310280     1.8289      7.838   271.9189 1.5446e+01     3.1984      3.129      4.539    11.2491 0.0000e+00
      3.200     -0.028     5.8855     52.579     35.884  26.357780     1.7947      7.843   271.7129 1.5341e+01     3.3276      3.142      4.557    11.5035 0.0000e+00
      3.199     -0.053     5.9069     50.909     35.987  26.381173     1.7346      7.848   271.3744 1.5686e+01     3.5771      3.144      4.559    11.7076 0.0000e+00
      3.180     -0.080     5.9059     49.099     36.101  26.402796     1.7015      7.853   271.0964 1.6594e+01     3.6545      3.127      4.535    11.7998 0.0000e+00
      3.143     -0.100     5.8505     47.498     36.227  26.428893     1.6932      7.859   270.9334 1.7854e+01     3.5804      3.085      4.475    11.7930 0.0000e+00
      3.099     -0.105     5.7194     46.388     36.322  26.442948     1.7002      7.864   270.7802 1.9051e+01     3.6023      3.036      4.402    11.7281 0.0000e+00
      3.060     -0.095     5.5346     45.954     36.367  26.445827     1.7367      7.869   270.4476 1.9983e+01     3.6456      2.997      4.347    11.6556 0.0000e+00
      3.035     -0.070     5.3346     46.278     36.417  26.463671     1.7849      7.872   270.0097 2.0529e+01     3.5923      2.972      4.309    11.5697 0.0000e+00
      3.023     -0.040     5.1612     47.245     36.468  26.468413     1.8086      7.875   269.8735 2.0600e+01     3.5387      2.960      4.293    11.4679 0.0000e+00
      3.023     -0.015     5.0439     48.574     36.470  26.439693     1.7986      7.879   270.0053 2.0350e+01     3.5095      2.962      4.296    11.3843 0.0000e+00
      3.032     -0.005     4.9958     50.059     36.438  26.433497     1.8223      7.882   269.9692 1.9955e+01     3.6157      2.973      4.311    11.3462 0.0000e+00
      3.044     -0.013     5.0353     51.598     36.409  26.456939     1.8863      7.885   269.6949 1.9629e+01     3.7975      2.987      4.331    11.3460 0.0000e+00
      3.050     -0.036     5.1617     52.997     36.411  26.469498     1.9074      7.889   269.4415 1.9694e+01     3.8285      2.997      4.346    11.2941 0.0000e+00
      3.043     -0.066     5.3260     54.019     36.438  26.458517     1.9028      7.893   269.3145 2.0403e+01     3.8541      2.992      4.339    11.2103 0.0000e+00
      3.016     -0.097     5.4834     54.567     36.465  26.450980     1.8804      7.897   269.1917 2.1717e+01     4.0382      2.963      4.298    11.2477 0.0000e+00
      2.976     -0.125     5.6476     54.772     36.439  26.441765     1.8198      7.901   269.0753 2.3312e+01     4.2787      2.918      4.232    11.3580 0.0000e+00
      2.932     -0.146     5.8086     54.850     36.333  26.410522     1.7775      7.906   269.0258 2.4931e+01     4.3371      2.873      4.167    11.3729 0.0000e+00
      2.890     -0.156     5.9364     54.946     36.212  26.390388     1.7765      7.911   268.8512 2.6504e+01     4.2316      2.835      4.110    11.2984 0.0000e+00
      2.851     -0.152     5.9965     55.095     36.092  26.388666     1.9905      7.914   268.4272 2.8141e+01     4.2667      2.796      4.055    11.2438 0.0000e+00
      2.811     -0.136     6.0065     55.221     35.967  26.389797     2.4014      7.916   267.9429 3.0031e+01     4.3861      2.759      4.001    11.2603 0.0000e+00
      2.768     -0.110     6.0001     55.242     35.874  26.404172     2.6165      7.919   267.6415 3.1997e+01     4.3433      2.715      3.937    11.3352 0.0000e+00
      2.733     -0.079     5.9950     55.117     35.799  26.435715     2.6189      7.922   267.5360 3.3278e+01     4.2610      2.672      3.876    11.4266 0.0000e+00
      2.715     -0.050     6.0001     54.821     35.666  26.454151     2.6221      7.926   267.5275 3.3418e+01     4.3813      2.655      3.851    11.5475 0.0000e+00
      2.717     -0.030     5.9963     54.360     35.455  26.436943     2.7964      7.929   267.5391 3.2867e+01     4.6363      2.660      3.859    11.6965 0.0000e+00
      2.729     -0.024     5.9857     53.776     35.288  26.418084     3.1199      7.931   267.5051 3.2261e+01     4.7828      2.676      3.882    11.7992 0.0000e+00
      2.739     -0.033     5.9593     53.070     35.259  26.416524     3.2788      7.934   267.4599 3.2125e+01     4.7871      2.691      3.903    11.8998 0.0000e+00
      2.737     -0.055     5.9062     52.238     35.322  26.418106     3.2701      7.938   267.4234 3.3057e+01     4.8246      2.692      3.906    12.0638 0.0000e+00
      2.714     -0.082     5.8219     51.391     35.428  26.437141     3.3729      7.942   267.3212 3.5116e+01     5.2354      2.668      3.870    12.2958 0.0000e+00
      2.675     -0.108     5.7357     50.694     35.518  26.456350     3.6061      7.946   267.2570 3.7452e+01     5.9282      2.622      3.803    12.4853 0.0000e+00
      2.634     -0.124     5.6616     50.234     35.552  26.460043     3.7591      7.949   267.1637 3.9453e+01     6.2672      2.580      3.742    12.4934 0.0000e+00
      2.599     -0.124     5.5803     49.998     35.634  26.545185     3.8074      7.952   266.7091 4.1342e+01     6.2252      2.548      3.695    12.3929 0.0000e+00
      2.567     -0.109     5.4930     49.989     35.725  26.724740     4.1318      7.957   266.1481 4.3412e+01     6.1039      2.519      3.653    12.3049 0.0000e+00
      2.536     -0.084     5.4251     50.306     35.609  26.855316     4.7516      7.960   265.8879 4.5341e+01     5.9618      2.485      3.604    12.2239 0.0000e+00
      2.511     -0.055     5.3815     50.981     35.327  26.919191     5.0923      7.960   265.7997 4.6359e+01     5.8402      2.455      3.561    12.1932 0.0000e+00
      2.501     -0.029     5.3560     51.831     35.057  26.989971     5.1796      7.962   265.6832 4.6228e+01     5.7610      2.447      3.549    12.2028 0.0000e+00
      2.504     -0.011     5.3347     52.673     34.774  27.013774     5.8329      7.965   265.5124 4.5428e+01     6.0970      2.454      3.560    12.3308 0.0000e+00
      2.515     -0.010     5.3210     53.452     34.405  26.890155     7.0237      7.968   265.2832 4.4516e+01     6.8960      2.466      3.576    12.6822 0.0000e+00
      2.527     -0.027     5.3535     54.053     34.156  26.700538     7.6829      7.971   265.0636 4.3794e+01     7.3949      2.480      3.596    13.1018 0.0000e+00
      2.532     -0.058     5.4017     54.283     34.272  26.623823     7.7109      7.976   265.0072 4.4064e+01     7.4152      2.490      3.611    13.5109 0.0000e+00
      2.517     -0.096     5.4448     54.077     34.596  26.660047     7.3043      7.981   265.0312 4.6519e+01     7.4825      2.480      3.596    13.8662 0.0000e+00
      2.475     -0.131     5.4935     53.607     34.826  26.694301     6.5705      7.985   264.9242 5.0711e+01     7.7648      2.432      3.528    14.1641 0.0000e+00
      2.418     -0.158     5.5600     53.086     34.930  26.720708     6.1879      7.990   264.7456 5.4965e+01     7.9930      2.368      3.435    14.2011 0.0000e+00
      2.365     -0.171     5.6302     52.600     35.003  26.789010     6.1574      7.994   264.5066 5.8575e+01     8.0216      2.317      3.358    13.8570 0.0000e+00
      2.320     -0.164     5.6471     52.193     35.135  26.949343     6.1342      7.999   264.1852 6.1968e+01     7.9060      2.275      3.298    13.4747 0.0000e+00
      2.279     -0.137     5.6126     51.959     35.200  27.137173     6.0578      8.003   263.8717 6.5567e+01     7.5170      2.236      3.243    13.2772 0.0000e+00
      2.239     -0.099     5.5658     52.057     35.006  27.220921     5.9574      8.005   263.5553 6.8508e+01     7.0079      2.192      3.181    13.2104 0.0000e+00
      2.209     -0.063     5.5081     52.517     34.741  27.264547     5.9284      8.007   263.3707 6.9445e+01     6.8051      2.156      3.128    13.2501 0.0000e+00
      2.203     -0.035     5.4559     53.169     34.514  27.284410     5.9810      8.011   263.3608 6.8440e+01     6.7390      2.152      3.121    13.3134 0.0000e+00
      2.215     -0.022     5.4047     53.938     34.252  27.207610     6.6520      8.016   263.3496 6.6599e+01     6.4481      2.171      3.149    13.4683 0.0000e+00
      2.231     -0.027     5.3609     54.748     34.074  27.097222     7.9160      8.020   263.2347 6.5295e+01     6.0888      2.191      3.179    13.8837 0.0000e+00
      2.237     -0.048     5.3763     55.415     34.066  27.027963     8.6128      8.025   263.0909 6.5766e+01     5.9818      2.201      3.192    14.2736 0.0000e+00
      2.222     -0.080     5.4096     55.824     34.159  27.004354     8.6675      8.030   262.9870 6.8556e+01     6.0420      2.189      3.175    14.5430 0.0000e+00
      2.186     -0.115     5.4610     55.974     34.262  27.001924     8.3615      8.035   262.9245 7.3063e+01     6.2021      2.149      3.116    14.7764 0.0000e+00
      2.137     -0.140     5.5490     55.925     34.327  26.998480     7.7597      8.041   262.9385 7.7737e+01     6.5179      2.094      3.036    14.8152 0.0000e+00
      2.089     -0.148     5.6363     55.771     34.478  27.089499     7.4331      8.046   262.8116 8.1861e+01     6.7172      2.048      2.969    14.6780 0.0000e+00
      2.047     -0.136     5.6976     55.580     34.673  27.277876     7.4251      8.050   262.5089 8.6025e+01     6.7668      2.006      2.911    14.5148 0.0000e+00
      2.008     -0.109     5.7272     55.426     34.617  27.373449     7.6139      8.054   262.3758 8.9944e+01     7.1178      1.966      2.852    14.3829 0.0000e+00
      1.979     -0.074     5.7267     55.499     34.435  27.420721     7.9506      8.059   262.4923 9.2208e+01     7.7159      1.935      2.806    14.3166 0.0000e+00
      1.966     -0.041     5.7144     55.869     34.342  27.532542     8.1339      8.063   262.5419 9.2245e+01     8.0545      1.923      2.788    14.2585 0.0000e+00
      1.968     -0.016     5.6981     56.537     34.166  27.584040     8.1814      8.067   262.2010 9.1030e+01     8.1716      1.927      2.795    14.2552 0.0000e+00
      1.979     -0.009     5.6373     57.576     33.886  27.536219     8.3340      8.072   261.6395 8.9711e+01     8.2771      1.939      2.813    14.5090 0.0000e+00
      1.990     -0.021     5.6041     58.914     33.668  27.461961     8.5649      8.077   261.3460 8.8789e+01     8.3748      1.952      2.833    14.8383 0.0000e+00
      1.995     -0.051     5.6185     60.376     33.570  27.383991     8.6758      8.082   261.4049 8.9513e+01     8.4299      1.962      2.846    15.0622 0.0000e+00
      1.984     -0.089     5.6393     61.811     33.623  27.354581     8.6918      8.088   261.5782 9.3579e+01     8.4990      1.956      2.836    15.3669 0.0000e+00
      1.949     -0.128     5.7115     63.101     33.732  27.359976     8.6845      8.095   261.7206 1.0050e+02     8.5616      1.918      2.782    15.6761 0.0000e+00
      1.896     -0.161     5.8308     64.116     33.757  27.322267     8.4712      8.102   261.7496 1.0826e+02     8.4010      1.860      2.697    15.8339 0.0000e+00
      1.840     -0.182     5.9818     64.733     33.766  27.279121     8.1014      8.108   261.6716 1.1601e+02     8.1292      1.804      2.615    15.8320 0.0000e+00
      1.788     -0.187     6.1478     64.891     33.912  27.345634     7.9089      8.115   261.4648 1.2382e+02     8.0079      1.752      2.541    15.6721 0.0000e+00
      1.739     -0.172     6.2994     64.648     34.175  27.555591     7.9087      8.123   260.9701 1.3197e+02     8.0266      1.706      2.473    15.5308 0.0000e+00
      1.691     -0.144     6.4155     64.273     34.301  27.788080     8.0397      8.132   260.2493 1.4000e+02     7.8427      1.658      2.404    15.4622 0.0000e+00
      1.648     -0.110     6.4873     64.143     34.161  27.936909     8.2451      8.140   259.7190 1.4600e+02     7.3225      1.610      2.335    15.3986 0.0000e+00
      1.622     -0.075     6.5165     64.555     33.902  28.023464     8.3361      8.149   259.4633 1.4835e+02     6.9288      1.583      2.296    15.3031 0.0000e+00
      1.616     -0.044     6.4930     65.869     33.650  28.073869     8.3499      8.159   259.2218 1.4789e+02     6.8746      1.582      2.293    15.2263 0.0000e+00
      1.620     -0.019     6.4117     68.574     33.442  28.102698     8.4038      8.169   259.0365 1.4696e+02     7.0088      1.588      2.303    15.4189 0.0000e+00
      1.626     -0.008     6.3290     72.880     33.279  28.118570     8.4876      8.180   258.6005 1.4678e+02     7.2191      1.595      2.313    15.8776 0.0000e+00
      1.630     -0.014     6.2958     78.418     33.108  28.075686     8.5306      8.191   257.6494 1.4732e+02     7.3331      1.599      2.318    16.3564 0.0000e+00
      1.630     -0.035     6.3504     84.512     32.930  27.964882     8.5169      8.203   256.9152 1.4837e+02     7.2944      1.599      2.320    16.7425 0.0000e+00
      1.625     -0.063     6.5622     90.590     32.840  27.857139     8.4883      8.215   256.6915 1.5094e+02     7.0931      1.597      2.316    17.0381 0.0000e+00
      1.607     -0.093     6.9596     96.119     32.863  27.787747     8.4503      8.226   256.5801 1.5716e+02     6.7093      1.583      2.296    17.2677 0.0000e+00
      1.572     -0.117     7.4955    100.447     32.965  27.760002     8.4075      8.236   256.4284 1.6629e+02     6.4111      1.545      2.241    17.4284 0.0000e+00
      1.528     -0.128     8.0835    102.965     33.101  27.775242     8.3702      8.246   256.0615 1.7623e+02     6.3911      1.498      2.173    17.4980 0.0000e+00
      1.483     -0.123     8.6911    103.422     33.245  27.845034     8.1994      8.256   255.5858 1.8724e+02     6.3988      1.453      2.108    17.4418 0.0000e+00
      1.442     -0.102     9.2731    102.062     33.373  27.969529     7.8904      8.266   255.2366 1.9629e+02     6.2316      1.409      2.044    17.2881 0.0000e+00
      1.414     -0.070     9.7520     99.576     33.393  28.075428     7.7216      8.275   254.9369 1.9970e+02     6.0434      1.380      2.001    17.0937 0.0000e+00
      1.404     -0.037    10.0393     96.861     33.255  28.110744     7.6900      8.284   254.6300 1.9947e+02     5.9340      1.372      1.989    16.9235 0.0000e+00
      1.408     -0.013    10.0934     94.722     33.024  28.079603     7.6247      8.294   253.8486 1.9803e+02     5.8991      1.378      1.999    16.8371 0.0000e+00
      1.421     -0.006     9.9315     93.724     32.830  28.016253     7.1982      8.304   252.5446 1.9628e+02     5.8948      1.394      2.022    16.8613 0.0000e+00
      1.433     -0.018     9.6301     94.176     32.775  27.979168     6.4365      8.313   251.5976 1.9499e+02     5.8477      1.409      2.043    16.9960 0.0000e+00
      1.437     -0.047     9.2911     95.974     32.795  27.948354     6.0143      8.321   251.1738 1.9558e+02     5.7733      1.415      2.052    17.2479 0.0000e+00
      1.423     -0.084     9.0096     98.442     32.807  27.897326     5.9728      8.331   250.9483 2.0155e+02     5.7133      1.404      2.035    17.5538 0.0000e+00
      1.389     -0.119     8.8729    100.720     32.840  27.869517     6.0507      8.341   250.7633 2.1382e+02     5.8058      1.368      1.982    17.7226 0.0000e+00
      1.342     -0.148     8.9168    102.178     32.895  27.865758     6.2148      8.351   250.4864 2.2965e+02     6.0029      1.317      1.910    17.7085 0.0000e+00
      1.292     -0.163     9.1353    102.548     32.925  27.851813     6.2924      8.362   250.0957 2.4520e+02     6.0470      1.266      1.836    17.6095 0.0000e+00
      1.244     -0.160     9.4229    101.941     32.930  27.827708     6.2566      8.376   249.5664 2.5985e+02     5.9634      1.219      1.768    17.5064 0.0000e+00
      1.198     -0.142     9.6761    100.540     32.965  27.827975     5.9991      8.391   248.9911 2.7424e+02     5.8117      1.175      1.703    17.4291 0.0000e+00
      1.158     -0.115     9.8439     98.561     33.017  27.854997     5.5512      8.407   248.4742 2.8857e+02     5.6134      1.130      1.638    17.3478 0.0000e+00
      1.131     -0.084     9.8852     96.484     33.023  27.900702     5.3186      8.423   248.0497 2.9728e+02     5.5466      1.103      1.600    17.2770 0.0000e+00
      1.120     -0.053     9.8239     94.778     33.011  28.000078     5.2758      8.438   247.8157 2.9466e+02     5.5172      1.097      1.591    17.2564 0.0000e+00
      1.115     -0.026     9.6983     93.725     32.948  28.105298     5.0334      8.450   247.7102 2.9113e+02     5.3951      1.093      1.585    17.2073 0.0000e+00
      1.114     -0.003     9.4993     93.624     32.797  28.158302     4.6267      8.459   247.2901 2.9036e+02     5.3339      1.091      1.582    17.1400 0.0000e+00
      1.118      0.015     9.2694     94.639     32.650  28.197194     4.4285      8.466   246.4358 2.9159e+02     5.3912      1.096      1.590    17.2016 0.0000e+00
      1.126      0.030     9.0676     96.685     32.518  28.195184     4.4348      8.473   245.7260 2.9523e+02     5.4389      1.105      1.601    17.3808 0.0000e+00
      1.132      0.039     8.9070     99.573     32.405  28.134159     4.5863      8.483   244.9035 2.9213e+02     5.5350      1.110      1.610    17.6308 0.0000e+00
      1.142      0.033     8.8339    102.890     32.400  28.093644     4.8705      8.494   243.5459 2.8449e+02     5.7676      1.116      1.619    17.9355 0.0000e+00
      1.161      0.007     8.8883    106.071     32.462  28.085832     5.0406      8.506   242.7342 2.7707e+02     5.9626      1.136      1.647    18.2064 0.0000e+00
      1.184     -0.038     9.0500    108.753     32.467  28.039623     5.0795      8.518   242.8332 2.7328e+02     6.0145      1.168      1.694    18.3882 0.0000e+00
      1.188     -0.094     9.3213    110.623     32.460  27.978863     5.0823      8.531   243.0220 2.8137e+02     5.9510      1.181      1.713    18.4550 0.0000e+00
      1.154     -0.153     9.6762    111.351     32.550  27.985372     5.1735      8.544   243.0380 3.0154e+02     5.8436      1.145      1.661    18.3631 0.0000e+00
      1.086     -0.205    10.0085    110.956     32.699  28.054803     5.3916      8.556   242.9402 3.3470e+02     5.7743      1.069      1.552    18.2337 0.0000e+00
      1.003     -0.235    10.2798    109.751     32.790  28.120590     5.5306      8.567   242.8715 3.7960e+02     5.7627      0.983      1.426    18.1841 0.0000e+00
      0.923     -0.236    10.4906    108.078     32.778  28.146513     5.5386      8.578   242.9817 4.1970e+02     5.7031      0.903      1.309    18.1080 0.0000e+00
      0.852     -0.210    10.5848    106.298     32.743  28.178017     5.2062      8.587   243.1552 4.4441e+02     5.4296      0.831      1.204    17.9768 0.0000e+00
      0.798     -0.165    10.5576    104.735     32.748  28.247876     4.5819      8.593   243.2475 4.6074e+02     5.1204      0.773      1.122    17.8664 0.0000e+00
      0.768     -0.115    10.4381    103.553     32.781  28.356992     4.2490      8.600   243.2377 4.7485e+02     5.0728      0.746      1.083    17.8451 0.0000e+00
      0.755     -0.069    10.2509    102.842     32.796  28.482591     4.2030      8.606   243.0371 4.8228e+02     5.1277      0.740      1.073    17.9204 0.0000e+00
      0.750     -0.034    10.0476    102.644     32.733  28.561506     4.0753      8.611   242.4563 4.8054e+02     4.9642      0.735      1.065    18.0248 0.0000e+00
      0.750     -0.018     9.8764    102.814     32.560  28.550199     3.8454      8.616   241.6360 4.7021e+02     4.6327      0.736      1.065    18.1224 0.0000e+00
      0.754     -0.028     9.7437    103.085     32.335  28.472924     3.7296      8.623   241.0344 4.5556e+02     4.5016      0.739      1.071    18.2204 0.0000e+00
      0.760     -0.063     9.6341    103.168     32.183  28.388479     3.7568      8.631   240.6887 4.5747e+02     4.6089      0.746      1.082    18.4086 0.0000e+00
      0.759     -0.117     9.5808    102.845     32.177  28.353793     3.7913      8.641   240.1241 4.7663e+02     4.6315      0.754      1.093    18.6255 0.0000e+00
      0.734     -0.180     9.5645    102.157     32.325  28.434063     3.8148      8.651   239.1976 5.0754e+02     4.5022      0.735      1.067    18.8345 0.0000e+00
      0.671     -0.236     9.5531    101.446     32.511  28.597808     3.8320      8.662   238.2625 5.5900e+02     4.4467      0.668      0.968    19.0734 0.0000e+00
      0.581     -0.270     9.5552    101.141     32.585  28.747946     3.8161      8.673   237.7661 6.4835e+02     4.5404      0.572      0.830    19.1528 0.0000e+00
      0.478     -0.274     9.5405    101.398     32.540  28.854072     3.4982      8.682   237.8414 7.7801e+02     4.5759      0.469      0.681    19.0659 0.0000e+00
      0.381     -0.244     9.4877    102.084     32.444  28.929747     2.8932      8.691   238.1412 8.4615e+02     4.4667      0.362      0.525    18.9479 0.0000e+00
      0.315     -0.190     9.4080    103.039     32.319  28.965423     2.5427      8.699   238.3789 8.2185e+02     4.4155      0.293      0.425    18.9202 0.0000e+00
      0.285     -0.127     9.3459    104.169     32.191  28.968483     2.4982      8.708   238.3920 8.0863e+02     4.4695      0.272      0.394    19.0761 0.0000e+00
      0.279     -0.068     9.3296    105.318     32.096  28.966912     2.4887      8.717   238.2137 8.4472e+02     4.4704      0.270      0.391    19.3276 0.0000e+00
      0.284     -0.025     9.3499    106.290     32.017  28.946531     2.4364      8.725   237.9438 9.0934e+02     4.4258      0.279      0.404    19.5889 0.0000e+00
      0.291     -0.001     9.3935    106.985     31.952  28.912416     2.3408      8.732   237.6248 9.5860e+02     4.4083      0.286      0.415    19.8250 0.0000e+00
      0.294      0.007     9.4670    107.371     31.900  28.871604     2.2803      8.739   237.3678 9.2736e+02     4.4639      0.288      0.420    20.0099 0.0000e+00
      0.295      0.006     9.5553    107.464     31.873  28.833651     2.2876      8.747   237.0734 8.4486e+02     4.5523      0.290      0.421    20.1399 0.0000e+00
      0.294      0.004     9.6311    107.331     31.910  28.834077     2.3547      8.755   236.6455 8.1041e+02     4.5547      0.289      0.419    20.2133 0.0000e+00
      0.294      0.003     9.6884    107.041     32.001  28.876712     2.4502      8.764   236.2389 7.8948e+02     4.4927      0.288      0.417    20.2491 0.0000e+00
      0.294      0.004     9.7213    106.658     32.056  28.905098     2.5018      8.772   236.0293 7.6767e+02     4.4512      0.288      0.417    20.2573 0.0000e+00
      0.295      0.005     9.7307    106.266     32.014  28.860114     2.5043      8.778   235.9179 8.3670e+02     4.4980      0.289      0.420    20.2388 0.0000e+00
      0.297      0.007     9.7269    105.904     31.939  28.776804     2.4718      8.783   235.8379 9.0029e+02     4.6140      0.291      0.423    20.1835 0.0000e+00
      0.299      0.009     9.7159    105.547     31.914  28.722344     2.3931      8.787   235.8367 8.4707e+02     4.6249      0.293      0.425    20.0994 0.0000e+00
      0.302      0.009     9.6836    105.208     31.940  28.709031     2.3264      8.792   235.9037 7.9511e+02     4.5268      0.297      0.429    20.0658 0.0000e+00
      0.306      0.009     9.6433    104.935     32.016  28.742636     2.3058      8.796   235.9584 7.8391e+02     4.4861      0.300      0.435    20.0814 0.0000e+00
      0.308      0.010     9.6181    104.805     32.121  28.811479     2.3195      8.799   235.8962 7.5819e+02     4.5434      0.303      0.439    20.0559 0.0000e+00
      0.309      0.011     9.5959    104.893     32.156  28.843663     2.3500      8.800   235.4961 7.3733e+02     4.6380      0.304      0.441    19.9941 0.0000e+00
      0.309      0.002     9.5748    105.171     32.094  28.814632     2.3503      8.804   234.5621 7.2433e+02     4.6397      0.303      0.440    19.9368 0.0000e+00
      0.312     -0.025     9.5586    105.493     32.025  28.777644     2.3233      8.810   233.6376 6.8883e+02     4.5297      0.303      0.440    19.8803 0.0000e+00
      0.320     -0.068     9.5526    105.726     32.020  28.777051     2.3055      8.819   232.9219 6.3255e+02     4.4362      0.312      0.454    19.8271 0.0000e+00
      0.322     -0.113     9.5632    105.891     32.057  28.807472     2.3016      8.830   232.0171 6.6479e+02     4.3962      0.329      0.477    19.8215 0.0000e+00
      0.289     -0.145     9.5803    106.051     32.079  28.828317     2.3015      8.841   231.3877 7.5924e+02     4.3885      0.303      0.441    19.8904 0.0000e+00
      0.214     -0.157     9.6072    106.191     32.079  28.838793     2.2876      8.850   231.2493 8.4634e+02     4.3766      0.214      0.311    19.9408 0.0000e+00
      0.127     -0.152     9.6270    106.296     32.089  28.870729     2.2590      8.859   230.6013 8.9958e+02     4.3550      0.112      0.161    19.9324 0.0000e+00
      0.070     -0.143     9.6405    106.382     32.080  28.897349     2.1886      8.869   229.3176 8.1903e+02     4.4001      0.051      0.074    19.9227 0.0000e+00
      0.060     -0.141     9.6567    106.455     32.055  28.906987     2.0687      8.881   229.6670 7.8447e+02     4.4784      0.048      0.071    19.9233 0.0000e+00
      0.076     -0.151     9.6678    106.531     32.119  28.987307     1.9909      8.899   244.4612 9.3815e+02     4.4815      0.080      0.116    19.9388 0.0000e+00
      0.075     -0.181     9.6682    106.575     32.284  29.170805     1.9640      8.925   272.2517 1.2247e+03     4.4383      0.095      0.138    19.9731 0.0000e+00
      0.021     -0.240     9.6663    106.666     32.045  29.032532     1.8769      8.954   270.6502 1.5743e+03     4.3999      0.042      0.060    20.0362 0.0000e+00
     -0.079     -0.318     9.6583    107.021     27.460  24.968678     1.7365      8.972   233.3581 1.7867e+03     4.3922     -0.080     -0.115    20.0947 0.0000e+00
     -0.185     -0.383     9.6636    107.564     16.614  15.161342     1.6394      8.985   207.5007 1.7641e+03     4.3452     -0.189     -0.274    20.1187 0.0000e+00
     -0.288     -0.403     9.6644    107.994      7.158   6.559594     1.5187      8.999   204.4264 1.6350e+03     4.0029     -0.267     -0.388    20.1428 0.0000e+00
     -0.416     -0.376     9.6327    108.068      5.651   5.199574     0.5938      9.013   206.0815 1.3934e+03     1.3120     -0.398     -0.577    20.2632 0.0000e+00
     -0.555     -0.317     9.6260    107.673     11.142  10.251093    -1.0797      9.023   207.2069 9.6242e+02    -3.5269     -0.569     -0.826    20.5054 0.0000e+00
     -0.643     -0.245     9.6387    106.718     19.886  18.273578    -2.0018      9.030   208.5696 7.5466e+02    -6.1680     -0.657     -0.952    20.7532 0.0000e+00
     -0.671     -0.170     9.6463    105.022     25.789  23.666647    -2.0495      9.036   209.9962 9.0431e+02    -6.1638     -0.661     -0.960    20.9644 0.0000e+00
     -0.675     -0.096     9.6356    102.307     25.134  23.029837    -1.4646      9.038   211.2918 9.1647e+02    -3.4078     -0.662     -0.961    21.0660 0.0000e+00
     -0.675     -0.039     9.6075     98.540     19.603  17.930396    -0.3565      9.037   212.5328 6.7734e+02     1.6720     -0.663     -0.962    21.0369 0.0000e+00
     -0.675     -0.009     9.5416     94.284     13.943  12.727071     0.2452      9.031   213.5579 4.2552e+02     4.3922     -0.662     -0.961    20.9673 0.0000e+00
     -0.675     -0.000     9.4118     90.430     11.535  10.510322     0.2841      9.017   214.1355 2.8527e+02     4.5454     -0.663     -0.961    20.8876 0.0000e+00
     -0.675      0.001     9.1983     88.723     11.209  10.206445     0.2797      9.008   214.2687 2.0927e+02     4.5157     -0.662     -0.960    20.8053 0.0000e+00
     -0.674 -9.990e-29     8.8455 -9.990e-29 -9.990e-29 -9.990e-29 -9.990e-29 -9.990e-29 -9.990e-29 1.5985e+02 -9.990e-29     -0.661     -0.959    20.6992 0.0000e+00
     -0.674 -9.990e-29     8.4682 -9.990e-29 -9.990e-29 -9.990e-29 -9.990e-29 -9.990e-29 -9.990e-29 1.4745e+02 -9.990e-29     -0.661     -0.959    20.6079 0.0000e+00
     -0.674 -9.990e-29     8.0748 -9.990e-29 -9.990e-29 -9.990e-29 -9.990e-29 -9.990e-29 -9.990e-29 1.4255e+02 -9.990e-29     -0.660     -0.958    20.5360 0.0000e+00
     -0.674 -9.990e-29     7.8410 -9.990e-29 -9.990e-29 -9.990e-29 -9.990e-29 -9.990e-29 -9.990e-29 1.4002e+02 -9.990e-29     -0.661     -0.958    20.4912 0.0000e+00
