* Sea-Bird SBE19plus  Data File:
* FileName = C:\R\Reservoirs\Data\DataNotYetUploadedToEDI\Raw_CTD\RawDownloads\051623_fcr50_S8188_0004.hex
* Software version 2.8.0.119
* Temperature SN = 8188
* Conductivity SN = 8188
* System UpLoad Time = May 31 2023 16:44:37
* <ApplicationData>
* <Seaterm232>
* <SoftwareVersion>2.8.0.119</SoftwareVersion>
* <BuildDate>07-Nov-2018</BuildDate>
* </Seaterm232>
* </ApplicationData>
* <InstrumentState>
* <HardwareData DeviceType='SBE19plus' SerialNumber='01908188'>
*
*    <Manufacturer>Sea-Bird Electronics, Inc.</Manufacturer>
*
*    <FirmwareVersion>3.1.8</FirmwareVersion>
*
*    <FirmwareDate>Mar  9 2016 16:22:29</FirmwareDate>
*
*    <CommandSetVersion>1.4</CommandSetVersion>
*
*    <PCBAssembly PCBSerialNum='260079' AssemblyNum='41054K'/>
*
*    <PCBAssembly PCBSerialNum='260083' AssemblyNum='41059E'/>
*
*    <PCBAssembly PCBSerialNum='260085' AssemblyNum='41606B'/>
*
*    <PCBAssembly PCBSerialNum='260081' AssemblyNum='41967C'/>
*
*    <MfgDate>30 Mar 2022</MfgDate>
*
*    <InternalSensors>
*
*       <Sensor id='Main Temperature'>
*
*          <type>temperature0</type>
*
*          <SerialNumber>01908188</SerialNumber>
*
*       </Sensor>
*
*       <Sensor id='Main Conductivity'>
*
*          <type>conductivity-0</type>
*
*          <SerialNumber>01908188</SerialNumber>
*
*       </Sensor>
*
*       <Sensor id='Main Pressure'>
*
*          <type>strain-0</type>
*
*          <SerialNumber>12220741</SerialNumber>
*
*       </Sensor>
*
*    </InternalSensors>
*
*    <ExternalSensors>
*
*       <Sensor id='volt 0'>
*
*          <type>CHL</type>
*
*          <SerialNumber>FLNTURT-7096</SerialNumber>
*
*       </Sensor>
*
*       <Sensor id='volt 1'>
*
*          <type>NTU</type>
*
*          <SerialNumber>FLNTURT-7096</SerialNumber>
*
*       </Sensor>
*
*       <Sensor id='volt 2'>
*
*          <type>OXY</type>
*
*          <SerialNumber>43-4269</SerialNumber>
*
*       </Sensor>
*
*       <Sensor id='volt 3'>
*
*          <type>not assigned</type>
*
*          <SerialNumber>not assigned</SerialNumber>
*
*       </Sensor>
*
*       <Sensor id='volt 4'>
*
*          <type>PAR</type>
*
*          <SerialNumber>PARLOGICSW-2209</SerialNumber>
*
*       </Sensor>
*
*       <Sensor id='volt 5'>
*
*          <type>not assigned</type>
*
*          <SerialNumber>not assigned</SerialNumber>
*
*       </Sensor>
*
*       <Sensor id='serial'>
*
*          <type>WETLABS</type>
*
*          <SerialNumber>FL3-7350</SerialNumber>
*
*       </Sensor>
*
*    </ExternalSensors>
*
* </HardwareData>
* <StatusData DeviceType='SBE19plus' SerialNumber='01908188'>
*
*    <DateTime>2023-05-31T16:42:31</DateTime>
*
*    <LoggingState>not logging</LoggingState>
*
*    <EventSummary numEvents='0'/>
*
*    <Power>
*
*       <vMain>12.6</vMain>
*
*       <vLith>8.5</vLith>
*
*       <iMain>61.8</iMain>
*
*       <iPump>60.5</iPump>
*
*       <iExt01>21.4</iExt01>
*
*       <iExt2345>20.0</iExt2345>
*
*       <iSerial>44.7</iSerial>
*
*    </Power>
*
*    <MemorySummary>
*
*       <Bytes>266900</Bytes>
*
*       <Samples>10676</Samples>
*
*       <SamplesFree>2621249</SamplesFree>
*
*       <SampleLength>25</SampleLength>
*
*       <Profiles>7</Profiles>
*
*    </MemorySummary>
*
* </StatusData>
* <ConfigurationData DeviceType='SBE19plus' SerialNumber='01908188'>
*
*    <ProfileMode>
*
*       <ScansToAverage>1</ScansToAverage>
*
*       <MinimumCondFreq>5</MinimumCondFreq>
*
*       <PumpDelay>40</PumpDelay>
*
*       <AutoRun>no</AutoRun>
*
*       <IgnoreSwitch>no</IgnoreSwitch>
*
*    </ProfileMode>
*
*    <Battery>
*
*       <Type>alkaline</Type>
*
*       <CutOff>7.5</CutOff>
*
*    </Battery>
*
*    <DataChannels>
*
*       <ExtVolt0>yes</ExtVolt0>
*
*       <ExtVolt1>yes</ExtVolt1>
*
*       <ExtVolt2>yes</ExtVolt2>
*
*       <ExtVolt3>no</ExtVolt3>
*
*       <ExtVolt4>yes</ExtVolt4>
*
*       <ExtVolt5>no</ExtVolt5>
*
*       <SBE38>no</SBE38>
*
*       <WETLABS>yes</WETLABS>
*
*       <OPTODE>no</OPTODE>
*
*       <SBE63>no</SBE63>
*
*       <SeaFET>no</SeaFET>
*
*       <GTD>no</GTD>
*
*    </DataChannels>
*
*    <EchoCharacters>yes</EchoCharacters>
*
*    <OutputExecutedTag>yes</OutputExecutedTag>
*
*    <OutputFormat>raw HEX</OutputFormat>
*
* </ConfigurationData>
* <CalibrationCoefficients DeviceType='SBE19plus' SerialNumber='01908188'>
*
*    <Calibration format='TEMP1' id='Main Temperature'>
*
*       <SerialNum>01908188</SerialNum>
*
*       <CalDate>21-Aug-22</CalDate>
*
*       <TA0>1.265284e-03</TA0>
*
*       <TA1>2.691806e-04</TA1>
*
*       <TA2>-5.655711e-07</TA2>
*
*       <TA3>1.602369e-07</TA3>
*
*       <TOFFSET>0.000000e+00</TOFFSET>
*
*    </Calibration>
*
*    <Calibration format='WBCOND0' id='Main Conductivity'>
*
*       <SerialNum>01908188</SerialNum>
*
*       <CalDate>21-Aug-22</CalDate>
*
*       <G>-1.009562e+00</G>
*
*       <H>1.439229e-01</H>
*
*       <I>-4.343583e-04</I>
*
*       <J>5.328694e-05</J>
*
*       <CPCOR>-9.570000e-08</CPCOR>
*
*       <CTCOR>3.250000e-06</CTCOR>
*
*       <CSLOPE>1.000000e+00</CSLOPE>
*
*    </Calibration>
*
*    <Calibration format='STRAIN0' id='Main Pressure'>
*
*       <SerialNum>12220741</SerialNum>
*
*       <CalDate>11-Aug-22</CalDate>
*
*       <PA0>1.627942e-01</PA0>
*
*       <PA1>4.835849e-04</PA1>
*
*       <PA2>-3.975488e-12</PA2>
*
*       <PTCA0>5.244803e+05</PTCA0>
*
*       <PTCA1>2.817194e+01</PTCA1>
*
*       <PTCA2>-5.842684e-01</PTCA2>
*
*       <PTCB0>2.522087e+01</PTCB0>
*
*       <PTCB1>5.750000e-04</PTCB1>
*
*       <PTCB2>0.000000e+00</PTCB2>
*
*       <PTEMPA0>-5.709556e+01</PTEMPA0>
*
*       <PTEMPA1>5.248567e+01</PTEMPA1>
*
*       <PTEMPA2>-2.281498e-01</PTEMPA2>
*
*       <POFFSET>-4.700000e-02</POFFSET>
*
*       <PRANGE>1.600000e+02</PRANGE>
*
*    </Calibration>
*
*    <Calibration format='VOLT0' id='Volt 0'>
*
*       <OFFSET>-4.657200e-02</OFFSET>
*
*       <SLOPE>1.248989e+00</SLOPE>
*
*    </Calibration>
*
*    <Calibration format='VOLT0' id='Volt 1'>
*
*       <OFFSET>-4.600800e-02</OFFSET>
*
*       <SLOPE>1.249849e+00</SLOPE>
*
*    </Calibration>
*
*    <Calibration format='VOLT0' id='Volt 2'>
*
*       <OFFSET>-4.668000e-02</OFFSET>
*
*       <SLOPE>1.250379e+00</SLOPE>
*
*    </Calibration>
*
*    <Calibration format='VOLT0' id='Volt 3'>
*
*       <OFFSET>-4.643200e-02</OFFSET>
*
*       <SLOPE>1.251002e+00</SLOPE>
*
*    </Calibration>
*
*    <Calibration format='VOLT0' id='Volt 4'>
*
*       <OFFSET>-4.606100e-02</OFFSET>
*
*       <SLOPE>1.249962e+00</SLOPE>
*
*    </Calibration>
*
*    <Calibration format='VOLT0' id='Volt 5'>
*
*       <OFFSET>-4.642700e-02</OFFSET>
*
*       <SLOPE>1.248530e+00</SLOPE>
*
*    </Calibration>
*
*    <Calibration format='FREQ0' id='external frequency channel'>
*
*       <EXTFREQSF>1.000018e+00</EXTFREQSF>
*
*    </Calibration>
*
* </CalibrationCoefficients>
* <EventCounters DeviceType='SBE19plus' SerialNumber='01908188'>
*
*    <EventSummary numEvents='0'/>
*
* </EventCounters></InstrumentState>
* <Headers>
*
* cast   4 22 May 2023 13:05:01 samples 4521 to 5430, avg = 1, stop = mag switch
*
# nquan = 16
# nvalues = 910                         
# units = specified
# name 0 = depFM: Depth [fresh water, m]
# name 1 = dz/dtM: Descent Rate [m/s]
# name 2 = sbeox0Mg/L: Oxygen, SBE 43 [mg/l]
# name 3 = sbeox0PS: Oxygen, SBE 43 [% saturation]
# name 4 = specc: Specific Conductance [uS/cm]
# name 5 = c0uS/cm: Conductivity [uS/cm]
# name 6 = wetCDOM: Fluorescence, WET Labs CDOM [mg/m^3]
# name 7 = flECO-AFL: Fluorescence, WET Labs ECO-AFL/FL [mg/m^3]
# name 8 = flECO-AFL1: Fluorescence, WET Labs ECO-AFL/FL, 2 [mg/m^3]
# name 9 = flECO-AFL2: Fluorescence, WET Labs ECO-AFL/FL, 3 [mg/m^3]
# name 10 = par/sat/log: PAR/Logarithmic, Satlantic
# name 11 = turbWETntu0: Turbidity, WET Labs ECO [NTU]
# name 12 = prdM: Pressure, Strain Gauge [db]
# name 13 = prdE: Pressure, Strain Gauge [psi]
# name 14 = tv290C: Temperature [ITS-90, deg C]
# name 15 = flag:  0.000e+00
# span 0 =     -0.616,      9.661       
# span 1 =     -0.397,      0.170       
# span 2 =    -2.5147,    17.4818       
# span 3 =    -22.197,    187.171       
# span 4 =      0.114,    422.789       
# span 5 =   0.110494, 294.853572       
# span 6 =    -4.5000,    31.8600       
# span 7 =    -2.4730,   245.2267       
# span 8 =    -3.9618,     2.0448       
# span 9 =    -4.1877,     5.4567       
# span 10 = 1.1585e-01, 2.2406e+03      
# span 11 =    -6.1198,   285.9458      
# span 12 =     -0.604,      9.474      
# span 13 =     -0.875,     13.741      
# span 14 =     9.8009,    23.8704      
# span 15 = 0.0000e+00, 0.0000e+00      
# interval = seconds: 0.25
# start_time = May 22 2023 13:05:01 [Instrument's time stamp, header]
# bad_flag = -9.990e-29
# <Sensors count="10" >
#   <sensor Channel="1" >
#     <!-- Count, Temperature -->
#     <TemperatureSensor SensorID="58" >
#       <SerialNumber>8188</SerialNumber>
#       <CalibrationDate>21-Aug-22</CalibrationDate>
#       <A0>1.26528397e-003</A0>
#       <A1>2.69180636e-004</A1>
#       <A2>-5.65571102e-007</A2>
#       <A3>1.60236871e-007</A3>
#       <Slope>1.00000000</Slope>
#       <Offset>0.0000</Offset>
#     </TemperatureSensor>
#   </sensor>
#   <sensor Channel="2" >
#     <!-- Frequency 0, Conductivity -->
#     <ConductivitySensor SensorID="3" >
#       <SerialNumber>8188</SerialNumber>
#       <CalibrationDate>21-Aug-22</CalibrationDate>
#       <UseG_J>1</UseG_J>
#       <!-- Cell const and series R are applicable only for wide range sensors. -->
#       <SeriesR>0.0000</SeriesR>
#       <CellConst>2000.0000</CellConst>
#       <ConductivityType>0</ConductivityType>
#       <Coefficients equation="0" >
#         <A>0.00000000e+000</A>
#         <B>0.00000000e+000</B>
#         <C>0.00000000e+000</C>
#         <D>0.00000000e+000</D>
#         <M>0.0</M>
#         <CPcor>-9.57000000e-008</CPcor>
#       </Coefficients>
#       <Coefficients equation="1" >
#         <G>-1.00956200e+000</G>
#         <H>1.43922862e-001</H>
#         <I>-4.34358337e-004</I>
#         <J>5.32869425e-005</J>
#         <CPcor>-9.57000000e-008</CPcor>
#         <CTcor>3.2500e-006</CTcor>
#         <!-- WBOTC not applicable unless ConductivityType = 1. -->
#         <WBOTC>0.00000000e+000</WBOTC>
#       </Coefficients>
#       <Slope>1.00000000</Slope>
#       <Offset>0.00000</Offset>
#     </ConductivitySensor>
#   </sensor>
#   <sensor Channel="3" >
#     <!-- Count, Pressure, Strain Gauge -->
#     <PressureSensor SensorID="46" >
#       <SerialNumber>8188</SerialNumber>
#       <CalibrationDate>11-Aug-22</CalibrationDate>
#       <PA0>1.62794185e-001</PA0>
#       <PA1>4.83584930e-004</PA1>
#       <PA2>-3.97548787e-012</PA2>
#       <PTEMPA0>-5.70955636e+001</PTEMPA0>
#       <PTEMPA1>5.24856726e+001</PTEMPA1>
#       <PTEMPA2>-2.28149804e-001</PTEMPA2>
#       <PTCA0>5.24480263e+005</PTCA0>
#       <PTCA1>2.81719406e+001</PTCA1>
#       <PTCA2>-5.84268386e-001</PTCA2>
#       <PTCB0>2.52208750e+001</PTCB0>
#       <PTCB1>5.75000000e-004</PTCB1>
#       <PTCB2>0.00000000e+000</PTCB2>
#       <Offset>0.000000</Offset>
#     </PressureSensor>
#   </sensor>
#   <sensor Channel="4" >
#     <!-- A/D voltage 0, Fluorometer, WET Labs ECO-AFL/FL -->
#     <FluoroWetlabECO_AFL_FL_Sensor SensorID="20" >
#       <SerialNumber>FLNTURT-7096</SerialNumber>
#       <CalibrationDate>01-Sep-2022</CalibrationDate>
#       <ScaleFactor>5.00000000e+001</ScaleFactor>
#       <!-- Dark output -->
#       <Vblank>0.0680</Vblank>
#     </FluoroWetlabECO_AFL_FL_Sensor>
#   </sensor>
#   <sensor Channel="5" >
#     <!-- A/D voltage 1, Turbidity Meter, WET Labs, ECO-NTU -->
#     <TurbidityMeter SensorID="67" >
#       <SerialNumber>FLNTURT-7096</SerialNumber>
#       <CalibrationDate>01-Sep-2022</CalibrationDate>
#       <ScaleFactor>197.000000</ScaleFactor>
#       <!-- Dark output -->
#       <DarkVoltage>0.067000</DarkVoltage>
#     </TurbidityMeter>
#   </sensor>
#   <sensor Channel="6" >
#     <!-- A/D voltage 2, Oxygen, SBE 43 -->
#     <OxygenSensor SensorID="38" >
#       <SerialNumber>4269</SerialNumber>
#       <CalibrationDate>16-Aug-22</CalibrationDate>
#       <Use2007Equation>1</Use2007Equation>
#       <CalibrationCoefficients equation="0" >
#         <!-- Coefficients for Owens-Millard equation. -->
#         <Boc>0.0000</Boc>
#         <Soc>0.0000e+000</Soc>
#         <offset>0.0000</offset>
#         <Pcor>0.00e+000</Pcor>
#         <Tcor>0.0000</Tcor>
#         <Tau>0.0</Tau>
#       </CalibrationCoefficients>
#       <CalibrationCoefficients equation="1" >
#         <!-- Coefficients for Sea-Bird equation - SBE calibration in 2007 and later. -->
#         <Soc>4.2506e-001</Soc>
#         <offset>-0.4922</offset>
#         <A>-4.5893e-003</A>
#         <B> 1.8653e-004</B>
#         <C>-2.0781e-006</C>
#         <D0> 2.5826e+000</D0>
#         <D1> 1.92634e-004</D1>
#         <D2>-4.64803e-002</D2>
#         <E> 3.6000e-002</E>
#         <Tau20> 2.3100</Tau20>
#         <H1>-3.3000e-002</H1>
#         <H2> 5.0000e+003</H2>
#         <H3> 1.4500e+003</H3>
#       </CalibrationCoefficients>
#     </OxygenSensor>
#   </sensor>
#   <sensor Channel="7" >
#     <!-- A/D voltage 3, PAR/Logarithmic, Satlantic -->
#     <PARLog_SatlanticSensor SensorID="76" >
#       <SerialNumber>2209</SerialNumber>
#       <CalibrationDate>14-Jan-2022</CalibrationDate>
#       <a0>9.8861e-001</a0>
#       <a1>8.0845e-001</a1>
#       <Im>1.3589e+000</Im>
#       <Multiplier>1.0000e+000</Multiplier>
#     </PARLog_SatlanticSensor>
#   </sensor>
#   <sensor Channel="8" >
#     <!-- Serial RS-232, Fluorometer, WET Labs ECO-AFL/FL, 2 -->
#     <FluoroWetlabECO_AFL_FL_Sensor SensorID="20" >
#       <SerialNumber>FL3-7350</SerialNumber>
#       <CalibrationDate>10-Mar-2022</CalibrationDate>
#       <ScaleFactor>4.26000000e-002</ScaleFactor>
#       <!-- Dark output -->
#       <Vblank>50.0000</Vblank>
#     </FluoroWetlabECO_AFL_FL_Sensor>
#   </sensor>
#   <sensor Channel="9" >
#     <!-- Serial RS-232, Fluorometer, WET Labs ECO-AFL/FL, 3 -->
#     <FluoroWetlabECO_AFL_FL_Sensor SensorID="20" >
#       <SerialNumber>FL3-7350</SerialNumber>
#       <CalibrationDate>10-Mar-2022</CalibrationDate>
#       <ScaleFactor>4.23000000e-002</ScaleFactor>
#       <!-- Dark output -->
#       <Vblank>48.0000</Vblank>
#     </FluoroWetlabECO_AFL_FL_Sensor>
#   </sensor>
#   <sensor Channel="10" >
#     <!-- Serial RS-232, Fluorometer, WET Labs ECO CDOM -->
#     <FluoroWetlabCDOM_Sensor SensorID="19" >
#       <SerialNumber>FL3-7350</SerialNumber>
#       <CalibrationDate>10-Mar-2022</CalibrationDate>
#       <ScaleFactor>0.090</ScaleFactor>
#       <!-- Dark output -->
#       <Vblank>50.000</Vblank>
#     </FluoroWetlabCDOM_Sensor>
#   </sensor>
# </Sensors>
# datcnv_date = May 31 2023 17:06:35, 7.26.7.129 [datcnv_vars = 15]
# datcnv_in = C:\R\Reservoirs\Data\DataNotYetUploadedToEDI\Raw_CTD\RawDownloads\052223_fcr50_S8188004.hex C:\R\Reservoirs\Data\DataNotYetUploadedToEDI\Raw_CTD\RawDownloads\SBE19plusV2_8188_start20221003.xmlcon
# datcnv_skipover = 0
# datcnv_ox_hysteresis_correction = yes
# datcnv_ox_tau_correction = yes
# filter_date = May 31 2023 17:07:02, 7.26.7.129
# filter_in = C:\R\Reservoirs\Data\DataNotYetUploadedToEDI\Raw_CTD\RawDownloads\052223_fcr50_S8188004.cnv
# filter_low_pass_tc_A = 0.500
# filter_low_pass_tc_B = 1.000
# filter_low_pass_A_vars = sbeox0Mg/L sbeox0PS specc c0uS/cm tv290C
# filter_low_pass_B_vars = depFM dz/dtM prdM prdE
# alignctd_date = May 31 2023 17:07:27, 7.26.7.129
# alignctd_in = C:\R\Reservoirs\Data\DataNotYetUploadedToEDI\Raw_CTD\RawDownloads\052223_fcr50_S8188004.cnv
# alignctd_adv = dz/dtM 1.000, sbeox0PS 1.000, specc 1.000, c0uS/cm 1.000, flECO-AFL 1.000, turbWETntu0 1.000                                                                                                                        
# file_type = ascii
*END*
     -0.616      0.003     7.7599     91.963      0.114   0.110494    -4.5000    -0.3139    -2.1300    -2.0304 2.2140e+03    -0.5286     -0.604     -0.875    23.8704 0.0000e+00
     -0.615      0.003     7.7598     91.963      0.123   0.119626    -4.5000    -0.2910    -2.1300    -2.0304 2.2396e+03    -0.5737     -0.603     -0.874    23.8685 0.0000e+00
     -0.614      0.004     7.7600     91.965      0.149   0.143875    -4.5000    -0.3100    -2.1300    -2.0304 2.2406e+03    -0.4084     -0.602     -0.873    23.8667 0.0000e+00
     -0.613      0.006     7.7604     91.969      0.197   0.189708     0.0000    -0.1422     0.0000     0.1269 2.2164e+03    -0.1829     -0.601     -0.871    23.8653 0.0000e+00
     -0.611      0.007     7.7606     91.974      0.277   0.265394     0.0000    -0.1117     0.0000     0.1269 2.2231e+03    -0.1979     -0.599     -0.869    23.8644 0.0000e+00
     -0.609      0.009     7.7607     91.980      0.406   0.387160     0.0000    -0.1193     0.0000     0.1269 2.2053e+03    -0.2280     -0.598     -0.867    23.8635 0.0000e+00
     -0.607      0.012     7.7612     91.987      0.621   0.591431     0.0000    -0.1155     0.0000     0.1269 2.0407e+03    -0.2130     -0.595     -0.863    23.8609 0.0000e+00
     -0.604      0.016     7.7625     91.995      0.985   0.936635     0.0000    -0.1079     0.0000     0.1269 1.9186e+03    -0.1979     -0.592     -0.858    23.8545 0.0000e+00
     -0.600      0.020     7.7645     92.006      1.595   1.514825     0.0000    -0.1079     0.0000     0.2115 8.2139e+02    -0.2581     -0.588     -0.853    23.8440 0.0000e+00
     -0.594      0.026     7.7670     92.018      2.613   2.480186     0.0000    -0.0888     0.0000     0.2115 5.7841e+02    -0.1979     -0.583     -0.845    23.8305 0.0000e+00
     -0.588      0.033     7.7700     92.027      4.310   4.090146     0.0000    -0.1308     0.0000     0.2115 3.4688e+02    -0.2280     -0.576     -0.836    23.8145 0.0000e+00
     -0.579      0.042     7.7738     92.030      7.140   6.774030     0.0000    -0.1155     0.0000     0.2115 3.6680e+02    -0.5286     -0.568     -0.824    23.7936 0.0000e+00
     -0.568      0.054     7.7793     92.031     11.443  10.844165     0.0000    -0.1193     0.0000     0.2538 7.5121e+02    -0.4835     -0.557     -0.808    23.7628 0.0000e+00
     -0.554      0.069     7.7875     92.038     17.230  16.286457     0.0000    -0.1155     0.0000     0.2538 1.9774e+03    -0.5286     -0.543     -0.788    23.7144 0.0000e+00
     -0.536      0.086     7.8002     92.059     23.673  22.298801     0.0000    -0.1155     0.0000     0.2538 1.9852e+03    -0.4685     -0.526     -0.763    23.6353 0.0000e+00
     -0.513      0.104     7.8202     92.108     29.064  27.274510     0.0000     1.2082     0.0000     0.2538 2.0095e+03    29.8022     -0.503     -0.730    23.5026 0.0000e+00
     -0.484      0.122     7.8529     92.205     32.618  30.495666     0.4500     1.2235     0.0000    -0.6768 2.0248e+03    29.8173     -0.475     -0.688    23.2841 0.0000e+00
     -0.449      0.139     7.9004     92.376     34.804  32.429157     0.4500     1.2082     0.0000    -0.6768 2.0407e+03    29.8022     -0.441     -0.639    22.9717 0.0000e+00
     -0.410      0.153     7.9563     92.648     36.161  33.594533     0.4500     1.2044     0.0000    -0.6768 2.0846e+03    29.7571     -0.402     -0.582    22.6138 0.0000e+00
     -0.366      0.163     8.0123     93.042     37.015  34.306518     0.4500     2.2725     0.0000    -0.6768 2.1083e+03     3.2740     -0.359     -0.520    22.2736 0.0000e+00
     -0.321      0.168     8.0656     93.551     37.562  34.751009     2.7000     2.2687     0.0426     1.4805 2.1216e+03     3.3642     -0.315     -0.456    21.9814 0.0000e+00
     -0.275      0.170     8.1179     94.151     37.917  35.034651     2.7000     2.2725     0.0426     1.4805 2.1253e+03     3.2891     -0.270     -0.392    21.7409 0.0000e+00
     -0.231      0.168     8.1719     94.809     38.145  35.217236     2.7000     2.2802     0.0426     1.4805 2.1212e+03     3.4694     -0.227     -0.329    21.5487 0.0000e+00
     -0.188      0.163     8.2299     95.485     38.287  35.331610     2.7000     2.5815     0.0426     1.4805 2.1184e+03     3.4995     -0.185     -0.268    21.4012 0.0000e+00
     -0.147      0.157     8.2920     96.136     38.371  35.400350     2.7000     2.5930     0.0426     1.4805 2.1147e+03     3.5596     -0.144     -0.209    21.2937 0.0000e+00
     -0.107      0.148     8.3570     96.716     38.418  35.441787     3.1500     2.5930     0.0852     1.4382 2.1056e+03     3.5596     -0.105     -0.152    21.2198 0.0000e+00
     -0.070      0.138     8.4230     97.172     38.435  35.459048     3.1500     2.5854     0.0852     1.4382 1.0185e+03     3.6648     -0.068     -0.099    21.1725 0.0000e+00
     -0.034      0.126     8.4875     97.450     38.420  35.444855     3.1500     2.9859     0.0852     1.4382 3.6252e+02     3.4243     -0.034     -0.049    21.1445 0.0000e+00
     -0.003      0.112     8.5477     97.492     38.384  35.403345     3.1500     2.9973     0.0852     1.4382 3.5930e+02     3.3943     -0.003     -0.004    21.1296 0.0000e+00
      0.025      0.097     8.6000     97.239     38.348  35.351177     3.3300     3.0164     0.0852     1.7343 3.3466e+02     3.2740      0.024      0.035    21.1245 0.0000e+00
      0.048      0.082     8.6403     96.611     38.324  35.302164     3.3300     3.0088     0.0852     1.7343 3.7356e+02     3.3792      0.047      0.067    21.1253 0.0000e+00
      0.066      0.068     8.6651     95.491     38.315  35.265020     3.3300     3.1614     0.0852     1.7343 3.3736e+02     3.1087      0.064      0.093    21.1246 0.0000e+00
      0.080      0.055     8.6706     93.960     38.319  35.241721     3.3300     3.1881     0.0852     1.7343 3.4560e+02     3.2139      0.078      0.113    21.1133 0.0000e+00
      0.091      0.044     8.6523     92.524     38.328  35.228032     3.3300     3.1576     0.0000     1.7343 3.5511e+02     3.0335      0.089      0.129    21.0880 0.0000e+00
      0.100      0.035     8.6023     91.704     38.338  35.220304     3.3300     3.2072     0.0000     1.7343 3.5620e+02     3.1087      0.098      0.141    21.0527 0.0000e+00
      0.107      0.028     8.5089     91.567     38.347  35.216473     3.3300     3.1843     0.0000     1.7343 3.7502e+02     3.0486      0.105      0.151    21.0149 0.0000e+00
      0.112      0.022     8.3781     91.834     38.355  35.215519     3.3300     3.1919     0.0000     1.7343 4.1679e+02     3.1087      0.110      0.159    20.9802 0.0000e+00
      0.117      0.018     8.2548     92.158     38.362  35.217186     3.2400     3.1805     0.0852     1.6497 4.3013e+02     3.0786      0.115      0.166    20.9513 0.0000e+00
      0.121      0.015     8.1853     92.261     38.368  35.221919     3.2400     3.1995     0.0852     1.6497 4.4169e+02     3.0335      0.118      0.171    20.9290 0.0000e+00
      0.124      0.013     8.1757     91.934     38.378  35.230981     3.2400     3.2300     0.0852     1.6497 4.1426e+02     3.1538      0.121      0.176    20.9129 0.0000e+00
      0.126      0.011     8.2013     91.026     38.391  35.244806     3.2400     3.2529     0.0852     1.6497 3.7895e+02     3.1087      0.124      0.180    20.9024 0.0000e+00
      0.129      0.009     8.2313     89.504     38.404  35.259161     3.2400     3.2377     0.0852     1.6497 3.6268e+02     3.1688      0.127      0.183    20.8966 0.0000e+00
      0.131      0.008     8.2408     87.549     38.412  35.267970     3.2400     3.2720     0.0852     1.6920 3.5105e+02     3.1688      0.129      0.186    20.8947 0.0000e+00
      0.133      0.007     8.2115     85.517     38.413  35.269622     3.2400     3.2644     0.0852     1.6920 3.3773e+02     3.1989      0.130      0.189    20.8954 0.0000e+00
      0.135      0.006     8.1300     83.784     38.412  35.268520     3.2400     3.2567     0.0852     1.6920 3.3437e+02     3.1388      0.132      0.191    20.8976 0.0000e+00
      0.136      0.005     7.9936     82.596     38.413  35.268330     3.2400     3.2682     0.0852     1.6920 3.2590e+02     3.0937      0.133      0.193    20.9006 0.0000e+00
      0.137      0.004     7.8187     82.011     38.408  35.265039     3.3300     3.2224     0.0426     1.6920 3.2796e+02     3.0786      0.134      0.195    20.9031 0.0000e+00
      0.138      0.004     7.6371     81.933     38.398  35.257770     3.3300     3.3102     0.0426     1.6920 3.2071e+02     3.0786      0.135      0.196    20.9038 0.0000e+00
      0.139      0.003     7.4824     82.190     38.386  35.252508     3.3300     3.2720     0.0426     1.6920 3.2001e+02     3.0786      0.136      0.197    20.9029 0.0000e+00
      0.139      0.003     7.3764     82.627     38.378  35.251809     3.3300     3.3178     0.0426     1.6920 3.1717e+02     3.0786      0.137      0.198    20.9022 0.0000e+00
      0.140      0.003     7.3240     83.162     38.373  35.255488     3.2400     3.3140     0.0852     1.6920 3.1925e+02     3.1989      0.137      0.199    20.9031 0.0000e+00
      0.141      0.003     7.3166     83.767     38.367  35.260565     3.2400     3.2567     0.0852     1.6920 3.1745e+02     2.9283      0.138      0.200    20.9065 0.0000e+00
      0.142      0.003     7.3386     84.452     38.359  35.264434     3.2400     3.2491     0.0852     1.6920 3.1662e+02     2.8382      0.139      0.201    20.9128 0.0000e+00
      0.142      0.003     7.3763     85.263     38.351  35.268127     3.2400     3.2529     0.0852     1.6920 3.1648e+02     2.8832      0.139      0.202    20.9217 0.0000e+00
      0.143      0.003     7.4224     86.264     38.345  35.272629     3.3300     3.2453     0.0852     1.8189 3.1931e+02     2.8231      0.140      0.203    20.9330 0.0000e+00
      0.144      0.003     7.4744     87.487     38.343  35.279141     3.3300     3.0088     0.0852     1.8189 3.1821e+02     3.1388      0.141      0.204    20.9463 0.0000e+00
      0.144      0.003     7.5334     88.911     38.344  35.285441     3.3300     3.0012     0.0852     1.8189 3.1593e+02     3.1838      0.141      0.205    20.9610 0.0000e+00
      0.145      0.003     7.6035     90.457     38.345  35.289245     3.3300     3.0240     0.0852     1.8189 3.1745e+02     3.0035      0.142      0.206    20.9760 0.0000e+00
      0.146      0.003     7.6907     92.003     38.344  35.291570     3.3300     2.9859     0.0852     1.8189 3.1259e+02     3.1989      0.143      0.208    20.9893 0.0000e+00
      0.147      0.003     7.7982     93.406     38.343  35.293035     3.2400     3.0012     0.0426     1.7343 3.1477e+02     3.0486      0.144      0.209    20.9995 0.0000e+00
      0.148      0.003     7.9240     94.562     38.343  35.294031     3.2400     3.0012     0.0426     1.7343 3.1573e+02     3.2740      0.145      0.210    21.0065 0.0000e+00
      0.148      0.003     8.0611     95.408     38.343  35.294823     3.2400     3.0012     0.0426     1.7343 3.1259e+02     3.1087      0.145      0.211    21.0113 0.0000e+00
      0.149      0.002     8.1983     95.931     38.344  35.295623     3.2400     3.0012     0.0426     1.7343 3.1436e+02     3.1237      0.146      0.212    21.0148 0.0000e+00
      0.149      0.002     8.3230     96.163     38.346  35.296644     3.2400     3.1232     0.0852     1.6920 3.1511e+02     2.8832      0.146      0.213    21.0177 0.0000e+00
      0.150      0.002     8.4256     96.171     38.348  35.298158     3.2400     3.1347     0.0852     1.6920 3.1511e+02     2.8983      0.147      0.213    21.0194 0.0000e+00
      0.150      0.002     8.5010     96.032     38.351  35.300568     3.2400     3.1576     0.0852     1.6920 3.1600e+02     2.8832      0.147      0.214    21.0199 0.0000e+00
      0.150      0.001     8.5477     95.822     38.349  35.300557     3.2400     3.1156     0.0852     1.6920 3.1628e+02     2.8832      0.147      0.214    21.0193 0.0000e+00
      0.151      0.001     8.5686     95.599     38.341  35.294160     3.2400     3.1232     0.0426     1.6497 3.1703e+02     3.1087      0.148      0.214    21.0181 0.0000e+00
      0.151      0.001     8.5694     95.401     38.329  35.283633     3.2400     3.1270     0.0426     1.6497 3.1855e+02     3.1087      0.148      0.215    21.0174 0.0000e+00
      0.151      0.001     8.5570     95.240     38.317  35.274092     3.2400     3.1080     0.0426     1.6497 3.2189e+02     3.1838      0.148      0.215    21.0179 0.0000e+00
      0.152      0.001     8.5380     95.106     38.313  35.270912     3.2400     3.1194     0.0426     1.6497 3.1987e+02     3.1237      0.149      0.216    21.0193 0.0000e+00
      0.152      0.001     8.5179     94.980     38.319  35.277208     3.2400     2.9745     0.0426     1.6497 3.2126e+02     3.1087      0.149      0.216    21.0211 0.0000e+00
      0.152      0.001     8.5000     94.836     38.328  35.286736     3.2400     3.0240     0.0426     1.4805 3.1973e+02     3.0636      0.149      0.216    21.0225 0.0000e+00
      0.152      0.001     8.4854     94.646     38.331  35.290154     3.2400     3.0088     0.0426     1.4805 3.2484e+02     3.1237      0.149      0.217    21.0239 0.0000e+00
      0.153      0.001     8.4732     94.382     38.329  35.288375     3.2400     2.9935     0.0426     1.4805 3.2238e+02     3.1388      0.150      0.217    21.0252 0.0000e+00
      0.153      0.001     8.4618     94.022     38.324  35.284884     3.2400     2.9821     0.0426     1.4805 3.2704e+02     3.1538      0.150      0.217    21.0263 0.0000e+00
      0.153      0.001     8.4489     93.558     38.315  35.278750     3.3300     2.9973     0.0852     1.5228 3.2711e+02     3.1688      0.150      0.218    21.0272 0.0000e+00
      0.153      0.001     8.4318     92.997     38.306  35.272299     3.3300     3.0012     0.0852     1.5228 3.2854e+02     3.1237      0.150      0.218    21.0280 0.0000e+00
      0.154      0.001     8.4081     92.345     38.303  35.271732     3.3300     3.0012     0.0852     1.5228 3.3270e+02     3.0937      0.151      0.218    21.0289 0.0000e+00
      0.154      0.001     8.3758     91.616     38.309  35.280859     3.3300     3.0660     0.0852     1.5228 3.2968e+02     3.0335      0.151      0.219    21.0303 0.0000e+00
      0.154      0.001     8.3342     90.825     38.325  35.298153     3.1500     3.0622     0.0852     1.6074 3.3883e+02     2.8682      0.151      0.219    21.0323 0.0000e+00
      0.154      0.001     8.2837     89.992     38.341  35.316344     3.1500     3.0508     0.0852     1.6074 3.5036e+02     2.8532      0.151      0.220    21.0350 0.0000e+00
      0.155      0.001     8.2251     89.130     38.350  35.328399     3.1500     3.0736     0.0852     1.6074 3.5666e+02     2.8231      0.152      0.220    21.0384 0.0000e+00
      0.155      0.002     8.1595     88.249     38.351  35.333573     3.1500     3.0508     0.0852     1.6074 4.5652e+02     2.8532      0.152      0.221    21.0423 0.0000e+00
      0.155      0.002     8.0885     87.350     38.350  35.337205     3.2400     3.0622     0.0426     1.4805 5.0836e+02     3.0035      0.152      0.221    21.0466 0.0000e+00
      0.156      0.001     8.0136     86.432     38.358  35.348188     3.2400     3.0431     0.0426     1.4805 5.8118e+02     2.9734      0.153      0.222    21.0512 0.0000e+00
      0.156      0.001     7.9361     85.500     38.376  35.369449     3.2400     3.0813     0.0426     1.4805 4.9906e+02     2.9584      0.153      0.223    21.0561 0.0000e+00
      0.157      0.001     7.8568     84.560     38.399  35.394776     3.2400     3.1270     0.0426     1.4805 4.8823e+02     3.0636      0.154      0.223    21.0612 0.0000e+00
      0.157      0.001     7.7759     83.614     38.421  35.419039     3.2400     3.1385     0.0426     1.4805 5.0903e+02     3.1688      0.154      0.224    21.0667 0.0000e+00
      0.157      0.001     7.6934     82.658     38.440  35.440787     3.2400     3.1232     0.0426     1.7343 6.7402e+02     3.1388      0.154      0.224    21.0722 0.0000e+00
      0.158      0.001     7.6096     81.697     38.455  35.457897     3.2400     3.1423     0.0426     1.7343 7.2981e+02     3.0786      0.154      0.224    21.0778 0.0000e+00
      0.158      0.001     7.5252     80.740     38.461  35.467012     3.2400     3.1728     0.0426     1.7343 6.8316e+02     3.1688      0.155      0.225    21.0832 0.0000e+00
      0.158      0.001     7.4402     79.797     38.461  35.470560     3.2400     3.1957     0.0426     1.7343 5.2555e+02     3.1538      0.155      0.225    21.0884 0.0000e+00
      0.159      0.001     7.3545     78.871     38.464  35.477411     3.2400     3.1805     0.0426     1.6497 4.5120e+02     3.1688      0.155      0.226    21.0934 0.0000e+00
      0.159      0.001     7.2682     77.968     38.474  35.489392     3.2400     3.1881     0.0426     1.6497 4.8463e+02     3.1989      0.155      0.226    21.0983 0.0000e+00
      0.159      0.001     7.1824     77.099     38.488  35.505737     3.2400     3.3140     0.0426     1.6497 5.6671e+02     3.1388      0.156      0.226    21.1031 0.0000e+00
      0.159      0.000     7.0979     76.280     38.502  35.522883     3.2400     3.3025     0.0426     1.6497 6.1296e+02     3.1688      0.156      0.226    21.1077 0.0000e+00
      0.159      0.000     7.0150     75.522     38.510  35.533518     3.2400     3.2987     0.0426     1.5651 5.9588e+02     3.1538      0.156      0.226    21.1123 0.0000e+00
      0.159     -0.001     6.9340     74.834     38.514  35.540479     3.2400     3.3025     0.0426     1.5651 4.7236e+02     3.2139      0.156      0.226    21.1169 0.0000e+00
      0.159     -0.002     6.8561     74.218     38.520  35.549583     3.2400     3.3712     0.0426     1.5651 4.1247e+02     3.0937      0.156      0.226    21.1214 0.0000e+00
      0.158     -0.004     6.7827     73.684     38.526  35.559298     3.2400     3.3712     0.0426     1.5651 4.1426e+02     3.1087      0.155      0.225    21.1258 0.0000e+00
      0.157     -0.006     6.7147     73.245     38.531  35.568254     3.2400     3.3674     0.0426     1.7343 4.8940e+02     3.0786      0.154      0.224    21.1304 0.0000e+00
      0.156     -0.008     6.6529     72.901     38.538  35.578837     3.2400     3.3826     0.0426     1.7343 4.6443e+02     3.1838      0.153      0.222    21.1350 0.0000e+00
      0.154     -0.011     6.5975     72.652     38.544  35.589911     3.2400     3.4513     0.0426     1.7343 4.1023e+02     3.3342      0.151      0.219    21.1399 0.0000e+00
      0.151     -0.015     6.5494     72.503     38.545  35.596505     3.2400     3.4170     0.0426     1.7343 3.7739e+02     3.3792      0.148      0.215    21.1449 0.0000e+00
      0.147     -0.020     6.5097     72.461     38.533  35.592456     3.2400     3.4093     0.0426     1.7343 3.5334e+02     3.3943      0.144      0.209    21.1501 0.0000e+00
      0.141     -0.027     6.4784     72.542     38.505  35.576686     3.1500     3.4360     0.0852     1.6920 3.5829e+02     3.3943      0.139      0.202    21.1558 0.0000e+00
      0.134     -0.036     6.4554     72.778     38.465  35.552910     3.1500     3.4284     0.0852     1.6920 3.5876e+02     3.1087      0.132      0.192    21.1621 0.0000e+00
      0.125     -0.046     6.4412     73.222     38.409  35.522711     3.1500     3.4246     0.0852     1.6920 3.5993e+02     3.1688      0.123      0.178    21.1696 0.0000e+00
      0.113     -0.058     6.4363     73.923     38.338  35.485959     3.1500     3.4475     0.0852     1.6920 3.4824e+02     3.0937      0.111      0.161    21.1790 0.0000e+00
      0.098     -0.069     6.4418     74.883     38.256  35.444737     3.2400     3.4246     0.0852     1.6497 3.4718e+02     3.1237      0.096      0.139    21.1918 0.0000e+00
      0.078     -0.080     6.4605     76.033     38.186  35.407860     3.2400     3.2987     0.0852     1.6497 3.5681e+02     2.8832      0.076      0.111    21.2100 0.0000e+00
      0.054     -0.087     6.4963     77.271     38.140  35.381342     3.2400     3.2911     0.0852     1.6497 3.7404e+02     2.9133      0.053      0.076    21.2375 0.0000e+00
      0.027     -0.090     6.5534     78.506     38.119  35.366033     3.2400     3.3216     0.0852     1.6497 4.2226e+02     2.8983      0.027      0.039    21.2764 0.0000e+00
      0.001     -0.087     6.6328     79.660     38.118  35.361812     3.2400     3.3140     0.0426     1.5228 4.3210e+02     2.9434      0.001      0.001    21.3209 0.0000e+00
     -0.023     -0.081     6.7298     80.644     38.128  35.363590     3.2400     3.2072     0.0426     1.5228 4.4332e+02     3.1388     -0.023     -0.034    21.3583 0.0000e+00
     -0.044     -0.070     6.8366     81.369     38.141  35.367882     3.2400     3.1919     0.0426     1.5228 4.2061e+02     3.0937     -0.043     -0.062    21.3796 0.0000e+00
     -0.059     -0.058     6.9453     81.791     38.160  35.375830     3.2400     3.1576     0.0426     1.5228 4.2502e+02     3.1087     -0.058     -0.085    21.3846 0.0000e+00
     -0.072     -0.046     7.0482     81.948     38.180  35.385592     3.2400     3.1805     0.0426     1.5651 4.3013e+02     3.1087     -0.070     -0.102    21.3794 0.0000e+00
     -0.081     -0.035     7.1366     81.925     38.199  35.395812     3.2400     3.2453     0.0426     1.5651 4.2725e+02     3.1237     -0.080     -0.116    21.3704 0.0000e+00
     -0.088     -0.026     7.2022     81.808     38.216  35.405251     3.2400     3.2300     0.0426     1.5651 4.2873e+02     3.0937     -0.086     -0.126    21.3596 0.0000e+00
     -0.093     -0.018     7.2413     81.667     38.224  35.408506     3.2400     3.2491     0.0426     1.5651 4.2780e+02     3.0185     -0.091     -0.132    21.3474 0.0000e+00
     -0.096     -0.011     7.2569     81.557     38.225  35.406444     3.2400     3.2377     0.0426     1.5651 4.2595e+02     3.1388     -0.094     -0.137    21.3355 0.0000e+00
     -0.098     -0.006     7.2563     81.519     38.223  35.402477     3.2400     3.1995     0.0852     1.6497 4.2447e+02     3.1087     -0.096     -0.140    21.3253 0.0000e+00
     -0.099     -0.001     7.2470     81.558     38.218  35.395546     3.2400     3.2148     0.0852     1.6497 4.2576e+02     3.1838     -0.097     -0.141    21.3176 0.0000e+00
     -0.098      0.003     7.2353     81.634     38.212  35.387764     3.2400     3.1995     0.0852     1.6497 4.2521e+02     3.0937     -0.096     -0.140    21.3121 0.0000e+00
     -0.097      0.007     7.2261     81.680     38.211  35.384978     3.2400     3.1728     0.0852     1.6497 4.2410e+02     3.1087     -0.095     -0.138    21.3082 0.0000e+00
     -0.094      0.010     7.2232     81.632     38.215  35.386444     3.2400     3.2377     0.0426     1.6074 4.2456e+02     3.1237     -0.092     -0.134    21.3053 0.0000e+00
     -0.091      0.013     7.2270     81.456     38.220  35.388593     3.2400     3.2491     0.0426     1.6074 4.2364e+02     3.1989     -0.089     -0.129    21.3024 0.0000e+00
     -0.087      0.015     7.2342     81.151     38.225  35.391998     3.2400     3.2529     0.0426     1.6074 4.2263e+02     3.0185     -0.085     -0.124    21.2995 0.0000e+00
     -0.083      0.016     7.2387     80.723     38.227  35.393605     3.2400     3.2453     0.0426     1.6074 4.2162e+02     3.1538     -0.081     -0.118    21.2965 0.0000e+00
     -0.078      0.017     7.2348     80.184     38.222  35.389882     3.2400     3.2873     0.0426     1.6074 4.2373e+02     3.1388     -0.077     -0.111    21.2934 0.0000e+00
     -0.074      0.017     7.2196     79.566     38.214  35.383797     3.2400     3.3178     0.0426     1.6074 4.2382e+02     3.1989     -0.073     -0.105    21.2909 0.0000e+00
     -0.069      0.018     7.1928     78.909     38.206  35.377689     3.2400     3.2835     0.0426     1.6074 4.2558e+02     3.1688     -0.068     -0.098    21.2896 0.0000e+00
     -0.065      0.018     7.1548     78.257     38.198  35.369928     3.2400     3.3178     0.0426     1.6074 4.2734e+02     3.1087     -0.064     -0.092    21.2895 0.0000e+00
     -0.060      0.019     7.1069     77.646     38.191  35.362408     3.2400     3.3102     0.0426     1.6074 4.3191e+02     3.1388     -0.059     -0.086    21.2905 0.0000e+00
     -0.056      0.021     7.0519     77.096     38.187  35.357082     3.2400     3.3636     0.0426     1.6074 4.3163e+02     3.1237     -0.055     -0.079    21.2918 0.0000e+00
     -0.051      0.022     6.9935     76.599     38.183  35.352531     3.2400     3.3712     0.0426     1.6074 4.3625e+02     3.1237     -0.050     -0.072    21.2929 0.0000e+00
     -0.045      0.023     6.9357     76.141     38.178  35.347540     3.2400     3.3712     0.0426     1.6074 4.4150e+02     3.1237     -0.044     -0.063    21.2929 0.0000e+00
     -0.038      0.024     6.8818     75.702     38.176  35.344740     3.2400     3.3597     0.0426     1.6074 4.2743e+02     3.1388     -0.037     -0.054    21.2916 0.0000e+00
     -0.032      0.025     6.8332     75.265     38.178  35.347345     3.3300     3.4017     0.0852     1.7343 4.0651e+02     3.4845     -0.031     -0.045    21.2899 0.0000e+00
     -0.025      0.025     6.7894     74.813     38.181  35.352088     3.3300     3.3712     0.0852     1.7343 4.0211e+02     3.3642     -0.025     -0.036    21.2885 0.0000e+00
     -0.019      0.025     6.7489     74.336     38.183  35.356275     3.3300     3.3521     0.0852     1.7343 3.9621e+02     3.2740     -0.018     -0.026    21.2875 0.0000e+00
     -0.012      0.025     6.7101     73.835     38.185  35.361020     3.3300     3.3597     0.0852     1.7343 3.8888e+02     3.3342     -0.012     -0.017    21.2871 0.0000e+00
     -0.006      0.025     6.6712     73.321     38.185  35.363630     3.2400     3.3864     0.0852     1.6920 3.8201e+02     3.1087     -0.006     -0.009    21.2878 0.0000e+00
      0.000      0.025     6.6309     72.810     38.179  35.360838     3.2400     3.3712     0.0852     1.6920 3.8243e+02     3.1838      0.000      0.000    21.2900 0.0000e+00
      0.006      0.025     6.5883     72.320     38.170  35.355861     3.2400     3.3788     0.0852     1.6920 3.7388e+02     3.1388      0.006      0.009    21.2933 0.0000e+00
      0.013      0.026     6.5434     71.866     38.163  35.351334     3.2400     3.3941     0.0852     1.6920 3.6664e+02     3.1237      0.013      0.018    21.2970 0.0000e+00
      0.020      0.026     6.4973     71.460     38.155  35.346048     3.2400     3.3140     0.0852     1.8189 3.5604e+02     3.1388      0.019      0.028    21.3007 0.0000e+00
      0.026      0.026     6.4516     71.114     38.145  35.338596     3.2400     3.2949     0.0852     1.8189 3.4635e+02     3.0335      0.026      0.038    21.3043 0.0000e+00
      0.033      0.027     6.4078     70.843     38.133  35.326989     3.2400     3.2873     0.0852     1.8189 3.4907e+02     3.0486      0.033      0.047    21.3079 0.0000e+00
      0.040      0.027     6.3671     70.663     38.119  35.312095     3.2400     3.2987     0.0852     1.8189 3.5242e+02     3.1087      0.039      0.057    21.3113 0.0000e+00
      0.047      0.028     6.3308     70.599     38.109  35.297862     3.2400     3.3712     0.0852     1.8189 3.5296e+02     3.0486      0.046      0.067    21.3142 0.0000e+00
      0.054      0.029     6.3000     70.701     38.102  35.284456     3.3300     3.3674     0.0426     1.6074 3.5219e+02     3.1388      0.053      0.077    21.3159 0.0000e+00
      0.062      0.031     6.2761     71.048     38.096  35.268302     3.3300     3.3674     0.0426     1.6074 3.4164e+02     3.0486      0.060      0.087    21.3157 0.0000e+00
      0.070      0.032     6.2606     71.779     38.089  35.245092     3.3300     3.3597     0.0426     1.6074 3.3935e+02     3.1087      0.068      0.099    21.3126 0.0000e+00
      0.078      0.032     6.2558     73.126     38.084  35.214578     3.3300     3.2987     0.0426     1.6074 3.3883e+02     3.3191      0.077      0.111    21.3066 0.0000e+00
      0.087      0.033     6.2661     75.498     38.094  35.184466     3.3300     3.3178     0.0852     1.6497 3.3612e+02     3.2891      0.085      0.123    21.2974 0.0000e+00
      0.095      0.033     6.2989     79.499     38.127  35.164550     3.3300     3.3102     0.0852     1.6497 3.3047e+02     3.3943      0.093      0.136    21.2834 0.0000e+00
      0.104      0.032     6.3669     85.606     38.180  35.161397     3.3300     3.3216     0.0852     1.6497 3.2925e+02     3.3041      0.102      0.148    21.2616 0.0000e+00
      0.112      0.032     6.4913     93.674     38.236  35.170202     3.3300     3.2873     0.0852     1.6497 3.2506e+02     3.2891      0.110      0.159    21.2275 0.0000e+00
      0.120      0.031     6.7094    102.919     38.278  35.177467     3.3300     3.2911     0.0426     1.8612 3.2470e+02     3.3642      0.117      0.171    21.1760 0.0000e+00
      0.128      0.030     7.0748    112.298     38.303  35.181167     3.3300     3.3102     0.0426     1.8612 3.2421e+02     3.2891      0.125      0.182    21.1098 0.0000e+00
      0.135      0.029     7.6284    120.811     38.321  35.186250     3.3300     3.3025     0.0426     1.8612 3.2196e+02     3.3041      0.132      0.193    21.0424 0.0000e+00
      0.143      0.028     8.3560    127.643     38.331  35.190110     3.3300     3.2262     0.0426     1.8612 3.2133e+02     3.3041      0.140      0.203    20.9861 0.0000e+00
      0.150      0.027     9.1870    132.263     38.335  35.193776     3.2400     3.2720     0.0426     1.8189 3.1814e+02     3.3041      0.147      0.213    20.9456 0.0000e+00
      0.156      0.026    10.0283    134.506     38.338  35.200207     3.2400     3.2339     0.0426     1.8189 3.1869e+02     3.3642      0.153      0.223    20.9199 0.0000e+00
      0.163      0.025    10.7907    134.632     38.337  35.205176     3.2400     3.2491     0.0426     1.8189 3.1497e+02     3.3943      0.160      0.232    20.9050 0.0000e+00
      0.169      0.024    11.4016    133.257     38.333  35.208029     3.2400     3.2606     0.0426     1.8189 3.1745e+02     3.3492      0.166      0.241    20.8982 0.0000e+00
      0.175      0.024    11.8138    131.066     38.330  35.209527     3.2400     3.2567     0.0426     1.8189 3.1374e+02     3.4394      0.172      0.249    20.8981 0.0000e+00
      0.181      0.024    12.0126    128.578     38.329  35.212049     3.2400     3.2453     0.0426     1.8189 3.1545e+02     3.2440      0.177      0.257    20.9031 0.0000e+00
      0.187      0.024    12.0220    126.102     38.334  35.220230     3.2400     3.2339     0.0426     1.8189 3.1525e+02     3.2440      0.183      0.265    20.9108 0.0000e+00
      0.193      0.024    11.8972    123.802     38.342  35.230309     3.2400     3.3140     0.0426     1.8189 3.1429e+02     3.4093      0.189      0.274    20.9187 0.0000e+00
      0.199      0.024    11.7001    121.756     38.348  35.239034     3.2400     3.3216     0.0426     1.8189 3.1238e+02     3.3492      0.195      0.283    20.9249 0.0000e+00
      0.205      0.024    11.4769    119.985     38.352  35.244769     3.2400     3.3025     0.0426     1.7766 3.0928e+02     3.3041      0.201      0.292    20.9293 0.0000e+00
      0.212      0.024    11.2550    118.484     38.350  35.245084     3.2400     3.2949     0.0426     1.7766 3.0907e+02     3.3642      0.207      0.301    20.9335 0.0000e+00
      0.218      0.024    11.0488    117.238     38.345  35.240063     3.2400     3.3063     0.0426     1.7766 3.0954e+02     3.5446      0.213      0.309    20.9376 0.0000e+00
      0.223      0.023    10.8654    116.226     38.335  35.230346     3.2400     3.3178     0.0426     1.7766 3.0680e+02     3.7249      0.219      0.318    20.9415 0.0000e+00
      0.229      0.023    10.7067    115.417     38.324  35.219285     3.2400     3.2949     0.0000     1.8189 3.0607e+02     3.5897      0.225      0.326    20.9446 0.0000e+00
      0.235      0.023    10.5723    114.769     38.317  35.211851     3.2400     3.2987     0.0000     1.8189 3.0727e+02     3.6648      0.230      0.334    20.9465 0.0000e+00
      0.240      0.022    10.4611    114.229     38.319  35.212004     3.2400     3.3140     0.0000     1.8189 3.0527e+02     3.6949      0.236      0.342    20.9467 0.0000e+00
      0.246      0.022    10.3709    113.753     38.325  35.215823     3.2400     3.3292     0.0000     1.8189 3.0454e+02     3.6047      0.241      0.350    20.9458 0.0000e+00
      0.252      0.021    10.2990    113.333     38.327  35.216405     3.2400     3.3063     0.0852     1.7343 3.0507e+02     3.5145      0.247      0.358    20.9445 0.0000e+00
      0.258      0.021    10.2415    112.985     38.327  35.213904     3.2400     3.3178     0.0852     1.7343 3.0230e+02     3.5897      0.253      0.366    20.9432 0.0000e+00
      0.263      0.019    10.1935    112.727     38.326  35.211615     3.2400     3.1995     0.0852     1.7343 2.9735e+02     3.3492      0.258      0.374    20.9416 0.0000e+00
      0.268      0.017    10.1515    112.566     38.326  35.210908     3.2400     3.1576     0.0852     1.7343 2.9988e+02     3.3943      0.263      0.381    20.9394 0.0000e+00
      0.272      0.016    10.1145    112.493     38.328  35.211594     3.2400     3.1728     0.0852     1.7343 2.9890e+02     3.3642      0.267      0.387    20.9368 0.0000e+00
      0.276      0.014    10.0839    112.477     38.330  35.211875     3.2400     3.1957     0.0852     1.6497 2.9871e+02     3.3342      0.270      0.393    20.9344 0.0000e+00
      0.279      0.012    10.0613    112.484     38.327  35.207866     3.2400     3.3140     0.0852     1.6497 2.9864e+02     3.1237      0.273      0.397    20.9325 0.0000e+00
      0.282      0.010    10.0473    112.497     38.323  35.202458     3.2400     3.3178     0.0852     1.6497 3.0145e+02     3.1538      0.276      0.400    20.9309 0.0000e+00
      0.284      0.009    10.0411    112.510     38.323  35.202130     3.2400     3.3254     0.0852     1.6497 3.0053e+02     3.0486      0.278      0.404    20.9292 0.0000e+00
      0.286      0.008    10.0400    112.541     38.326  35.204816     3.2400     3.2873     0.0426     1.8189 2.9929e+02     3.0636      0.280      0.407    20.9273 0.0000e+00
      0.288      0.008    10.0410    112.607     38.328  35.207269     3.2400     3.2072     0.0426     1.8189 3.0388e+02     3.1087      0.282      0.410    20.9255 0.0000e+00
      0.290      0.008    10.0424    112.702     38.329  35.208164     3.2400     3.1805     0.0426     1.8189 3.0283e+02     3.2289      0.284      0.412    20.9241 0.0000e+00
      0.292      0.008    10.0438    112.806     38.326  35.205760     3.2400     3.1728     0.0426     1.8189 2.9529e+02     3.1688      0.286      0.415    20.9233 0.0000e+00
      0.294      0.009    10.0466    112.921     38.321  35.201395     3.3300     3.1576     0.0426     1.6920 2.8169e+02     3.1388      0.288      0.418    20.9232 0.0000e+00
      0.296      0.011    10.0525    113.049     38.319  35.199848     3.3300     3.3140     0.0426     1.6920 2.8230e+02     3.1989      0.290      0.421    20.9233 0.0000e+00
      0.299      0.013    10.0608    113.175     38.324  35.204667     3.3300     3.2911     0.0426     1.6920 2.7647e+02     3.1237      0.293      0.425    20.9237 0.0000e+00
      0.302      0.016    10.0701    113.264     38.334  35.213175     3.3300     3.2949     0.0426     1.6920 2.7059e+02     3.0486      0.296      0.430    20.9241 0.0000e+00
      0.306      0.019    10.0802    113.286     38.340  35.217739     3.2400     3.3140     0.0426     1.7343 2.7557e+02     3.0786      0.301      0.436    20.9245 0.0000e+00
      0.311      0.023    10.0916    113.240     38.335  35.211654     3.2400     3.2529     0.0426     1.7343 2.9929e+02     3.1388      0.306      0.443    20.9249 0.0000e+00
      0.318      0.027    10.1029    113.154     38.324  35.197259     3.2400     3.2339     0.0426     1.7343 3.0647e+02     3.1538      0.311      0.452    20.9249 0.0000e+00
      0.325      0.032    10.1109    113.061     38.318  35.186559     3.2400     3.2567     0.0426     1.7343 2.8625e+02     3.1688      0.318      0.462    20.9244 0.0000e+00
      0.334      0.036    10.1130    112.988     38.325  35.186603     3.2400     3.2415     0.0426     1.7343 3.0633e+02     3.1237      0.327      0.474    20.9232 0.0000e+00
      0.344      0.040    10.1094    112.944     38.335  35.189478     3.2400     3.3750     0.0426     1.7343 3.0079e+02     3.3642      0.337      0.489    20.9208 0.0000e+00
      0.355      0.043    10.1026    112.939     38.339  35.188031     3.2400     3.3712     0.0426     1.7343 2.9280e+02     3.3642      0.348      0.505    20.9163 0.0000e+00
      0.367      0.046    10.0958    112.981     38.337  35.181876     3.2400     3.3750     0.0426     1.7343 2.8415e+02     3.3642      0.359      0.522    20.9093 0.0000e+00
      0.379      0.047    10.0909    113.059     38.329  35.169369     3.2400     3.3636     0.0426     1.7343 2.7980e+02     3.4243      0.372      0.539    20.9010 0.0000e+00
      0.392      0.048    10.0885    113.153     38.315  35.151138     3.3300     3.3941     0.0426     1.7766 2.7846e+02     3.0786      0.384      0.557    20.8931 0.0000e+00
      0.404      0.048    10.0894    113.249     38.307  35.138164     3.3300     3.3712     0.0426     1.7766 2.7253e+02     3.0636      0.396      0.575    20.8864 0.0000e+00
      0.416      0.047    10.0944    113.334     38.314  35.138871     3.3300     3.3712     0.0426     1.7766 2.6529e+02     3.1688      0.408      0.592    20.8803 0.0000e+00
      0.428      0.045    10.1025    113.396     38.327  35.145523     3.3300     3.3636     0.0426     1.7766 2.5583e+02     3.0335      0.420      0.609    20.8740 0.0000e+00
      0.439      0.043    10.1124    113.427     38.332  35.148013     3.3300     3.4437     0.0426     1.7766 2.4974e+02     3.3342      0.431      0.625    20.8670 0.0000e+00
      0.450      0.041    10.1225    113.430     38.329  35.147003     3.3300     3.4589     0.0426     1.7766 2.4618e+02     3.3792      0.442      0.641    20.8591 0.0000e+00
      0.460      0.039    10.1316    113.417     38.328  35.150146     3.3300     3.4284     0.0426     1.7766 2.4458e+02     3.3642      0.452      0.655    20.8513 0.0000e+00
      0.470      0.037    10.1384    113.391     38.332  35.158281     3.3300     3.4437     0.0426     1.7766 2.4342e+02     3.3492      0.461      0.669    20.8451 0.0000e+00
      0.479      0.034    10.1418    113.341     38.335  35.165656     3.3300     3.3559     0.0426     1.9458 2.4141e+02     3.3642      0.470      0.681    20.8421 0.0000e+00
      0.487      0.032    10.1417    113.266     38.331  35.166316     3.3300     3.3903     0.0426     1.9458 2.4052e+02     3.3342      0.478      0.693    20.8437 0.0000e+00
      0.495      0.031    10.1395    113.178     38.323  35.160437     3.3300     3.3712     0.0426     1.9458 2.3896e+02     3.3191      0.485      0.704    20.8490 0.0000e+00
      0.502      0.030    10.1360    113.091     38.318  35.154373     3.3300     3.3521     0.0426     1.9458 2.3912e+02     3.4093      0.493      0.715    20.8551 0.0000e+00
      0.510      0.030    10.1304    113.008     38.315  35.146508     3.3300     3.6726     0.0426     1.9458 2.3922e+02     3.2891      0.500      0.725    20.8611 0.0000e+00
      0.517      0.030    10.1226    112.914     38.306  35.130782     3.3300     3.6878     0.0426     1.8612 2.3849e+02     3.3642      0.507      0.735    20.8664 0.0000e+00
      0.524      0.031    10.1141    112.795     38.292  35.106963     3.3300     3.6764     0.0426     1.8612 2.3715e+02     3.3342      0.514      0.746    20.8690 0.0000e+00
      0.532      0.032    10.1068    112.657     38.277  35.076622     3.3300     3.6611     0.0426     1.8612 2.3643e+02     3.3943      0.522      0.757    20.8671 0.0000e+00
      0.540      0.033    10.1007    112.512     38.266  35.043548     3.3300     4.1074     0.0426     1.8612 2.3571e+02     3.4995      0.530      0.768    20.8606 0.0000e+00
      0.548      0.035    10.0943    112.364     38.265  35.014766     3.4200     4.0922     0.0426     1.7766 2.3327e+02     3.6648      0.538      0.780    20.8503 0.0000e+00
      0.558      0.036    10.0865    112.235     38.276  34.994481     3.4200     4.1074     0.0426     1.7766 2.3155e+02     3.6648      0.547      0.793    20.8357 0.0000e+00
      0.567      0.038    10.0783    112.172     38.291  34.981243     3.4200     4.0998     0.0426     1.7766 2.2865e+02     3.5295      0.556      0.807    20.8145 0.0000e+00
      0.577      0.039    10.0712    112.215     38.303  34.971519     3.4200     4.4164     0.0426     1.7766 2.2642e+02     3.5145      0.566      0.821    20.7849 0.0000e+00
      0.587      0.039    10.0652    112.378     38.315  34.966677     3.4200     4.4164     0.0852     1.8612 2.2446e+02     3.6197      0.576      0.836    20.7480 0.0000e+00
      0.598      0.039    10.0615    112.652     38.330  34.969387     3.4200     4.4126     0.0852     1.8612 2.2103e+02     3.5897      0.586      0.851    20.7088 0.0000e+00
      0.608      0.038    10.0629    113.008     38.347  34.976410     3.4200     4.4202     0.0852     1.8612 2.1783e+02     3.5897      0.596      0.865    20.6736 0.0000e+00
      0.618      0.037    10.0722    113.403     38.364  34.985657     3.4200     4.8208     0.0852     1.8612 2.1543e+02     3.5446      0.606      0.879    20.6458 0.0000e+00
      0.627      0.035    10.0909    113.790     38.379  34.995633     3.4200     4.8208     0.0426     2.0727 2.1459e+02     3.6047      0.615      0.892    20.6254 0.0000e+00
      0.636      0.034    10.1183    114.132     38.384  34.997116     3.4200     4.8246     0.0426     2.0727 2.1417e+02     3.5145      0.623      0.904    20.6109 0.0000e+00
      0.644      0.033    10.1524    114.406     38.373  34.986540     3.4200     4.8132     0.0426     2.0727 2.1964e+02     3.4995      0.631      0.916    20.6003 0.0000e+00
      0.652      0.032    10.1894    114.603     38.358  34.972968     3.4200     5.1794     0.0426     2.0727 2.3165e+02     3.3342      0.639      0.928    20.5926 0.0000e+00
      0.660      0.032    10.2253    114.721     38.343  34.960702     3.4200     5.1908     0.0426     2.0727 2.4426e+02     3.4243      0.647      0.939    20.5872 0.0000e+00
      0.668      0.031    10.2567    114.767     38.332  34.950433     3.5100     5.1946     0.0426     1.9881 2.4731e+02     3.4845      0.655      0.950    20.5839 0.0000e+00
      0.676      0.031    10.2816    114.752     38.327  34.943383     3.5100     5.1718     0.0426     1.9881 2.4570e+02     3.4544      0.663      0.962    20.5828 0.0000e+00
      0.684      0.030    10.2991    114.689     38.327  34.937672     3.5100     5.3091     0.0426     1.9881 2.4073e+02     3.5746      0.670      0.973    20.5836 0.0000e+00
      0.692      0.030    10.3095    114.605     38.332  34.935739     3.5100     5.3205     0.0426     1.9881 2.3896e+02     3.6047      0.678      0.983    20.5848 0.0000e+00
      0.699      0.031    10.3137    114.541     38.339  34.933105     3.4200     5.3243     0.0852     2.0304 2.3551e+02     3.5897      0.686      0.994    20.5843 0.0000e+00
      0.707      0.031    10.3131    114.534     38.338  34.921148     3.4200     5.3167     0.0852     2.0304 2.3125e+02     3.6047      0.693      1.005    20.5808 0.0000e+00
      0.715      0.031    10.3088    114.601     38.334  34.904598     3.4200     5.5227     0.0852     2.0304 2.2900e+02     3.9203      0.701      1.016    20.5740 0.0000e+00
      0.723      0.032    10.3031    114.734     38.335  34.890926     3.4200     5.4960     0.0852     2.0304 2.2662e+02     3.8301      0.709      1.028    20.5647 0.0000e+00
      0.731      0.033    10.2998    114.916     38.340  34.880446     3.4200     5.4998     0.0852     2.2419 2.2476e+02     3.8001      0.717      1.040    20.5529 0.0000e+00
      0.740      0.034    10.3022    115.134     38.351  34.874323     3.4200     5.4960     0.0852     2.2419 2.2180e+02     3.7249      0.725      1.052    20.5383 0.0000e+00
      0.748      0.035    10.3116    115.381     38.371  34.874885     3.4200     5.5532     0.0852     2.2419 2.1873e+02     3.7700      0.734      1.064    20.5214 0.0000e+00
      0.757      0.036    10.3273    115.641     38.391  34.874360     3.4200     5.5799     0.0852     2.2419 2.1468e+02     3.7851      0.742      1.077    20.5032 0.0000e+00
      0.766      0.036    10.3476    115.901     38.406  34.868645     3.4200     5.5418     0.0852     2.2419 2.1190e+02     3.9053      0.751      1.090    20.4838 0.0000e+00
      0.776      0.037    10.3715    116.162     38.421  34.864137     3.5100     5.5303     0.1278     2.2842 2.0843e+02     3.9203      0.761      1.104    20.4628 0.0000e+00
      0.786      0.037    10.3985    116.436     38.439  34.863594     3.5100     5.8775     0.1278     2.2842 2.0524e+02     4.0105      0.770      1.117    20.4396 0.0000e+00
      0.795      0.037    10.4270    116.746     38.453  34.862909     3.5100     5.8737     0.1278     2.2842 2.0210e+02     4.0105      0.780      1.131    20.4150 0.0000e+00
      0.805      0.037    10.4556    117.122     38.461  34.857939     3.5100     5.8470     0.1278     2.2842 2.0118e+02     4.0406      0.789      1.145    20.3901 0.0000e+00
      0.814      0.037    10.4841    117.579     38.465  34.851319     3.5100     5.8660     0.0852     2.2419 2.0044e+02     4.0406      0.798      1.158    20.3663 0.0000e+00
      0.823      0.037    10.5132    118.115     38.473  34.849204     3.5100     5.9729     0.0852     2.2419 1.9814e+02     4.0406      0.807      1.171    20.3452 0.0000e+00
      0.832      0.037    10.5449    118.735     38.486  34.851032     3.5100     5.9881     0.0852     2.2419 1.9575e+02     4.0105      0.816      1.184    20.3272 0.0000e+00
      0.842      0.037    10.5822    119.467     38.495  34.849366     3.5100     5.9805     0.0852     2.2419 1.9342e+02     4.0857      0.826      1.197    20.3116 0.0000e+00
      0.851      0.038    10.6264    120.342     38.503  34.847723     3.5100     5.9881     0.0852     2.3265 1.9054e+02     4.0556      0.835      1.211    20.2979 0.0000e+00
      0.861      0.038    10.6775    121.360     38.521  34.849628     3.5100     6.3734     0.0852     2.3265 1.8734e+02     4.0706      0.845      1.225    20.2852 0.0000e+00
      0.871      0.038    10.7364    122.477     38.545  34.847664     3.5100     6.3505     0.0852     2.3265 1.8645e+02     4.0857      0.854      1.239    20.2720 0.0000e+00
      0.881      0.039    10.8053    123.648     38.571  34.841308     3.5100     6.3620     0.0852     2.3265 1.8487e+02     4.1458      0.864      1.253    20.2598 0.0000e+00
      0.890      0.039    10.8870    124.881     38.595  34.832824     3.6900     6.3505     0.0852     2.4957 1.8272e+02     4.0406      0.873      1.266    20.2482 0.0000e+00
      0.900      0.040    10.9831    126.212     38.609  34.819946     3.6900     6.7205     0.0852     2.4957 1.7972e+02     4.0556      0.883      1.281    20.2300 0.0000e+00
      0.911      0.040    11.0910    127.658     38.618  34.807163     3.6900     6.7434     0.0852     2.4957 1.7697e+02     3.9804      0.893      1.295    20.1995 0.0000e+00
      0.921      0.041    11.2057    129.214     38.630  34.802945     3.6900     6.7091     0.0852     2.4957 1.7422e+02     4.0105      0.904      1.310    20.1610 0.0000e+00
      0.932      0.041    11.3262    130.854     38.649  34.806170     3.6900     6.7244     0.0852     2.4957 1.7189e+02     3.9955      0.914      1.325    20.1221 0.0000e+00
      0.942      0.041    11.4546    132.530     38.668  34.809774     3.7800     6.9609     0.0852     2.5803 1.7011e+02     4.2209      0.924      1.340    20.0881 0.0000e+00
      0.952      0.042    11.5918    134.172     38.679  34.806797     3.7800     6.9723     0.0852     2.5803 1.6882e+02     4.3412      0.934      1.355    20.0617 0.0000e+00
      0.963      0.042    11.7377    135.697     38.685  34.796445     3.7800     6.9952     0.0852     2.5803 1.6634e+02     4.3111      0.945      1.370    20.0417 0.0000e+00
      0.974      0.043    11.8908    137.048     38.696  34.787838     3.7800     6.9952     0.0852     2.5803 1.6523e+02     4.2660      0.955      1.385    20.0241 0.0000e+00
      0.985      0.044    12.0472    138.237     38.719  34.790564     3.9600     7.2928     0.1278     2.7495 1.6224e+02     4.5366      0.966      1.400    20.0069 0.0000e+00
      0.996      0.045    12.2008    139.345     38.750  34.801387     3.9600     7.2813     0.1278     2.7495 1.6042e+02     4.5967      0.977      1.417    19.9892 0.0000e+00
      1.007      0.045    12.3444    140.475     38.779  34.811311     3.9600     7.2889     0.1278     2.7495 1.5813e+02     4.5366      0.988      1.433    19.9688 0.0000e+00
      1.019      0.046    12.4731    141.721     38.812  34.822981     3.9600     7.3080     0.1278     2.7495 1.5564e+02     4.4764      1.000      1.450    19.9453 0.0000e+00
      1.031      0.047    12.5873    143.140     38.854  34.839510     4.1400     7.8192     0.0426     2.8341 1.5450e+02     4.4915      1.011      1.466    19.9218 0.0000e+00
      1.043      0.048    12.6935    144.747     38.900  34.857382     4.1400     7.8268     0.0426     2.8341 1.5253e+02     4.5215      1.023      1.483    19.9006 0.0000e+00
      1.055      0.048    12.8017    146.541     38.946  34.873439     4.1400     7.8230     0.0426     2.8341 1.5065e+02     4.5366      1.035      1.501    19.8799 0.0000e+00
      1.067      0.049    12.9213    148.500     38.986  34.884042     4.1400     7.8383     0.0426     2.8341 1.4867e+02     4.7320      1.047      1.518    19.8569 0.0000e+00
      1.080      0.051    13.0578    150.553     39.021  34.888056     4.4100     8.2732     0.0852     2.9187 1.4700e+02     4.5967      1.059      1.536    19.8298 0.0000e+00
      1.093      0.052    13.2125    152.608     39.050  34.886549     4.4100     8.2617     0.0852     2.9187 1.4468e+02     4.5516      1.072      1.555    19.7994 0.0000e+00
      1.106      0.053    13.3848    154.611     39.073  34.879119     4.4100     8.2426     0.0852     2.9187 1.4315e+02     4.5516      1.085      1.574    19.7676 0.0000e+00
      1.120      0.054    13.5727    156.542     39.093  34.867745     4.4100     8.2541     0.0852     2.9187 1.4154e+02     4.5366      1.098      1.593    19.7345 0.0000e+00
      1.134      0.056    13.7699    158.396     39.121  34.861275     4.4100     8.5745     0.0852     2.9187 1.4023e+02     4.4314      1.112      1.613    19.7002 0.0000e+00
      1.148      0.057    13.9677    160.166     39.163  34.865905     4.5900     8.6050     0.1278     2.9610 1.3835e+02     4.5666      1.126      1.633    19.6651 0.0000e+00
      1.163      0.058    14.1612    161.834     39.211  34.874945     4.5900     8.6012     0.1278     2.9610 1.3614e+02     4.5366      1.141      1.654    19.6291 0.0000e+00
      1.178      0.059    14.3489    163.382     39.255  34.878923     4.5900     8.5936     0.1278     2.9610 1.3296e+02     4.4915      1.156      1.676    19.5915 0.0000e+00
      1.194      0.060    14.5304    164.821     39.301  34.878898     4.5900     9.5816     0.1278     2.9610 1.3258e+02     4.9724      1.171      1.697    19.5516 0.0000e+00
      1.209      0.061    14.7050    166.198     39.355  34.878823     4.6800     9.5892     0.0852     3.0879 1.3183e+02     5.0476      1.185      1.719    19.5100 0.0000e+00
      1.224      0.062    14.8708    167.603     39.414  34.878677     4.6800     9.5969     0.0852     3.0879 1.2917e+02     4.9574      1.200      1.741    19.4675 0.0000e+00
      1.240      0.063    15.0267    169.144     39.472  34.874457     4.6800     9.5854     0.0852     3.0879 1.2719e+02     4.9875      1.216      1.763    19.4224 0.0000e+00
      1.256      0.064    15.1750    170.920     39.512  34.853153     4.6800    10.9206     0.0852     3.0879 1.2598e+02     5.4384      1.232      1.786    19.3704 0.0000e+00
      1.273      0.065    15.3206    173.029     39.526  34.809081     4.8600    10.9435     0.1278     3.5109 1.2465e+02     5.5887      1.248      1.810    19.3096 0.0000e+00
      1.289      0.067    15.4712    175.519     39.520  34.750290     4.8600    10.9320     0.1278     3.5109 1.2274e+02     5.4985      1.264      1.834    19.2422 0.0000e+00
      1.307      0.068    15.6358    178.305     39.500  34.682886     4.8600    10.9473     0.1278     3.5109 1.2081e+02     5.4534      1.281      1.858    19.1718 0.0000e+00
      1.324      0.070    15.8229    181.147     39.471  34.612658     4.8600    11.6759     0.1278     3.5109 1.1940e+02     5.4835      1.299      1.884    19.1006 0.0000e+00
      1.342      0.071    16.0412    183.721     39.447  34.550584     5.2200    11.6759     0.0852     4.1877 1.1862e+02     5.4384      1.316      1.909    19.0295 0.0000e+00
      1.361      0.073    16.2945    185.710     39.430  34.499912     5.2200    11.6721     0.0852     4.1877 1.1765e+02     5.4534      1.334      1.935    18.9611 0.0000e+00
      1.379      0.074    16.5741    186.888     39.418  34.455051     5.2200    11.6568     0.0852     4.1877 1.1492e+02     5.5286      1.352      1.962    18.8981 0.0000e+00
      1.398      0.075    16.8575    187.171     39.414  34.415919     5.2200    12.5037     0.0852     4.1877 1.1377e+02     5.7841      1.371      1.989    18.8408 0.0000e+00
      1.418      0.076    17.1145    186.617     39.416  34.380002     5.2200    12.4961     0.0852     4.1877 1.1252e+02     5.7540      1.390      2.016    18.7893 0.0000e+00
      1.437      0.076    17.3154    185.409     39.419  34.341681     5.3100    12.5037     0.0852     4.2300 1.1008e+02     5.7239      1.409      2.044    18.7433 0.0000e+00
      1.457      0.077    17.4400    183.817     39.427  34.306579     5.3100    12.5190     0.0852     4.2300 1.0795e+02     5.7540      1.428      2.072    18.6999 0.0000e+00
      1.476      0.077    17.4818    182.132     39.443  34.277216     5.3100    14.5217     0.0852     4.2300 1.0680e+02     6.2801      1.448      2.100    18.6552 0.0000e+00
      1.496      0.078    17.4468    180.589     39.450  34.237840     5.3100    14.5141     0.0852     4.2300 1.0476e+02     6.1147      1.467      2.127    18.6071 0.0000e+00
      1.516      0.078    17.3516    179.341     39.437  34.177947     5.4000    14.5179     0.1278     4.4415 1.0322e+02     6.2350      1.486      2.155    18.5558 0.0000e+00
      1.535      0.078    17.2212    178.477     39.413  34.103350     5.4000    14.5408     0.1278     4.4415 1.0202e+02     6.2951      1.506      2.184    18.5022 0.0000e+00
      1.555      0.078    17.0824    178.022     39.384  34.017919     5.4000    16.6961     0.1278     4.4415 9.9240e+01     6.6258      1.525      2.212    18.4472 0.0000e+00
      1.576      0.077    16.9578    177.952     39.352  33.916694     5.4000    16.6999     0.1278     4.4415 9.6539e+01     6.7460      1.545      2.241    18.3894 0.0000e+00
      1.596      0.077    16.8623    178.198     39.321  33.800406     5.4900    16.7152     0.0852     5.0337 9.4875e+01     6.7310      1.565      2.270    18.3271 0.0000e+00
      1.615      0.076    16.8045    178.652     39.299  33.679626     5.4900    16.6885     0.0852     5.0337 9.4217e+01     6.7610      1.584      2.297    18.2596 0.0000e+00
      1.634      0.075    16.7884    179.176     39.284  33.561751     5.4900    18.4776     0.0852     5.0337 9.2815e+01     6.4604      1.603      2.324    18.1829 0.0000e+00
      1.653      0.073    16.8146    179.630     39.265  33.445046     5.4900    18.4700     0.0852     5.0337 9.1434e+01     6.4454      1.621      2.351    18.0888 0.0000e+00
      1.672      0.072    16.8778    179.891     39.230  33.322150     5.4900    18.4738     0.0852     5.0337 8.9878e+01     6.4003      1.639      2.377    17.9743 0.0000e+00
      1.690      0.072    16.9659    179.859     39.169  33.188012     5.5800    18.4891     0.0852     5.3298 8.8887e+01     6.3552      1.657      2.403    17.8454 0.0000e+00
      1.708      0.072    17.0625    179.459     39.078  33.036562     5.5800    19.6411     0.0852     5.3298 8.8290e+01     5.4985      1.675      2.429    17.7120 0.0000e+00
      1.726      0.072    17.1510    178.673     38.960  32.867020     5.5800    19.6335     0.0852     5.3298 8.6958e+01     5.4233      1.692      2.455    17.5831 0.0000e+00
      1.744      0.073    17.2176    177.529     38.821  32.683677     5.5800    19.6564     0.0852     5.3298 8.5608e+01     5.5586      1.710      2.481    17.4649 0.0000e+00
      1.763      0.074    17.2518    176.067     38.659  32.483186     5.4900    19.6602     0.1278     5.4567 8.3441e+01     5.4985      1.729      2.507    17.3590 0.0000e+00
      1.782      0.074    17.2473    174.304     38.475  32.267528     5.4900    20.6024     0.1278     5.4567 8.1399e+01     5.6939      1.747      2.535    17.2632 0.0000e+00
      1.801      0.075    17.2032    172.236     38.288  32.050480     5.4900    20.6063     0.1278     5.4567 7.9407e+01     5.7991      1.766      2.562    17.1739 0.0000e+00
      1.820      0.076    17.1231    169.824     38.108  31.837528     5.4900    20.5834     0.1278     5.4567 7.8311e+01     5.6939      1.785      2.589    17.0883 0.0000e+00
      1.840      0.076    17.0108    167.024     37.933  31.627327     5.4000    20.6024     0.1278     5.2875 7.7145e+01     5.8141      1.804      2.617    17.0057 0.0000e+00
      1.859      0.076    16.8682    163.811     37.778  31.431146     5.4000    18.9545     0.1278     5.2875 7.5356e+01     5.2580      1.823      2.644    16.9259 0.0000e+00
      1.879      0.076    16.6951    160.175     37.657  31.263993     5.4000    18.9812     0.1278     5.2875 7.3544e+01     5.3332      1.842      2.672    16.8470 0.0000e+00
      1.899      0.075    16.4887    156.138     37.579  31.136733     5.4000    18.9621     0.1278     5.2875 7.1015e+01     5.2580      1.862      2.701    16.7660 0.0000e+00
      1.918      0.072    16.2452    151.784     37.525  31.037210     5.3100    18.9926     0.0852     4.8222 6.8336e+01     5.1378      1.881      2.729    16.6813 0.0000e+00
      1.937      0.070    15.9616    147.256     37.447  30.927002     5.3100    16.2498     0.0852     4.8222 6.6722e+01     4.4915      1.900      2.756    16.5934 0.0000e+00
      1.955      0.066    15.6359    142.738     37.332  30.792558     5.3100    16.2384     0.0852     4.8222 6.5586e+01     4.4764      1.917      2.781    16.5053 0.0000e+00
      1.971      0.063    15.2683    138.425     37.208  30.651489     5.3100    16.2422     0.0852     4.8222 6.5886e+01     4.6267      1.933      2.803    16.4224 0.0000e+00
      1.986      0.061    14.8653    134.476     37.093  30.517656     5.3100    16.2498     0.0852     4.8222 6.5373e+01     4.5967      1.948      2.825    16.3499 0.0000e+00
      2.001      0.059    14.4405    130.946     36.992  30.396951     5.1300    10.0394     0.0852     4.0185 6.4274e+01     4.2360      1.962      2.846    16.2892 0.0000e+00
      2.016      0.058    14.0133    127.746     36.907  30.292825     5.1300    10.0241     0.0852     4.0185 6.2267e+01     4.3562      1.977      2.867    16.2358 0.0000e+00
      2.030      0.057    13.6049    124.676     36.835  30.203249     5.1300    10.0127     0.0852     4.0185 6.0942e+01     4.1909      1.991      2.888    16.1840 0.0000e+00
      2.045      0.057    13.2318    121.509     36.772  30.124137     5.1300    10.0279     0.0852     4.0185 6.0100e+01     4.2961      2.006      2.909    16.1315 0.0000e+00
      2.060      0.057    12.8986    118.083     36.716  30.048251     4.9500     6.9647     0.0852     3.7224 5.9554e+01     3.6197      2.020      2.929    16.0804 0.0000e+00
      2.074      0.056    12.5959    114.398     36.664  29.971195     4.9500     6.9723     0.0852     3.7224 5.8553e+01     3.5295      2.034      2.950    16.0342 0.0000e+00
      2.088      0.056    12.3039    110.616     36.628  29.904098     4.9500     6.9647     0.0852     3.7224 5.7732e+01     3.5596      2.048      2.970    15.9939 0.0000e+00
      2.102      0.057    12.0008    106.992     36.606  29.848867     4.9500     6.9799     0.0852     3.7224 5.6947e+01     3.5897      2.062      2.990    15.9561 0.0000e+00
      2.117      0.057    11.6724    103.798     36.583  29.796712     4.8600     4.5156     0.0852     3.2994 5.5978e+01     2.8682      2.076      3.011    15.9153 0.0000e+00
      2.131      0.058    11.3193    101.231     36.561  29.747582     4.8600     4.5232     0.0852     3.2994 5.4478e+01     2.9434      2.090      3.032    15.8682 0.0000e+00
      2.146      0.058    10.9569     99.350     36.530  29.690356     4.8600     4.5385     0.0852     3.2994 5.3423e+01     2.8983      2.105      3.053    15.8171 0.0000e+00
      2.161      0.059    10.6094     98.085     36.495  29.617695     4.8600     4.5423     0.0852     3.2994 5.2149e+01     2.9133      2.120      3.074    15.7669 0.0000e+00
      2.176      0.059    10.3031     97.268     36.480  29.545860     4.6800     3.9205     0.0852     2.5380 5.1620e+01     2.3271      2.134      3.096    15.7210 0.0000e+00
      2.191      0.059    10.0577     96.691     36.488  29.481432     4.6800     3.9396     0.0852     2.5380 5.0951e+01     2.4624      2.149      3.117    15.6788 0.0000e+00
      2.206      0.059     9.8805     96.165     36.500  29.419106     4.6800     3.9167     0.0852     2.5380 4.9942e+01     2.5526      2.164      3.138    15.6341 0.0000e+00
      2.221      0.059     9.7674     95.555     36.510  29.362058     4.6800     3.9434     0.0852     2.5380 4.8446e+01     2.5225      2.179      3.160    15.5744 0.0000e+00
      2.237      0.060     9.7033     94.789     36.518  29.310913     4.6800     4.5309     0.0852     2.5380 4.7590e+01     1.9965      2.194      3.181    15.4922 0.0000e+00
      2.252      0.060     9.6659     93.873     36.519  29.261929     4.2300     4.5500     0.0426     1.7343 4.7148e+01     1.9814      2.208      3.203    15.3951 0.0000e+00
      2.267      0.061     9.6336     92.866     36.519  29.217882     4.2300     4.5500     0.0426     1.7343 4.6245e+01     2.1167      2.223      3.225    15.2971 0.0000e+00
      2.283      0.061     9.5909     91.842     36.524  29.180884     4.2300     4.5156     0.0426     1.7343 4.5339e+01     1.9213      2.239      3.247    15.2074 0.0000e+00
      2.298      0.062     9.5301     90.857     36.526  29.141068     4.2300     4.4927     0.0426     1.7343 4.4519e+01     1.9965      2.254      3.269    15.1285 0.0000e+00
      2.314      0.064     9.4519     89.942     36.525  29.095735     4.1400     4.4889     0.0426     1.5651 4.3629e+01     1.9814      2.269      3.292    15.0603 0.0000e+00
      2.330      0.065     9.3625     89.100     36.534  29.056554     4.1400     4.4889     0.0426     1.5651 4.2644e+01     1.9965      2.286      3.315    15.0006 0.0000e+00
      2.347      0.065     9.2705     88.301     36.548  29.020995     4.1400     4.4813     0.0426     1.5651 4.1448e+01     1.9514      2.302      3.339    14.9445 0.0000e+00
      2.364      0.066     9.1825     87.490     36.552  28.979573     4.1400     4.4927     0.0426     1.5651 3.9988e+01     1.7259      2.319      3.363    14.8870 0.0000e+00
      2.381      0.066     9.1020     86.599     36.555  28.937079     3.9600     4.4737     0.0426     1.3113 3.8857e+01     1.7259      2.336      3.387    14.8260 0.0000e+00
      2.398      0.065     9.0292     85.569     36.569  28.901980     3.9600     4.4737     0.0426     1.3113 3.8705e+01     1.8161      2.352      3.411    14.7627 0.0000e+00
      2.415      0.064     8.9605     84.374     36.592  28.872835     3.9600     4.4775     0.0426     1.3113 3.7685e+01     1.8011      2.368      3.434    14.6993 0.0000e+00
      2.431      0.063     8.8900     83.025     36.617  28.845830     3.9600     4.5423     0.0426     1.3113 3.6579e+01     1.5305      2.384      3.457    14.6377 0.0000e+00
      2.447      0.062     8.8110     81.546     36.647  28.825640     3.9600     4.5461     0.0000     1.0998 3.5855e+01     1.4554      2.400      3.480    14.5767 0.0000e+00
      2.463      0.061     8.7181     79.971     36.681  28.810839     3.9600     4.5423     0.0000     1.0998 3.5153e+01     1.5005      2.415      3.503    14.5138 0.0000e+00
      2.478      0.060     8.6083     78.343     36.708  28.793520     3.9600     4.5309     0.0000     1.0998 3.4487e+01     1.5005      2.431      3.525    14.4494 0.0000e+00
      2.493      0.059     8.4822     76.713     36.728  28.773023     3.9600     4.2486     0.0000     1.0998 3.3761e+01     1.5305      2.445      3.546    14.3857 0.0000e+00
      2.508      0.059     8.3422     75.143     36.747  28.753781     3.9600     4.2257     0.0000     1.0998 3.3287e+01     1.5907      2.460      3.567    14.3249 0.0000e+00
      2.523      0.058     8.1911     73.705     36.767  28.736599     3.9600     4.2028     0.0426     0.6768 3.2671e+01     1.4554      2.474      3.588    14.2682 0.0000e+00
      2.538      0.058     8.0336     72.462     36.777  28.712936     3.9600     4.2524     0.0426     0.6768 3.1934e+01     1.4704      2.489      3.609    14.2159 0.0000e+00
      2.553      0.058     7.8749     71.463     36.771  28.678460     3.9600     3.9816     0.0426     0.6768 3.1044e+01     1.4704      2.503      3.631    14.1670 0.0000e+00
      2.567      0.058     7.7218     70.721     36.761  28.641797     3.9600     3.9892     0.0426     0.6768 3.0582e+01     1.5606      2.518      3.652    14.1204 0.0000e+00
      2.582      0.058     7.5815     70.219     36.760  28.612966     3.8700     3.9892     0.0426     0.5922 3.0082e+01     1.5155      2.532      3.672    14.0757 0.0000e+00
      2.597      0.058     7.4608     69.928     36.770  28.592198     3.8700     3.9854     0.0426     0.5922 2.9480e+01     1.5606      2.546      3.693    14.0332 0.0000e+00
      2.611      0.059     7.3647     69.813     36.783  28.573955     3.8700     3.9968     0.0426     0.5922 2.9009e+01     1.4854      2.560      3.714    13.9927 0.0000e+00
      2.626      0.060     7.2947     69.825     36.794  28.553370     3.8700     4.2944     0.0426     0.5922 2.8404e+01     1.5005      2.575      3.735    13.9536 0.0000e+00
      2.641      0.061     7.2491     69.908     36.807  28.532872     3.8700     4.3020     0.0426     0.5922 2.7703e+01     1.5456      2.590      3.757    13.9152 0.0000e+00
      2.657      0.062     7.2253     70.004     36.836  28.522834     3.8700     4.3020     0.0426     0.5922 2.7102e+01     1.5155      2.606      3.779    13.8768 0.0000e+00
      2.673      0.063     7.2196     70.069     36.876  28.520578     3.8700     4.3020     0.0426     0.5922 2.6519e+01     1.4554      2.621      3.802    13.8379 0.0000e+00
      2.689      0.065     7.2273     70.071     36.906  28.509661     3.8700     4.3707     0.0426     0.5922 2.5680e+01     1.4554      2.637      3.825    13.7980 0.0000e+00
      2.706      0.066     7.2426     69.972     36.921  28.487172     3.8700     4.3440     0.0426     0.5922 2.5221e+01     1.5456      2.654      3.849    13.7565 0.0000e+00
      2.723      0.067     7.2595     69.728     36.934  28.462951     3.8700     4.3745     0.0426     0.5499 2.4976e+01     1.5305      2.670      3.873    13.7129 0.0000e+00
      2.740      0.068     7.2734     69.317     36.951  28.442417     3.8700     4.3325     0.0426     0.5499 2.4391e+01     1.5155      2.687      3.897    13.6677 0.0000e+00
      2.758      0.069     7.2810     68.744     36.977  28.428012     3.8700     4.2371     0.0426     0.5499 2.3945e+01     1.1698      2.704      3.922    13.6217 0.0000e+00
      2.775      0.070     7.2780     68.028     37.012  28.419855     3.8700     4.2104     0.0426     0.5499 2.3635e+01     1.2299      2.721      3.947    13.5754 0.0000e+00
      2.793      0.071     7.2600     67.208     37.052  28.415769     3.8700     4.2371     0.0852     0.4653 2.3162e+01     1.1999      2.739      3.972    13.5291 0.0000e+00
      2.811      0.071     7.2246     66.331     37.097  28.414663     3.8700     4.2295     0.0852     0.4653 2.2624e+01     1.1698      2.757      3.998    13.4831 0.0000e+00
      2.830      0.071     7.1721     65.422     37.138  28.412281     3.8700     3.5467     0.0852     0.4653 2.2133e+01     1.1848      2.775      4.025    13.4370 0.0000e+00
      2.848      0.071     7.1046     64.502     37.171  28.404027     3.8700     3.5657     0.0852     0.4653 2.1606e+01     1.1848      2.793      4.051    13.3902 0.0000e+00
      2.866      0.071     7.0263     63.592     37.199  28.391659     3.8700     3.5734     0.0426     0.4653 2.1451e+01     1.1999      2.811      4.077    13.3426 0.0000e+00
      2.884      0.070     6.9419     62.704     37.224  28.375837     3.8700     3.5619     0.0426     0.4653 2.1294e+01     1.1999      2.828      4.102    13.2952 0.0000e+00
      2.901      0.070     6.8537     61.839     37.249  28.360260     3.8700     2.7646     0.0426     0.4653 2.1027e+01     1.2149      2.845      4.127    13.2491 0.0000e+00
      2.919      0.070     6.7641     60.997     37.278  28.348693     3.8700     2.7456     0.0426     0.4653 2.0611e+01     1.2600      2.863      4.152    13.2042 0.0000e+00
      2.937      0.069     6.6754     60.173     37.304  28.338050     3.7800     2.7608     0.0426     0.4230 2.0225e+01     1.3051      2.880      4.178    13.1588 0.0000e+00
      2.955      0.069     6.5891     59.370     37.331  28.329450     3.7800     2.7379     0.0426     0.4230 1.9928e+01     1.1698      2.898      4.203    13.1121 0.0000e+00
      2.972      0.069     6.5050     58.602     37.359  28.320601     3.7800     2.2382     0.0426     0.4230 1.9794e+01     1.1999      2.915      4.228    13.0654 0.0000e+00
      2.990      0.069     6.4228     57.889     37.386  28.311121     3.7800     2.2573     0.0426     0.4230 1.9483e+01     1.1398      2.932      4.253    13.0209 0.0000e+00
      3.007      0.069     6.3419     57.243     37.426  28.310360     3.7800     2.2420     0.0426     0.4230 1.9339e+01     1.1999      2.949      4.277    12.9796 0.0000e+00
      3.024      0.069     6.2628     56.673     37.479  28.318115     3.7800     2.2954     0.0000     0.3384 1.9184e+01     1.2299      2.966      4.302    12.9401 0.0000e+00
      3.042      0.070     6.1873     56.171     37.531  28.324573     3.7800     2.0208     0.0000     0.3384 1.8936e+01     1.2901      2.983      4.327    12.9007 0.0000e+00
      3.060      0.070     6.1175     55.716     37.583  28.329476     3.7800     2.0093     0.0000     0.3384 1.8768e+01     1.1999      3.001      4.352    12.8605 0.0000e+00
      3.078      0.071     6.0549     55.279     37.639  28.338090     3.7800     2.0284     0.0000     0.3384 1.8477e+01     1.2600      3.019      4.378    12.8192 0.0000e+00
      3.096      0.071     6.0004     54.833     37.696  28.348750     3.7800     2.0284     0.0426     0.3807 1.8245e+01     1.2901      3.037      4.404    12.7764 0.0000e+00
      3.115      0.071     5.9532     54.351     37.748  28.356379     3.7800     1.7003     0.0426     0.3807 1.8021e+01     1.3502      3.055      4.430    12.7323 0.0000e+00
      3.133      0.070     5.9109     53.809     37.794  28.359051     3.7800     1.7080     0.0426     0.3807 1.7857e+01     1.5005      3.072      4.456    12.6872 0.0000e+00
      3.151      0.070     5.8705     53.216     37.833  28.357477     3.7800     1.7194     0.0426     0.3807 1.7687e+01     1.5456      3.090      4.481    12.6426 0.0000e+00
      3.168      0.069     5.8288     52.600     37.860  28.347276     3.8700     1.7003     0.0426     0.3807 1.7523e+01     1.4253      3.107      4.506    12.5993 0.0000e+00
      3.185      0.069     5.7830     51.985     37.875  28.329687     3.8700     1.5248     0.0426     0.3807 1.7356e+01     1.4253      3.124      4.531    12.5571 0.0000e+00
      3.203      0.069     5.7307     51.403     37.890  28.315857     3.8700     1.5096     0.0426     0.3807 1.7206e+01     1.4253      3.141      4.555    12.5155 0.0000e+00
      3.220      0.070     5.6728     50.890     37.911  28.310016     3.8700     1.5477     0.0426     0.3807 1.7057e+01     1.5756      3.158      4.580    12.4743 0.0000e+00
      3.238      0.071     5.6123     50.469     37.939  28.306648     3.8700     1.5287     0.0426     0.2538 1.6927e+01     1.4103      3.175      4.605    12.4339 0.0000e+00
      3.256      0.074     5.5515     50.160     37.972  28.296935     3.8700     1.3837     0.0426     0.2538 1.6898e+01     1.2450      3.193      4.631    12.3960 0.0000e+00
      3.274      0.077     5.4934     49.969     38.014  28.280267     3.8700     1.4028     0.0426     0.2538 1.6799e+01     1.4103      3.211      4.657    12.3631 0.0000e+00
      3.294      0.081     5.4422     49.864     38.069  28.262094     3.8700     1.3684     0.0426     0.2538 1.6556e+01     1.2299      3.230      4.685    12.3345 0.0000e+00
      3.315      0.084     5.4011     49.818     38.137  28.249449     3.8700     1.3799     0.0426     0.2538 1.6342e+01     1.1698      3.251      4.715    12.3026 0.0000e+00
      3.338      0.088     5.3736     49.822     38.217  28.246875     3.7800     1.2349     0.0426     0.2115 1.5904e+01     1.2600      3.273      4.747    12.2577 0.0000e+00
      3.361      0.090     5.3608     49.871     38.295  28.245765     3.7800     1.2082     0.0426     0.2115 1.5549e+01     1.2750      3.296      4.781    12.1948 0.0000e+00
      3.385      0.092     5.3590     49.952     38.364  28.239882     3.7800     1.2082     0.0426     0.2115 1.5394e+01     1.2600      3.319      4.814    12.1176 0.0000e+00
      3.409      0.093     5.3641     50.065     38.422  28.227654     3.7800     1.2006     0.0426     0.2115 1.5218e+01     1.1398      3.343      4.848    12.0352 0.0000e+00
      3.433      0.093     5.3745     50.215     38.465  28.207798     3.6900     1.1586     0.0426     0.2538 1.4904e+01     0.8692      3.366      4.882    11.9546 0.0000e+00
      3.457      0.093     5.3892     50.405     38.505  28.188878     3.6900     1.1357     0.0426     0.2538 1.4647e+01     1.0646      3.390      4.916    11.8776 0.0000e+00
      3.481      0.092     5.4072     50.627     38.547  28.175745     3.6900     1.1548     0.0426     0.2538 1.4416e+01     1.0195      3.413      4.950    11.8032 0.0000e+00
      3.504      0.091     5.4283     50.858     38.586  28.164897     3.6900     1.1396     0.0426     0.2538 1.4152e+01     0.9594      3.436      4.984    11.7317 0.0000e+00
      3.527      0.090     5.4529     51.080     38.626  28.157398     3.6000     1.0671     0.0426     0.2115 1.4051e+01     0.9894      3.459      5.017    11.6644 0.0000e+00
      3.550      0.089     5.4813     51.294     38.670  28.155208     3.6000     1.0976     0.0426     0.2115 1.3860e+01     1.0045      3.481      5.049    11.6022 0.0000e+00
      3.572      0.089     5.5126     51.516     38.713  28.153781     3.6000     1.0862     0.0426     0.2115 1.3690e+01     1.0045      3.503      5.081    11.5454 0.0000e+00
      3.595      0.089     5.5445     51.760     38.750  28.148778     3.6000     1.1014     0.0426     0.2115 1.3592e+01     0.9594      3.525      5.113    11.4936 0.0000e+00
      3.617      0.089     5.5748     52.042     38.786  28.142821     3.6000     0.9641     0.0426     0.2538 1.3460e+01     1.3351      3.547      5.144    11.4460 0.0000e+00
      3.639      0.091     5.6038     52.365     38.825  28.138282     3.6000     0.9641     0.0426     0.2538 1.3176e+01     1.1848      3.569      5.177    11.4018 0.0000e+00
      3.662      0.093     5.6334     52.718     38.875  28.137909     3.6000     0.9832     0.0426     0.2538 1.3042e+01     1.1398      3.592      5.209    11.3598 0.0000e+00
      3.686      0.095     5.6655     53.076     38.940  28.145562     3.6000     0.9717     0.0426     0.2538 1.2890e+01     1.1698      3.615      5.243    11.3188 0.0000e+00
      3.710      0.098     5.7018     53.414     39.020  28.159319     3.6000     0.8878     0.0426     0.2538 1.2621e+01     1.2750      3.639      5.277    11.2776 0.0000e+00
      3.736      0.101     5.7429     53.712     39.104  28.170970     3.5100     0.9145     0.0000     0.2538 1.2433e+01     1.2299      3.664      5.313    11.2346 0.0000e+00
      3.762      0.104     5.7878     53.970     39.184  28.175700     3.5100     0.8954     0.0000     0.2538 1.2238e+01     1.2750      3.689      5.351    11.1881 0.0000e+00
      3.789      0.106     5.8341     54.217     39.266  28.178728     3.5100     0.8992     0.0000     0.2538 1.1972e+01     1.3953      3.716      5.389    11.1371 0.0000e+00
      3.817      0.108     5.8789     54.505     39.339  28.174920     3.5100     0.8687     0.0000     0.2538 1.1707e+01     1.2299      3.743      5.429    11.0810 0.0000e+00
      3.845      0.109     5.9201     54.906     39.390  28.157319     3.6000     0.8306     0.0426     0.2115 1.1415e+01     1.1398      3.771      5.469    11.0191 0.0000e+00
      3.874      0.109     5.9580     55.491     39.432  28.135088     3.6000     0.8496     0.0426     0.2115 1.1187e+01     1.1698      3.799      5.510    10.9515 0.0000e+00
      3.901      0.108     5.9953     56.315     39.478  28.116158     3.6000     0.8382     0.0426     0.2115 1.0985e+01     1.2901      3.826      5.549    10.8804 0.0000e+00
      3.929      0.107     6.0372     57.410     39.532  28.103397     3.6000     0.8420     0.0426     0.2115 1.0777e+01     1.5606      3.853      5.588    10.8091 0.0000e+00
      3.955      0.107     6.0916     58.802     39.593  28.093401     3.6000     0.8420     0.0000     0.1692 1.0718e+01     1.4854      3.879      5.626    10.7399 0.0000e+00
      3.982      0.108     6.1664     60.531     39.659  28.083504     3.6000     0.8496     0.0000     0.1692 1.0552e+01     1.4554      3.905      5.664    10.6731 0.0000e+00
      4.009      0.109     6.2677     62.666     39.738  28.078985     3.6000     0.8229     0.0000     0.1692 1.0370e+01     1.4854      3.932      5.702    10.6081 0.0000e+00
      4.037      0.110     6.3997     65.303     39.818  28.074675     3.6000     0.8039     0.0000     0.1692 1.0127e+01     1.4854      3.959      5.742    10.5432 0.0000e+00
      4.065      0.112     6.5656     68.578     39.885  28.065463     3.5100     0.8000     0.0000     0.0846 9.9075e+00     1.4404      3.987      5.782    10.4759 0.0000e+00
      4.094      0.112     6.7704     72.639     39.939  28.056811     3.5100     0.7848     0.0000     0.0846 9.6106e+00     1.5305      4.015      5.824    10.4042 0.0000e+00
      4.124      0.112     7.0220     77.582     39.983  28.050368     3.5100     0.8077     0.0000     0.0846 9.2661e+00     1.5305      4.044      5.866    10.3282 0.0000e+00
      4.153      0.111     7.3309     83.385     40.021  28.048376     3.5100     0.8153     0.0000     0.0846 9.0650e+00     1.6959      4.073      5.908    10.2518 0.0000e+00
      4.182      0.108     7.7112     89.872     40.055  28.050303     3.5100     0.8458     0.0000     0.0846 8.9223e+00     1.7860      4.101      5.948    10.1815 0.0000e+00
      4.209      0.105     8.1789     96.722     40.083  28.052703     3.4200     0.8573     0.0426     0.0846 8.8048e+00     1.8161      4.127      5.987    10.1226 0.0000e+00
      4.235      0.102     8.7446    103.520     40.108  28.056215     3.4200     0.8420     0.0426     0.0846 8.6099e+00     1.7710      4.153      6.024    10.0762 0.0000e+00
      4.261      0.098     9.4061    109.821     40.126  28.057815     3.4200     0.7733     0.0426     0.0846 8.3338e+00     1.6808      4.178      6.060    10.0403 0.0000e+00
      4.286      0.095    10.1438    115.227     40.141  28.057930     3.4200     0.7886     0.0426     0.0846 8.2152e+00     1.7560      4.203      6.096    10.0126 0.0000e+00
      4.309      0.092    10.9218    119.478     40.160  28.060549     3.5100     0.7848     0.0426     0.1269 8.1176e+00     1.8161      4.226      6.130     9.9908 0.0000e+00
      4.332      0.089    11.6936    122.475     40.177  28.062413     3.5100     0.7810     0.0426     0.1269 8.0911e+00     1.6808      4.248      6.162     9.9736 0.0000e+00
      4.354      0.086    12.4089    124.268     40.194  28.064017     3.5100     0.7276     0.0426     0.1269 7.9189e+00     1.6658      4.270      6.193     9.9595 0.0000e+00
      4.375      0.083    13.0231    125.035     40.213  28.069748     3.5100     0.7428     0.0426     0.1269 7.7723e+00     1.7109      4.291      6.224     9.9468 0.0000e+00
      4.396      0.081    13.5072    125.032     40.232  28.077174     3.5100     0.7085     0.0426     0.2115 7.6185e+00     1.6808      4.312      6.254     9.9341 0.0000e+00
      4.417      0.078    13.8500    124.514     40.248  28.084315     3.5100     0.6932     0.0426     0.2115 7.5608e+00     1.7259      4.332      6.283     9.9211 0.0000e+00
      4.436      0.076    14.0564    123.690     40.259  28.089117     3.5100     0.7314     0.0426     0.2115 7.5312e+00     1.7259      4.351      6.310     9.9089 0.0000e+00
      4.455      0.073    14.1464    122.691     40.256  28.084941     3.5100     0.7390     0.0426     0.2115 7.4450e+00     1.7109      4.369      6.337     9.8989 0.0000e+00
      4.474      0.071    14.1483    121.588     40.238  28.070671     3.5100     0.7276     0.0426     0.1692 7.3247e+00     1.6808      4.387      6.363     9.8914 0.0000e+00
      4.491      0.070    14.0913    120.416     40.216  28.054384     3.5100     0.7161     0.0426     0.1692 7.2945e+00     1.7259      4.404      6.388     9.8862 0.0000e+00
      4.508      0.069    13.9992    119.199     40.207  28.047573     3.5100     0.7123     0.0426     0.1692 7.2565e+00     1.7560      4.421      6.412     9.8827 0.0000e+00
      4.525      0.069    13.8869    117.951     40.214  28.052382     3.5100     0.7276     0.0426     0.1692 7.1610e+00     1.8011      4.438      6.437     9.8803 0.0000e+00
      4.543      0.070    13.7626    116.687     40.223  28.058216     3.5100     0.7085     0.0426     0.1692 7.1129e+00     1.6808      4.455      6.461     9.8787 0.0000e+00
      4.560      0.071    13.6303    115.433     40.223  28.058709     3.5100     0.7199     0.0426     0.1269 7.0529e+00     1.6808      4.472      6.486     9.8776 0.0000e+00
      4.578      0.074    13.4927    114.224     40.222  28.057954     3.5100     0.7123     0.0426     0.1269 7.0299e+00     2.0416      4.489      6.512     9.8768 0.0000e+00
      4.597      0.077    13.3516    113.089     40.231  28.063669     3.5100     0.7276     0.0426     0.1269 7.0116e+00     2.0115      4.508      6.538     9.8764 0.0000e+00
      4.616      0.080    13.2086    112.050     40.245  28.073417     3.5100     0.7161     0.0426     0.1269 6.9313e+00     1.9965      4.527      6.566     9.8762 0.0000e+00
      4.637      0.082    13.0667    111.114     40.258  28.081879     3.5100     0.7161     0.0426     0.0846 6.7809e+00     2.0716      4.548      6.596     9.8760 0.0000e+00
      4.659      0.085    12.9298    110.270     40.272  28.091312     3.5100     0.7161     0.0426     0.0846 6.6121e+00     1.7860      4.569      6.627     9.8760 0.0000e+00
      4.682      0.087    12.8014    109.510     40.280  28.096310     3.5100     0.7390     0.0426     0.0846 6.5648e+00     1.7259      4.591      6.659     9.8759 0.0000e+00
      4.704      0.088    12.6838    108.835     40.278  28.094248     3.5100     0.7085     0.0426     0.0846 6.4447e+00     1.6207      4.613      6.691     9.8757 0.0000e+00
      4.726      0.089    12.5780    108.240     40.276  28.092494     3.5100     0.7199     0.0426     0.1269 6.3750e+00     1.7710      4.635      6.722     9.8752 0.0000e+00
      4.749      0.090    12.4827    107.719     40.274  28.090582     3.5100     0.7276     0.0426     0.1269 6.2299e+00     1.7259      4.657      6.755     9.8744 0.0000e+00
      4.772      0.091    12.3969    107.269     40.265  28.084041     3.5100     0.7085     0.0426     0.1269 6.1934e+00     1.7560      4.680      6.788     9.8736 0.0000e+00
      4.795      0.092    12.3206    106.888     40.259  28.079047     3.5100     0.7085     0.0426     0.1269 6.1332e+00     1.7860      4.702      6.820     9.8729 0.0000e+00
      4.819      0.093    12.2535    106.581     40.265  28.082187     3.5100     0.7276     0.0426     0.1269 6.0933e+00     1.7410      4.725      6.854     9.8724 0.0000e+00
      4.842      0.095    12.1946    106.350     40.273  28.086379     3.5100     0.7199     0.0426     0.1269 5.9018e+00     1.7560      4.749      6.887     9.8720 0.0000e+00
      4.867      0.096    12.1437    106.188     40.272  28.084821     3.5100     0.7161     0.0426     0.1269 5.7975e+00     1.7560      4.772      6.922     9.8715 0.0000e+00
      4.892      0.098    12.1009    106.093     40.261  28.077098     3.5100     0.7161     0.0426     0.1269 5.7449e+00     1.7560      4.797      6.957     9.8706 0.0000e+00
      4.917      0.099    12.0666    106.060     40.250  28.069070     3.5100     0.7276     0.0426     0.1269 5.6226e+00     1.7560      4.822      6.993     9.8694 0.0000e+00
      4.942      0.100    12.0407    106.070     40.252  28.070476     3.5100     0.6932     0.0426     0.1269 5.4958e+00     1.9514      4.847      7.030     9.8681 0.0000e+00
      4.968      0.100    12.0227    106.099     40.257  28.073769     3.5100     0.6932     0.0426     0.1269 5.3928e+00     2.0115      4.872      7.067     9.8671 0.0000e+00
      4.994      0.100    12.0122    106.118     40.249  28.067951     3.5100     0.7085     0.0426     0.1269 5.2666e+00     2.0265      4.898      7.104     9.8664 0.0000e+00
      5.020      0.099    12.0085    106.107     40.231  28.055429     3.5100     0.7428     0.0426     0.1269 5.1288e+00     1.9514      4.923      7.140     9.8660 0.0000e+00
      5.045      0.097    12.0097    106.066     40.216  28.044742     3.5100     0.7161     0.0426     0.1269 5.0613e+00     1.7560      4.947      7.176     9.8658 0.0000e+00
      5.070      0.095    12.0131    106.006     40.216  28.044919     3.5100     0.7085     0.0426     0.1269 4.9374e+00     1.7710      4.972      7.211     9.8656 0.0000e+00
      5.094      0.093    12.0152    105.937     40.227  28.052050     3.5100     0.7314     0.0426     0.1269 4.8408e+00     1.6808      4.995      7.245     9.8655 0.0000e+00
      5.117      0.091    12.0140    105.872     40.233  28.056155     3.5100     0.7009     0.0426     0.1269 4.8534e+00     1.7560      5.018      7.278     9.8654 0.0000e+00
      5.140      0.089    12.0094    105.826     40.236  28.058330     3.5100     0.7161     0.0426     0.1692 4.7110e+00     1.9664      5.040      7.310     9.8655 0.0000e+00
      5.162      0.088    12.0026    105.811     40.238  28.059154     3.5100     0.7199     0.0426     0.1692 4.6440e+00     1.9664      5.062      7.342     9.8655 0.0000e+00
      5.184      0.087    11.9948    105.829     40.232  28.054887     3.5100     0.7276     0.0426     0.1692 4.5600e+00     2.0716      5.084      7.374     9.8654 0.0000e+00
      5.206      0.086    11.9875    105.874     40.228  28.052312     3.5100     0.7276     0.0426     0.1692 4.5333e+00     1.9063      5.105      7.404     9.8652 0.0000e+00
      5.227      0.086    11.9824    105.933     40.232  28.054700     3.5100     0.7276     0.0426     0.1692 4.4484e+00     1.9965      5.126      7.435     9.8649 0.0000e+00
      5.249      0.085    11.9808    105.994     40.232  28.054770     3.5100     0.7161     0.0000     0.1692 4.3755e+00     1.8913      5.148      7.466     9.8645 0.0000e+00
      5.271      0.085    11.9830    106.049     40.224  28.048579     3.5100     0.7161     0.0000     0.1692 4.2880e+00     1.9814      5.169      7.497     9.8641 0.0000e+00
      5.293      0.085    11.9881    106.085     40.215  28.042398     3.5100     0.7276     0.0000     0.1692 4.1840e+00     2.0416      5.191      7.528     9.8639 0.0000e+00
      5.315      0.084    11.9948    106.088     40.215  28.042496     3.5100     0.7772     0.0000     0.1692 4.1532e+00     1.9514      5.212      7.559     9.8637 0.0000e+00
      5.336      0.084    12.0018    106.056     40.218  28.044941     3.5100     0.7962     0.0426     0.1269 4.1030e+00     1.8462      5.233      7.589     9.8637 0.0000e+00
      5.357      0.084    12.0079    106.001     40.220  28.046424     3.5100     0.7810     0.0426     0.1269 4.0542e+00     1.9514      5.253      7.619     9.8636 0.0000e+00
      5.378      0.083    12.0120    105.948     40.222  28.047342     3.5100     0.7848     0.0426     0.1269 3.9705e+00     2.0866      5.274      7.649     9.8636 0.0000e+00
      5.399      0.083    12.0124    105.917     40.223  28.047939     3.5100     0.6932     0.0426     0.1269 3.8860e+00     1.9965      5.295      7.679     9.8637 0.0000e+00
      5.421      0.083    12.0088    105.919     40.223  28.048373     3.5100     0.7505     0.0426     0.0846 3.7893e+00     1.9363      5.316      7.710     9.8637 0.0000e+00
      5.442      0.082    12.0025    105.950     40.224  28.048761     3.5100     0.7276     0.0426     0.0846 3.7321e+00     2.0115      5.337      7.740     9.8637 0.0000e+00
      5.463      0.081    11.9965    105.999     40.224  28.049207     3.5100     0.7047     0.0426     0.0846 3.6678e+00     1.9814      5.357      7.770     9.8637 0.0000e+00
      5.483      0.080    11.9930    106.052     40.225  28.049829     3.5100     0.7238     0.0426     0.0846 3.6678e+00     2.0115      5.377      7.799     9.8636 0.0000e+00
      5.503      0.080    11.9933    106.090     40.227  28.050793     3.5100     0.7199     0.0426     0.0846 3.5640e+00     1.9814      5.397      7.827     9.8635 0.0000e+00
      5.523      0.080    11.9968    106.096     40.224  28.048396     3.5100     0.7085     0.0426     0.0846 3.5110e+00     1.9213      5.416      7.855     9.8634 0.0000e+00
      5.543      0.081    12.0024    106.067     40.210  28.038040     3.5100     0.7314     0.0426     0.0846 3.4791e+00     1.9514      5.436      7.884     9.8633 0.0000e+00
      5.563      0.083    12.0084    106.011     40.198  28.028841     3.5100     0.7238     0.0426     0.0846 3.4498e+00     2.0866      5.455      7.912     9.8632 0.0000e+00
      5.584      0.086    12.0127    105.939     40.195  28.026267     3.5100     0.7047     0.0426     0.0846 3.3326e+00     1.9363      5.476      7.942     9.8630 0.0000e+00
      5.606      0.089    12.0134    105.869     40.190  28.021711     3.5100     0.7199     0.0426     0.1692 3.2539e+00     1.8762      5.498      7.974     9.8627 0.0000e+00
      5.629      0.093    12.0104    105.812     40.185  28.017918     3.5100     0.7161     0.0426     0.1692 3.2363e+00     1.8913      5.520      8.007     9.8622 0.0000e+00
      5.654      0.097    12.0042    105.771     40.191  28.021796     3.5100     0.7772     0.0426     0.1692 3.1420e+00     1.9965      5.544      8.041     9.8614 0.0000e+00
      5.679      0.100    11.9963    105.741     40.204  28.030419     3.5100     0.8077     0.0426     0.1692 3.0452e+00     2.0115      5.569      8.078     9.8605 0.0000e+00
      5.705      0.103    11.9886    105.713     40.215  28.038168     3.5100     0.7733     0.0426     0.1269 3.0123e+00     1.9664      5.595      8.115     9.8596 0.0000e+00
      5.732      0.105    11.9825    105.684     40.222  28.043149     3.5100     0.7695     0.0426     0.1269 2.9399e+00     1.9514      5.621      8.153     9.8589 0.0000e+00
      5.759      0.106    11.9780    105.665     40.227  28.046690     3.5100     0.7009     0.0426     0.1269 2.8191e+00     1.9514      5.648      8.191     9.8584 0.0000e+00
      5.786      0.107    11.9746    105.664     40.231  28.049735     3.5100     0.7314     0.0426     0.1269 2.7687e+00     2.0115      5.675      8.230     9.8581 0.0000e+00
      5.814      0.107    11.9714    105.687     40.235  28.053097     3.5100     0.7161     0.0426     0.0846 2.7122e+00     1.9664      5.702      8.270     9.8581 0.0000e+00
      5.842      0.106    11.9681    105.732     40.236  28.053712     3.5100     0.7199     0.0426     0.0846 2.6121e+00     1.9514      5.729      8.310     9.8582 0.0000e+00
      5.870      0.103    11.9659    105.796     40.233  28.051745     3.5100     0.7161     0.0426     0.0846 2.5163e+00     1.7860      5.757      8.350     9.8584 0.0000e+00
      5.897      0.100    11.9658    105.864     40.237  28.054590     3.5100     0.6970     0.0426     0.0846 2.4004e+00     1.7109      5.783      8.388     9.8587 0.0000e+00
      5.923      0.095    11.9683    105.927     40.249  28.063005     3.5100     0.7085     0.0000     0.1269 2.4356e+00     1.6959      5.808      8.424     9.8588 0.0000e+00
      5.946      0.090    11.9735    105.971     40.261  28.071317     3.5100     0.7161     0.0000     0.1269 2.3626e+00     1.8161      5.830      8.457     9.8589 0.0000e+00
      5.967      0.085    11.9806    105.989     40.269  28.077780     3.5100     0.6742     0.0000     0.1269 2.3503e+00     1.8612      5.852      8.487     9.8589 0.0000e+00
      5.988      0.081    11.9884    105.983     40.278  28.084119     3.5100     0.6589     0.0000     0.1269 2.2923e+00     1.8913      5.872      8.517     9.8589 0.0000e+00
      6.008      0.079    11.9954    105.963     40.288  28.092025     3.5100     0.6780     0.0000     0.1269 2.2602e+00     1.9514      5.891      8.545     9.8591 0.0000e+00
      6.027      0.078    12.0003    105.945     40.298  28.099645     3.4200     0.6513     0.0426     0.1692 2.2528e+00     1.9814      5.910      8.572     9.8594 0.0000e+00
      6.046      0.079    12.0022    105.939     40.299  28.101093     3.4200     0.6589     0.0426     0.1692 2.2034e+00     1.9063      5.929      8.599     9.8600 0.0000e+00
      6.065      0.081    12.0013    105.945     40.293  28.096754     3.4200     0.6665     0.0426     0.1692 2.1982e+00     1.9814      5.948      8.627     9.8607 0.0000e+00
      6.085      0.084    11.9988    105.956     40.283  28.089432     3.4200     0.6742     0.0426     0.1692 2.1533e+00     1.9514      5.968      8.655     9.8614 0.0000e+00
      6.107      0.088    11.9965    105.962     40.262  28.073214     3.5100     0.6780     0.0426     0.1692 2.1189e+00     1.9213      5.989      8.686     9.8624 0.0000e+00
      6.130      0.092    11.9956    105.955     40.234  28.051694     3.5100     0.6513     0.0426     0.1692 2.0698e+00     1.9063      6.011      8.719     9.8633 0.0000e+00
      6.154      0.096    11.9962    105.931     40.218  28.038931     3.5100     0.6589     0.0426     0.1692 1.9865e+00     1.9664      6.035      8.753     9.8635 0.0000e+00
      6.180      0.100    11.9977    105.884     40.215  28.035484     3.5100     0.6856     0.0426     0.1692 1.9995e+00     2.0265      6.060      8.789     9.8627 0.0000e+00
      6.206      0.103    11.9988    105.810     40.217  28.036471     3.4200     0.6780     0.0426     0.1692 1.9303e+00     1.9965      6.086      8.827     9.8611 0.0000e+00
      6.233      0.105    11.9986    105.713     40.221  28.038197     3.4200     0.6551     0.0426     0.1692 1.8664e+00     1.9514      6.112      8.865     9.8590 0.0000e+00
      6.260      0.106    11.9964    105.605     40.225  28.041123     3.4200     0.6818     0.0426     0.1692 1.8116e+00     1.8913      6.139      8.904     9.8569 0.0000e+00
      6.288      0.106    11.9915    105.496     40.244  28.053946     3.4200     0.6818     0.0426     0.1692 1.7831e+00     1.8762      6.166      8.944     9.8553 0.0000e+00
      6.315      0.106    11.9835    105.399     40.265  28.068209     3.5100     0.6665     0.0000     0.0846 1.7039e+00     1.9063      6.193      8.982     9.8541 0.0000e+00
      6.342      0.105    11.9728    105.326     40.264  28.067916     3.5100     0.6856     0.0000     0.0846 1.6841e+00     2.0115      6.219      9.021     9.8534 0.0000e+00
      6.369      0.104    11.9607    105.282     40.254  28.060908     3.5100     0.6589     0.0000     0.0846 1.6929e+00     2.0115      6.245      9.058     9.8528 0.0000e+00
      6.395      0.104    11.9485    105.267     40.248  28.057195     3.5100     0.6856     0.0000     0.0846 1.6329e+00     1.8913      6.271      9.095     9.8525 0.0000e+00
      6.421      0.103    11.9376    105.282     40.246  28.055787     3.5100     0.6856     0.0000     0.0846 1.5954e+00     1.9814      6.297      9.132     9.8522 0.0000e+00
      6.448      0.103    11.9293    105.326     40.246  28.056309     3.5100     0.6894     0.0426     0.1269 1.5196e+00     1.9213      6.323      9.170     9.8521 0.0000e+00
      6.474      0.103    11.9243    105.387     40.244  28.054941     3.5100     0.6627     0.0426     0.1269 1.5183e+00     1.9965      6.349      9.208     9.8522 0.0000e+00
      6.500      0.104    11.9225    105.451     40.233  28.047357     3.5100     0.6703     0.0426     0.1269 1.5322e+00     1.9965      6.374      9.245     9.8524 0.0000e+00
      6.526      0.104    11.9242    105.509     40.216  28.035496     3.5100     0.6970     0.0426     0.1269 1.4805e+00     1.9514      6.400      9.282     9.8527 0.0000e+00
      6.552      0.105    11.9290    105.551     40.199  28.024113     3.5100     0.6742     0.0426     0.1269 1.4654e+00     1.9965      6.426      9.319     9.8531 0.0000e+00
      6.579      0.106    11.9358    105.574     40.190  28.018093     3.5100     0.6703     0.0426     0.1269 1.4345e+00     2.0265      6.452      9.358     9.8535 0.0000e+00
      6.606      0.108    11.9430    105.577     40.192  28.019789     3.5100     0.6818     0.0426     0.1269 1.4046e+00     1.9814      6.479      9.397     9.8538 0.0000e+00
      6.634      0.109    11.9495    105.559     40.201  28.025695     3.5100     0.6703     0.0426     0.1269 1.3443e+00     1.9664      6.506      9.436     9.8541 0.0000e+00
      6.662      0.110    11.9542    105.529     40.213  28.033425     3.5100     0.6856     0.0852     0.1692 1.3108e+00     2.0115      6.534      9.476     9.8544 0.0000e+00
      6.691      0.110    11.9568    105.498     40.224  28.041081     3.5100     0.6818     0.0852     0.1692 1.2570e+00     1.9664      6.562      9.517     9.8546 0.0000e+00
      6.719      0.111    11.9571    105.471     40.227  28.042786     3.5100     0.6818     0.0852     0.1692 1.2813e+00     1.9814      6.589      9.557     9.8545 0.0000e+00
      6.747      0.111    11.9551    105.450     40.227  28.042954     3.5100     0.6665     0.0852     0.1692 1.2843e+00     2.0265      6.617      9.597     9.8543 0.0000e+00
      6.775      0.111    11.9517    105.443     40.237  28.049549     3.5100     0.6780     0.0000     0.0846 1.1918e+00     1.9213      6.645      9.637     9.8541 0.0000e+00
      6.804      0.111    11.9483    105.452     40.252  28.060369     3.5100     0.6703     0.0000     0.0846 1.1566e+00     2.0115      6.672      9.677     9.8538 0.0000e+00
      6.832      0.113    11.9453    105.479     40.272  28.074341     3.5100     0.6436     0.0000     0.0846 1.1486e+00     1.9514      6.700      9.717     9.8535 0.0000e+00
      6.859      0.115    11.9430    105.520     40.290  28.087271     3.5100     0.6780     0.0000     0.0846 1.1429e+00     1.9814      6.727      9.757     9.8533 0.0000e+00
      6.888      0.119    11.9423    105.570     40.301  28.094688     3.5100     0.6055     0.0000     0.0846 1.1464e+00     1.9814      6.755      9.797     9.8533 0.0000e+00
      6.919      0.122    11.9433    105.625     40.307  28.098568     3.5100     0.6169     0.0426     0.1269 1.0905e+00     1.9814      6.785      9.841     9.8534 0.0000e+00
      6.951      0.125    11.9463    105.678     40.303  28.095988     3.5100     0.6055     0.0426     0.1269 1.0521e+00     2.0566      6.817      9.887     9.8536 0.0000e+00
      6.985      0.127    11.9508    105.721     40.290  28.086259     3.5100     0.6017     0.0426     0.1269 9.8268e-01     1.9514      6.850      9.935     9.8537 0.0000e+00
      7.019      0.128    11.9565    105.752     40.273  28.074707     3.5100     0.6208     0.0426     0.1269 9.7100e-01     1.9814      6.883      9.983     9.8536 0.0000e+00
      7.052      0.126    11.9628    105.768     40.261  28.066170     3.4200     0.6284     0.0426     0.2115 9.2467e-01     1.8913      6.915     10.030     9.8534 0.0000e+00
      7.084      0.124    11.9689    105.767     40.256  28.062330     3.4200     0.6017     0.0426     0.2115 9.2991e-01     2.0265      6.947     10.076     9.8531 0.0000e+00
      7.115      0.122    11.9739    105.751     40.256  28.062165     3.4200     0.6017     0.0426     0.2115 8.3146e-01     1.9664      6.978     10.120     9.8529 0.0000e+00
      7.146      0.120    11.9774    105.727     40.255  28.061671     3.4200     0.6932     0.0426     0.2115 8.9269e-01     1.9664      7.007     10.163     9.8528 0.0000e+00
      7.175      0.119    11.9792    105.704     40.248  28.056757     3.5100     0.6856     0.0426     0.0846 8.2569e-01     1.9814      7.037     10.205     9.8527 0.0000e+00
      7.205      0.118    11.9791    105.688     40.244  28.054030     3.5100     0.6818     0.0426     0.0846 8.5435e-01     2.0265      7.066     10.248     9.8527 0.0000e+00
      7.235      0.118    11.9772    105.677     40.247  28.056724     3.5100     0.6780     0.0426     0.0846 7.9368e-01     2.0115      7.095     10.290     9.8527 0.0000e+00
      7.265      0.119    11.9745    105.665     40.249  28.057637     3.5100     0.6703     0.0426     0.0846 6.8465e-01     1.8762      7.125     10.334     9.8528 0.0000e+00
      7.296      0.120    11.9719    105.642     40.236  28.049093     3.5100     0.6780     0.0426     0.0846 6.8868e-01     1.9814      7.155     10.377     9.8529 0.0000e+00
      7.326      0.122    11.9700    105.605     40.213  28.032774     3.5100     0.6703     0.0426     0.1692 7.0565e-01     2.0416      7.185     10.420     9.8531 0.0000e+00
      7.356      0.124    11.9687    105.556     40.201  28.024127     3.5100     0.6627     0.0426     0.1692 6.7285e-01     1.8762      7.214     10.463     9.8532 0.0000e+00
      7.387      0.127    11.9674    105.502     40.213  28.032724     3.5100     0.6665     0.0426     0.1692 6.8198e-01     1.9514      7.245     10.508     9.8533 0.0000e+00
      7.420      0.130    11.9648    105.453     40.236  28.048980     3.5100     0.6436     0.0426     0.1692 6.3534e-01     1.9514      7.277     10.554     9.8533 0.0000e+00
      7.455      0.132    11.9606    105.419     40.248  28.057429     3.5100     0.6780     0.0426     0.1692 6.1590e-01     2.0416      7.311     10.604     9.8533 0.0000e+00
      7.491      0.132    11.9552    105.406     40.252  28.060327     3.5100     0.6665     0.0426     0.1692 5.8715e-01     1.9814      7.346     10.654     9.8532 0.0000e+00
      7.526      0.130    11.9490    105.412     40.254  28.062404     3.5100     0.6665     0.0426     0.1692 5.5249e-01     1.9063      7.380     10.704     9.8532 0.0000e+00
      7.559      0.127    11.9433    105.434     40.245  28.056295     3.5100     0.7047     0.0426     0.1692 5.3257e-01     1.9514      7.413     10.751     9.8532 0.0000e+00
      7.590      0.124    11.9395    105.463     40.228  28.044332     3.5100     0.6589     0.0000     0.0846 5.3991e-01     1.8762      7.443     10.796     9.8533 0.0000e+00
      7.620      0.121    11.9379    105.485     40.215  28.035203     3.5100     0.6703     0.0000     0.0846 5.6230e-01     1.8311      7.472     10.838     9.8536 0.0000e+00
      7.650      0.119    11.9385    105.501     40.209  28.030433     3.5100     0.6932     0.0000     0.0846 5.3477e-01     2.0265      7.502     10.881     9.8540 0.0000e+00
      7.680      0.118    11.9409    105.516     40.207  28.028751     3.5100     0.6589     0.0000     0.0846 5.3419e-01     1.9814      7.531     10.923     9.8543 0.0000e+00
      7.710      0.119    11.9441    105.543     40.209  28.029707     3.5100     0.6932     0.0000     0.1269 4.9464e-01     1.9514      7.561     10.966     9.8544 0.0000e+00
      7.740      0.119    11.9468    105.591     40.214  28.033558     3.5100     0.6780     0.0000     0.1269 5.0452e-01     2.0416      7.590     11.009     9.8542 0.0000e+00
      7.771      0.120    11.9486    105.654     40.220  28.037369     3.5100     0.7009     0.0000     0.1269 4.7124e-01     1.9965      7.620     11.052     9.8538 0.0000e+00
      7.801      0.119    11.9504    105.715     40.215  28.034238     3.5100     0.6780     0.0000     0.1269 4.3711e-01     1.9664      7.650     11.096     9.8534 0.0000e+00
      7.833      0.119    11.9535    105.761     40.204  28.027289     3.5100     0.6589     0.0000     0.1269 4.3664e-01     1.9814      7.681     11.140     9.8531 0.0000e+00
      7.863      0.118    11.9590    105.780     40.203  28.026549     3.5100     0.6742     0.0426     0.0846 4.3446e-01     1.9965      7.711     11.184     9.8530 0.0000e+00
      7.893      0.116    11.9662    105.759     40.210  28.031820     3.5100     0.6780     0.0426     0.0846 4.5991e-01     1.9514      7.740     11.226     9.8529 0.0000e+00
      7.922      0.115    11.9731    105.701     40.223  28.040547     3.5100     0.6551     0.0426     0.0846 4.5435e-01     1.9514      7.768     11.267     9.8531 0.0000e+00
      7.950      0.113    11.9782    105.622     40.239  28.051100     3.5100     0.6551     0.0426     0.0846 4.0334e-01     1.9363      7.796     11.307     9.8535 0.0000e+00
      7.979      0.112    11.9802    105.545     40.250  28.058371     3.5100     0.6665     0.0426     0.0846 4.0598e-01     2.0566      7.825     11.348     9.8540 0.0000e+00
      8.008      0.111    11.9778    105.484     40.253  28.060342     3.5100     0.7161     0.0426     0.0846 3.9143e-01     2.0265      7.853     11.389     9.8541 0.0000e+00
      8.036      0.109    11.9713    105.445     40.255  28.061495     3.5100     0.7199     0.0426     0.0846 3.5312e-01     1.9213      7.881     11.430     9.8538 0.0000e+00
      8.064      0.107    11.9626    105.427     40.262  28.066100     3.5100     0.7238     0.0426     0.0846 3.7041e-01     1.8462      7.908     11.470     9.8533 0.0000e+00
      8.091      0.105    11.9540    105.437     40.265  28.067464     3.5100     0.7085     0.0426     0.0846 3.4269e-01     1.9213      7.935     11.509     9.8528 0.0000e+00
      8.118      0.101    11.9472    105.469     40.251  28.058032     3.5100     0.6856     0.0426     0.0846 3.3394e-01     2.0416      7.961     11.546     9.8523 0.0000e+00
      8.144      0.098    11.9429    105.509     40.236  28.047167     3.5100     0.6589     0.0426     0.0846 3.3343e-01     1.9514      7.986     11.583     9.8518 0.0000e+00
      8.168      0.095    11.9410    105.544     40.231  28.043851     3.5100     0.6818     0.0426     0.0846 3.4575e-01     1.9814      8.010     11.618     9.8515 0.0000e+00
      8.192      0.092    11.9421    105.575     40.230  28.043241     3.5100     0.7009     0.0426     0.0846 3.1361e-01     1.9514      8.033     11.651     9.8513 0.0000e+00
      8.214      0.089    11.9458    105.607     40.228  28.041215     3.5100     0.6780     0.0426     0.0846 2.8023e-01     2.0265      8.055     11.684     9.8512 0.0000e+00
      8.237      0.088    11.9503    105.635     40.222  28.037230     3.5100     0.6742     0.0426     0.0846 3.3358e-01     1.9814      8.077     11.715     9.8511 0.0000e+00
      8.258      0.087    11.9543    105.652     40.218  28.034186     3.5100     0.6856     0.0426     0.0846 3.1307e-01     1.9814      8.099     11.746     9.8510 0.0000e+00
      8.280      0.086    11.9579    105.666     40.220  28.035229     3.5100     0.7047     0.0426     0.0846 2.7744e-01     2.0716      8.120     11.777     9.8509 0.0000e+00
      8.302      0.086    11.9615    105.690     40.222  28.036679     3.5100     0.6742     0.0000     0.1692 2.8286e-01     2.1768      8.141     11.808     9.8508 0.0000e+00
      8.324      0.086    11.9647    105.731     40.220  28.034962     3.5100     0.6970     0.0000     0.1692 2.3803e-01     2.1768      8.163     11.839     9.8507 0.0000e+00
      8.346      0.086    11.9667    105.786     40.218  28.033579     3.5100     0.6513     0.0000     0.1692 2.5858e-01     2.2069      8.185     11.871     9.8506 0.0000e+00
      8.369      0.086    11.9684    105.845     40.216  28.032163     3.5100     0.7009     0.0000     0.1692 2.2603e-01     2.2219      8.207     11.903     9.8505 0.0000e+00
      8.390      0.086    11.9711    105.898     40.213  28.030336     3.5100     0.7161     0.0426     0.1269 2.3408e-01     1.9363      8.228     11.934     9.8503 0.0000e+00
      8.412      0.085    11.9757    105.929     40.214  28.031569     3.5100     0.7047     0.0426     0.1269 2.6197e-01     1.9664      8.249     11.964     9.8502 0.0000e+00
      8.434      0.085    11.9819    105.924     40.214  28.032232     3.5100     0.7085     0.0426     0.1269 2.4850e-01     2.0115      8.270     11.995     9.8502 0.0000e+00
      8.455      0.085    11.9886    105.881     40.215  28.032502     3.5100     0.7085     0.0426     0.1269 2.1974e-01     1.9814      8.292     12.026     9.8504 0.0000e+00
      8.477      0.085    11.9945    105.810     40.220  28.036410     3.5100     0.6551     0.0426     0.1692 2.2132e-01     2.0115      8.313     12.057     9.8506 0.0000e+00
      8.498      0.086    11.9979    105.729     40.227  28.041040     3.5100     0.6780     0.0426     0.1692 1.8706e-01     1.9514      8.334     12.087     9.8508 0.0000e+00
      8.520      0.088    11.9973    105.654     40.230  28.043665     3.5100     0.6665     0.0426     0.1692 2.1427e-01     2.0416      8.355     12.118     9.8510 0.0000e+00
      8.542      0.090    11.9924    105.596     40.232  28.044986     3.5100     0.6665     0.0426     0.1692 2.2970e-01     1.8913      8.377     12.150     9.8512 0.0000e+00
      8.565      0.092    11.9843    105.565     40.233  28.045355     3.5100     0.6703     0.0426     0.0846 2.2855e-01     2.0115      8.399     12.182     9.8513 0.0000e+00
      8.589      0.095    11.9752    105.564     40.232  28.044870     3.5100     0.6703     0.0426     0.0846 2.2306e-01     1.9814      8.423     12.217     9.8514 0.0000e+00
      8.614      0.097    11.9666    105.583     40.230  28.043403     3.5100     0.6894     0.0426     0.0846 2.0458e-01     1.9363      8.448     12.252     9.8514 0.0000e+00
      8.640      0.099    11.9600    105.611     40.231  28.044521     3.5100     0.6818     0.0426     0.0846 1.7276e-01     2.0416      8.473     12.289     9.8515 0.0000e+00
      8.665      0.100    11.9566    105.630     40.237  28.048523     3.5100     0.6894     0.0426     0.0846 2.0453e-01     1.9965      8.498     12.325     9.8516 0.0000e+00
      8.690      0.102    11.9563    105.622     40.242  28.052516     3.5100     0.6742     0.0426     0.0846 2.4231e-01     1.9664      8.522     12.360     9.8518 0.0000e+00
      8.716      0.104    11.9584    105.582     40.249  28.057564     3.5100     0.6856     0.0426     0.0846 2.0223e-01     1.9814      8.547     12.397     9.8519 0.0000e+00
      8.742      0.106    11.9615    105.512     40.254  28.061056     3.5100     0.6818     0.0426     0.0846 1.7510e-01     1.9363      8.573     12.434     9.8520 0.0000e+00
      8.769      0.109    11.9637    105.419     40.253  28.059961     3.5100     0.6932     0.0426     0.0846 1.9355e-01     1.9814      8.600     12.473     9.8521 0.0000e+00
      8.798      0.112    11.9627    105.321     40.250  28.057947     3.5100     0.6894     0.0000     0.0846 1.9246e-01     1.9514      8.628     12.513     9.8522 0.0000e+00
      8.827      0.115    11.9582    105.235     40.245  28.054478     3.5100     0.6665     0.0000     0.0846 2.0789e-01     1.9814      8.656     12.555     9.8523 0.0000e+00
      8.857      0.117    11.9503    105.175     40.231  28.044668     3.5100     0.7009     0.0000     0.0846 1.8264e-01     1.9363      8.686     12.598     9.8524 0.0000e+00
      8.888      0.119    11.9398    105.150     40.215  28.033822     3.5100     0.6322     0.0000     0.0846 1.8224e-01     1.9965      8.716     12.642     9.8524 0.0000e+00
      8.919      0.120    11.9286    105.168     40.205  28.026965     3.5100     0.5940     0.0000     0.0846 1.7996e-01     2.0115      8.746     12.685     9.8523 0.0000e+00
      8.949      0.121    11.9190    105.221     40.204  28.026230     3.5100     0.6551     0.0000     0.0846 1.8220e-01     2.0416      8.776     12.729     9.8522 0.0000e+00
      8.980      0.121    11.9122    105.297     40.218  28.035380     3.5100     0.6208     0.0000     0.0846 1.7306e-01     1.9965      8.806     12.772     9.8522 0.0000e+00
      9.011      0.121    11.9094    105.384     40.243  28.052896     3.5100     0.6360     0.0000     0.0846 1.6387e-01     1.8913      8.837     12.817     9.8523 0.0000e+00
      9.042      0.120    11.9113    105.470     40.270  28.071569     3.5100     0.6398     0.0426     0.0846 1.6080e-01     1.9664      8.867     12.861     9.8524 0.0000e+00
      9.073      0.119    11.9173    105.545     40.294  28.088459     3.5100     0.6284     0.0426     0.0846 1.7918e-01     1.9514      8.898     12.905     9.8524 0.0000e+00
      9.104      0.118    11.9259    105.609     40.334  28.115989     3.5100     0.6131     0.0426     0.0846 1.6466e-01     1.9213      8.928     12.948     9.8523 0.0000e+00
      9.133      0.118    11.9359    105.659     40.417  28.173380     3.5100     0.6856     0.0426     0.0846 1.5831e-01     2.1919      8.957     12.991     9.8521 0.0000e+00
      9.163      0.117    11.9456    105.696     40.570  28.279897     3.5100     0.6932     0.0426     0.0846 1.6725e-01     2.1768      8.986     13.032     9.8518 0.0000e+00
      9.192      0.115    11.9542    105.724     40.823  28.456023     3.5100     0.6970     0.0426     0.1692 1.6725e-01     2.2219      9.015     13.074     9.8516 0.0000e+00
      9.222      0.114    11.9615    105.743     41.232  28.740807     3.5100     0.6780     0.0426     0.1692 1.3520e-01     2.2370      9.044     13.117     9.8515 0.0000e+00
      9.252      0.112    11.9672    105.756     41.906  29.210190     3.5100     0.6627     0.0426     0.1692 1.5220e-01     3.1989      9.073     13.159     9.8514 0.0000e+00
      9.281      0.108    11.9715    105.757     43.019  29.985383     3.5100     0.6970     0.0426     0.1692 1.6157e-01     3.0335      9.101     13.200     9.8513 0.0000e+00
      9.308      0.104    11.9747    105.738     44.868  31.273102     3.5100     0.6932     0.0426     0.0846 1.4396e-01     3.1237      9.128     13.239     9.8511 0.0000e+00
      9.335      0.099    11.9769    105.693     47.952  33.420700     3.5100     0.6780     0.0426     0.0846 1.4390e-01     3.1538      9.154     13.277     9.8508 0.0000e+00
      9.359      0.093    11.9784    105.602     53.071  36.985030     3.5100     2.3107     0.0426     0.0846 1.4232e-01   196.8622      9.178     13.312     9.8505 0.0000e+00
      9.382      0.087    11.9785    105.422     61.545  42.886883     3.5100     2.3259     0.0426     0.0846 1.1762e-01   196.8622      9.201     13.345     9.8501 0.0000e+00
      9.404      0.080    11.9765    105.092     75.563  52.650588     3.5100     2.3107     0.0852     0.0846 1.2408e-01   196.8171      9.222     13.375     9.8495 0.0000e+00
      9.423      0.074    11.9716    104.516     98.050  68.313452     3.5100     2.3069     0.0852     0.0846 1.3520e-01   196.8472      9.241     13.403     9.8485 0.0000e+00
      9.441      0.067    11.9615    103.560    127.836  89.059351     3.5100     0.0066     0.0852     0.0846 1.2319e-01    68.0840      9.259     13.428     9.8470 0.0000e+00
      9.457      0.061    11.9415    102.041    158.573 110.462793     3.5100     0.0295     0.0852     0.0846 1.3207e-01    68.1742      9.274     13.451     9.8450 0.0000e+00
      9.471      0.055    11.9042     99.690    188.383 131.215316     1.7100     0.0104     0.3408     3.5955 1.3215e-01    68.2192      9.288     13.472     9.8426 0.0000e+00
      9.484      0.050    11.8390     96.137    217.801 151.690257     1.7100    -0.0201     0.3408     3.5955 1.1612e-01    68.2343      9.301     13.490     9.8399 0.0000e+00
      9.496      0.046    11.7305     90.967    242.807 169.087870     1.7100    -0.1346     0.3408     3.5955 1.3757e-01    12.1719      9.313     13.507     9.8367 0.0000e+00
      9.507      0.042    11.5584     83.860    261.940 182.392688     1.7100    -0.0850     0.3408     3.5955 1.3508e-01    12.0216      9.323     13.522     9.8329 0.0000e+00
      9.517      0.039    11.2923     74.713    277.512 193.217161     1.7100    -0.1422     0.3408     3.5955 1.1605e-01    12.0667      9.333     13.536     9.8287 0.0000e+00
      9.527      0.036    10.8898     63.713    290.922 202.537489     0.0000    -0.1155     0.0000     0.0000 1.3763e-01    12.2019      9.342     13.550     9.8243 0.0000e+00
      9.535      0.034    10.3045     51.320    302.623 210.670408     0.0000    -0.1269     0.0000     0.0000 1.3224e-01     7.0616      9.351     13.562     9.8199 0.0000e+00
      9.544      0.031     9.4998     38.211    312.269 217.375433     0.0000    -0.1155     0.0000     0.0000 1.2317e-01     7.0767      9.359     13.574     9.8156 0.0000e+00
      9.551      0.029     8.4640     25.190    320.141 222.848126     0.0000    -0.1041     0.0000     0.0000 1.6066e-01     7.1668      9.366     13.585     9.8117 0.0000e+00
      9.558      0.026     7.2180     13.066    327.374 227.878258     0.0000    -0.0964     0.0000     0.0846 1.1617e-01     7.1518      9.373     13.595     9.8085 0.0000e+00
      9.564      0.024     5.8142      2.500    334.132 232.579559     0.0000    -0.1346     0.0000     0.0846 1.1865e-01     7.1969      9.379     13.604     9.8059 0.0000e+00
      9.570      0.022     4.3292     -6.109    339.732 236.475961     0.0000    -0.1002     0.0000     0.0846 1.2000e-01     3.6498      9.385     13.612     9.8040 0.0000e+00
      9.575      0.020     2.8540    -12.649    344.026 239.464491     0.0000    -0.1308     0.0000     0.0846 1.2333e-01     3.4995      9.390     13.619     9.8027 0.0000e+00
      9.580      0.019     1.4804    -17.233    347.324 241.759931     0.0000    -0.1308     0.0000     0.1269 1.2653e-01     3.5746      9.395     13.626     9.8019 0.0000e+00
      9.585      0.017     0.2833    -20.126    349.732 243.438193     0.0000    -0.1269     0.0000     0.1269 1.3109e-01     3.5596      9.399     13.633     9.8014 0.0000e+00
      9.589      0.016    -0.6921    -21.666    351.120 244.406554     0.0000    -0.1269     0.0000     0.1269 1.1742e-01     1.1999      9.404     13.639     9.8011 0.0000e+00
      9.593      0.015    -1.4330    -22.197    351.075 244.378932     0.0000    -0.1155     0.0000     0.1269 1.3169e-01     1.1698      9.407     13.644     9.8009 0.0000e+00
      9.597      0.015    -1.9524    -22.015    348.728 242.749545     0.0000    -0.1384     0.0000     0.1269 1.1605e-01     1.1698      9.411     13.650     9.8010 0.0000e+00
      9.600      0.015    -2.2801    -21.366    342.497 238.417359     0.0000    -0.1346     0.0000    -0.0846 1.1612e-01     1.2299      9.414     13.654     9.8012 0.0000e+00
      9.604      0.015    -2.4546    -20.433    330.260 229.904853     0.0000     0.6246     0.0000    -0.0846 1.2330e-01   101.1653      9.418     13.659     9.8016 0.0000e+00
      9.607      0.015    -2.5147    -19.329    312.607 217.622036     0.0000     0.5864     0.0000    -0.0846 1.2311e-01   101.2705      9.421     13.664     9.8021 0.0000e+00
      9.611      0.015    -2.4941    -18.132    294.411 204.961100     0.0000     0.5940     0.0000    -0.0846 1.1612e-01   101.2254      9.425     13.670     9.8028 0.0000e+00
      9.615      0.015    -2.4206    -16.885    279.996 194.933030     0.0000     0.6055     0.0000    -0.0423 1.1623e-01   101.2555      9.429     13.675     9.8036 0.0000e+00
      9.619      0.015    -2.3148    -15.609    270.800 188.538030     0.0000     0.9145     0.0000    -0.0423 1.1605e-01    56.1801      9.433     13.681     9.8045 0.0000e+00
      9.623      0.015    -2.1899    -14.329    266.856 185.800249     0.0000     0.9145     0.0000    -0.0423 1.1610e-01    56.3454      9.437     13.687     9.8055 0.0000e+00
      9.626      0.014    -2.0544    -13.062    267.672 186.376507     0.0000     0.9069     0.0000    -0.0423 1.1602e-01    56.1200      9.440     13.692     9.8066 0.0000e+00
      9.630      0.014    -1.9131    -11.817    272.853 189.991719     0.2700     0.9069     0.3408     0.0000 1.1607e-01    56.1501      9.444     13.697     9.8078 0.0000e+00
      9.633      0.013    -1.7686    -10.612    282.218 196.520952     0.2700     1.0900     0.3408     0.0000 1.1605e-01    40.7141      9.447     13.701     9.8091 0.0000e+00
      9.636      0.013    -1.6235     -9.461    294.794 205.286895     0.2700     1.0709     0.3408     0.0000 1.1605e-01    40.7141      9.450     13.706     9.8105 0.0000e+00
      9.640      0.012    -1.4799     -8.377    305.450 212.714577     0.2700     1.0900     0.3408     0.0000 1.1600e-01    40.6389      9.453     13.711     9.8118 0.0000e+00
      9.643      0.012    -1.3388     -7.376    307.734 214.312069     0.2700     1.1014     0.3408     0.0000 1.1617e-01    40.6991      9.456     13.715     9.8132 0.0000e+00
      9.646      0.011    -1.2022     -6.478    303.073 211.071770     0.9900     0.9603     0.5112     0.1269 1.1612e-01    71.3455      9.459     13.720     9.8146 0.0000e+00
      9.649      0.010    -1.0718     -5.682    298.719 208.045429     0.9900     0.9450     0.5112     0.1269 1.1607e-01    71.3906      9.462     13.723     9.8160 0.0000e+00
      9.651      0.009    -0.9489     -4.983    299.326 208.473276     0.9900     0.9603     0.5112     0.1269 1.1607e-01    71.3305      9.464     13.727     9.8173 0.0000e+00
      9.653      0.008    -0.8355     -4.373    306.423 213.421705     0.9900     0.9526     0.5112     0.1269 1.1605e-01    71.3004      9.466     13.730     9.8185 0.0000e+00
      9.655      0.007    -0.7337     -3.841    320.345 223.124198     2.1600     1.1434     0.6390     0.1692 1.1610e-01    72.1872      9.468     13.732     9.8195 0.0000e+00
      9.656      0.005    -0.6436     -3.373    338.789 235.976955     2.1600     1.1396     0.6390     0.1692 1.1612e-01    72.0820      9.470     13.735     9.8204 0.0000e+00
      9.658      0.004    -0.5644     -2.950    356.513 248.328037     2.1600     1.1434     0.6390     0.1692 1.1617e-01    72.1872      9.471     13.736     9.8213 0.0000e+00
      9.659      0.004    -0.4954     -2.550    369.523 257.396747     2.1600     1.1510     0.6390     0.1692 1.1607e-01    72.0369      9.472     13.738     9.8221 0.0000e+00
      9.659      0.003    -0.4350     -2.159    377.860 263.210974     2.7000     1.0442     1.0224     0.3384 1.1597e-01    64.3715      9.472     13.739     9.8230 0.0000e+00
      9.660      0.002    -0.3820     -1.772    383.245 266.970603     2.7000     1.0137     1.0224     0.3384 1.1595e-01    64.2363      9.473     13.739     9.8239 0.0000e+00
      9.660      0.001    -0.3341     -1.387    386.886 269.515921     2.7000     1.0213     1.0224     0.3384 1.1612e-01    64.2964      9.473     13.740     9.8248 0.0000e+00
      9.661      0.000    -0.2887     -1.006    389.510 271.353372     2.7000     1.0175     1.0224     0.3384 1.1600e-01    64.4467      9.474     13.740     9.8257 0.0000e+00
      9.661     -0.001    -0.2445     -0.640    391.593 272.814661     2.3400     1.1663     1.3632     0.5499 1.1605e-01    54.4667      9.474     13.741     9.8267 0.0000e+00
      9.660     -0.002    -0.2006     -0.296    393.442 274.113142     2.3400     1.1434     1.3632     0.5499 1.1620e-01    54.4066      9.473     13.740     9.8278 0.0000e+00
      9.660     -0.004    -0.1570      0.019    395.226 275.366647     2.3400     1.1892     1.3632     0.5499 1.1617e-01    54.5118      9.473     13.739     9.8289 0.0000e+00
      9.659     -0.006    -0.1139      0.297    397.003 276.614881     2.3400     1.1281     1.3632     0.5499 1.1615e-01    54.5569      9.472     13.738     9.8302 0.0000e+00
      9.657     -0.009    -0.0724      0.540    398.737 277.834001     2.3400     1.2883     1.3632     0.5499 1.1592e-01    57.9236      9.470     13.735     9.8315 0.0000e+00
      9.655     -0.012    -0.0335      0.754    400.400 279.002403     0.4500     1.2578     1.0224     0.0000 1.1600e-01    57.8635      9.468     13.732     9.8328 0.0000e+00
      9.652     -0.015     0.0021      0.946    402.003 280.129026     0.4500     1.2502     1.0224     0.0000 1.1623e-01    57.8935      9.465     13.728     9.8342 0.0000e+00
      9.648     -0.018     0.0337      1.119    403.558 281.221677     0.4500     1.2578     1.0224     0.0000 1.1602e-01    57.9386      9.461     13.722     9.8355 0.0000e+00
      9.642     -0.021     0.0612      1.274    405.046 282.267057     0.4500     0.1286     1.0224     0.0000 1.1585e-01    23.2491      9.456     13.714     9.8368 0.0000e+00
      9.636     -0.022     0.0854      1.415    406.389 283.211182     0.0900     0.1363     0.1704    -0.0423 1.1605e-01    23.3092      9.449     13.705     9.8381 0.0000e+00
      9.629     -0.023     0.1071      1.547    407.541 284.021163     0.0900     0.1401     0.1704    -0.0423 1.1612e-01    23.2791      9.443     13.696     9.8393 0.0000e+00
      9.622     -0.023     0.1266      1.670    408.591 284.760638     0.0900     0.1286     0.1704    -0.0423 1.1615e-01    23.1890      9.436     13.686     9.8404 0.0000e+00
      9.617     -0.022     0.1442      1.780    409.671 285.520548     0.0900    -0.1308     0.1704    -0.0423 1.1628e-01    -0.6188      9.431     13.678     9.8414 0.0000e+00
      9.612     -0.021     0.1601      1.873    410.812 286.323101     0.0000    -0.1346     0.0000     0.0423 1.1602e-01    -0.4835      9.426     13.671     9.8424 0.0000e+00
      9.607     -0.020     0.1750      1.952    411.964 287.133704     0.0000    -0.1346     0.0000     0.0423 1.1597e-01    -0.3633      9.421     13.665     9.8433 0.0000e+00
      9.602     -0.020     0.1889      2.020    413.088 287.923909     0.0000    -0.1155     0.0000     0.0423 1.1612e-01    -0.4534      9.417     13.658     9.8443 0.0000e+00
      9.597     -0.020     0.2013      2.079    414.161 288.679872     0.0000    -0.1346     0.0000     0.0423 1.1620e-01    -0.5136      9.412     13.651     9.8452 0.0000e+00
      9.592     -0.021     0.2119      2.126    415.149 289.376599     0.0000    -0.1231     0.0000     0.0423 1.2008e-01    -0.5136      9.407     13.644     9.8461 0.0000e+00
      9.587     -0.023     0.2209      2.162    416.008 289.983320     0.0000    -0.1308     0.0000     0.0423 1.1615e-01    -0.5436      9.402     13.636     9.8469 0.0000e+00
      9.581     -0.024     0.2286      2.189    416.696 290.471324     0.0000    -0.1041     0.0000     0.0423 1.1681e-01    -0.4835      9.396     13.628     9.8478 0.0000e+00
      9.575     -0.026     0.2352      2.210    417.175 290.814328     0.0000    -0.1002     0.0000     0.0423 1.1585e-01    -0.5136      9.390     13.619     9.8488 0.0000e+00
      9.568     -0.028     0.2406      2.223    417.451 291.015564     0.0000    -0.1308     0.0000     0.0423 1.3118e-01    -0.4685      9.383     13.609     9.8497 0.0000e+00
      9.560     -0.030     0.2446      2.225    417.580 291.114655     0.0000    -0.1117     0.0000     0.0423 1.4090e-01    -0.3482      9.376     13.598     9.8507 0.0000e+00
      9.552     -0.032     0.2476      2.221    417.627 291.156075     0.0000    -0.1460     0.0000     0.0423 1.1620e-01    -0.5136      9.368     13.587     9.8517 0.0000e+00
      9.544     -0.034     0.2500      2.218    417.714 291.225070     0.0000    -0.0506     0.0000     0.0423 1.3999e-01    52.9937      9.359     13.575     9.8528 0.0000e+00
      9.535     -0.036     0.2515      2.220    417.962 291.406216     0.0000    -0.0621     0.0000     0.0423 1.2008e-01    53.0388      9.351     13.563     9.8539 0.0000e+00
      9.526     -0.039     0.2517      2.224    418.351 291.685653     0.0000    -0.0735     0.0000     0.0423 1.3081e-01    53.0088      9.342     13.549     9.8549 0.0000e+00
      9.516     -0.042     0.2512      2.226    418.823 292.021582     0.0000    -0.0697     0.0000     0.0423 1.4951e-01    53.0238      9.332     13.535     9.8560 0.0000e+00
      9.505     -0.047     0.2509      2.227    419.348 292.395291     0.0000    -0.0583     0.0000     0.0423 1.1600e-01    49.4015      9.322     13.520     9.8570 0.0000e+00
      9.494     -0.053     0.2511      2.228    419.864 292.762037     0.0000    -0.0583     0.0000     0.0423 1.1592e-01    49.4165      9.310     13.504     9.8580 0.0000e+00
      9.480     -0.062     0.2515      2.230    420.272 293.053160     0.0000    -0.0506     0.0000     0.0423 1.1600e-01    49.3865      9.297     13.485     9.8589 0.0000e+00
      9.465     -0.075     0.2517      2.230    420.568 293.266067     0.0000    -0.0697     0.0426     0.0846 1.1605e-01    49.4616      9.282     13.463     9.8598 0.0000e+00
      9.446     -0.091     0.2519      2.222    420.881 293.491631     0.0000    -0.0583     0.0426     0.0846 1.1605e-01    49.4917      9.263     13.436     9.8607 0.0000e+00
      9.422     -0.111     0.2520      2.213    421.336 293.816075     0.0000    -0.0926     0.0426     0.0846 1.1969e-01    52.2873      9.240     13.402     9.8615 0.0000e+00
      9.393     -0.134     0.2523      2.209    421.950 294.251709     0.0000    -0.0430     0.0426     0.0846 1.2514e-01    52.3625      9.212     13.361     9.8623 0.0000e+00
      9.357     -0.159     0.2522      2.213    422.538 294.670008     0.0900    -0.0850     0.0426     0.1692 1.2999e-01    52.3625      9.176     13.309     9.8632 0.0000e+00
      9.312     -0.184     0.2513      2.224    422.789 294.853572     0.0900    -0.0773     0.0426     0.1692 1.3207e-01    52.3925      9.133     13.246     9.8640 0.0000e+00
      9.260     -0.208     0.2502      2.234    422.569 294.708940     0.0900    -0.0621     0.0426     0.1692 1.6143e-01    45.5087      9.082     13.172     9.8649 0.0000e+00
      9.202     -0.230     0.2497      2.238    421.922 294.267751     0.0900    -0.0697     0.0426     0.1692 1.4945e-01    45.5087      9.025     13.089     9.8658 0.0000e+00
      9.140     -0.250     0.2502      2.236    420.912 293.572819     0.2700    -0.0697     0.0426     0.3807 1.6696e-01    45.3885      8.963     13.000     9.8667 0.0000e+00
      9.073     -0.267     0.2515      2.226    419.662 292.711610     0.2700    -0.0812     0.0426     0.3807 1.7019e-01    45.4185      8.898     12.906     9.8677 0.0000e+00
      9.003     -0.283     0.2526      2.210    418.334 291.795429     0.2700     0.1668     0.0426     0.3807 1.5820e-01    65.6792      8.829     12.806     9.8688 0.0000e+00
      8.929     -0.298     0.2531      2.191    417.037 290.900844     0.2700     0.1706     0.0426     0.3807 1.8873e-01    65.7844      8.756     12.700     9.8699 0.0000e+00
      8.851     -0.312     0.2528      2.172    415.839 290.076078     0.2700     0.2011     0.0426     0.3807 2.1427e-01    65.7844      8.680     12.589     9.8711 0.0000e+00
      8.769     -0.325     0.2517      2.157    414.751 289.327796     3.7800     0.1706     0.3408     0.8037 2.3793e-01    65.7543      8.600     12.473     9.8723 0.0000e+00
      8.684     -0.335     0.2499      2.150    413.767 288.650965     3.7800     0.6169     0.3408     0.8037 2.3618e-01    63.2142      8.516     12.352     9.8736 0.0000e+00
      8.595     -0.341     0.2477      2.144    412.919 288.069626     3.7800     0.6284     0.3408     0.8037 2.8029e-01    63.1691      8.429     12.226     9.8748 0.0000e+00
      8.505     -0.344     0.2455      2.135    412.262 287.621245     3.7800     0.6208     0.3408     0.8037 2.6208e-01    63.1541      8.340     12.097     9.8760 0.0000e+00
      8.415     -0.345     0.2439      2.128    411.799 287.308564     1.2600     0.6131     0.4260     0.7614 3.3394e-01    63.1090      8.252     11.968     9.8773 0.0000e+00
      8.327     -0.345     0.2431      2.125    411.466 287.086297     1.2600     0.7199     0.4260     0.7614 3.4885e-01    30.0126      8.166     11.843     9.8786 0.0000e+00
      8.241     -0.347     0.2423      2.121    411.211 286.919234     1.2600     0.7276     0.4260     0.7614 3.4945e-01    29.9976      8.082     11.722     9.8798 0.0000e+00
      8.156     -0.351     0.2414      2.115    411.022 286.798915     1.2600     0.6970     0.4260     0.7614 3.3693e-01    29.9826      7.998     11.601     9.8810 0.0000e+00
      8.069     -0.358     0.2406      2.109    410.860 286.697268     3.6000     0.7352     0.6816     0.9729 3.4276e-01    30.0728      7.913     11.477     9.8822 0.0000e+00
      7.977     -0.367     0.2402      2.104    410.675 286.579167     3.6000     0.7161     0.6816     0.9729 3.9365e-01    23.7451      7.823     11.347     9.8835 0.0000e+00
      7.881     -0.376     0.2398      2.100    410.461 286.441190     3.6000     0.7238     0.6816     0.9729 4.6001e-01    23.7000      7.729     11.210     9.8848 0.0000e+00
      7.781     -0.384     0.2391      2.088    410.218 286.282634     3.6000     0.7238     0.6816     0.9729 4.9421e-01    23.6850      7.631     11.068     9.8861 0.0000e+00
      7.680     -0.391     0.2384      2.064    409.926 286.089286     3.6000     0.7085     0.6816     0.9729 5.6279e-01    23.7902      7.532     10.924     9.8875 0.0000e+00
      7.580     -0.395     0.2379      2.036    409.571 285.851693     4.5000     0.5940     0.8094     0.9729 6.0687e-01     8.0236      7.433     10.781     9.8889 0.0000e+00
      7.479     -0.397     0.2374      2.016    409.130 285.554616     4.5000     0.5979     0.8094     0.9729 6.3977e-01     8.1288      7.335     10.639     9.8902 0.0000e+00
      7.378     -0.397     0.2360      2.007    408.587 285.184997     4.5000     0.6398     0.8094     0.9729 6.8050e-01     8.0837      7.236     10.495     9.8916 0.0000e+00
      7.276     -0.393     0.2334      2.001    407.913 284.724468     4.5000     0.6169     0.8094     0.9729 7.8749e-01     8.0236      7.135     10.349     9.8929 0.0000e+00
      7.172     -0.387     0.2301      1.992    406.952 284.062251     4.9500     0.5979     0.6390     0.8037 9.5220e-01     7.1819      7.034     10.202     9.8941 0.0000e+00
      7.072     -0.377     0.2278      1.981    405.393 282.981659     4.9500     0.6284     0.6390     0.8037 1.0402e+00     7.0767      6.935     10.058     9.8954 0.0000e+00
      6.975     -0.366     0.2268      1.970    402.849 281.212577     4.9500     0.6360     0.6390     0.8037 1.0703e+00     7.2270      6.840      9.922     9.8966 0.0000e+00
      6.885     -0.355     0.2261      1.956    398.811 278.399532     4.9500     0.6093     0.6390     0.8037 1.1589e+00     7.1518      6.752      9.793     9.8978 0.0000e+00
      6.799     -0.345     0.2250      1.939    392.511 274.006889     4.4100     0.5559     0.5112     0.5499 1.1629e+00    22.5427      6.668      9.671     9.8989 0.0000e+00
      6.716     -0.337     0.2238      1.926    382.615 267.103844     4.4100     0.5445     0.5112     0.5499 1.2164e+00    22.4675      6.586      9.552     9.8999 0.0000e+00
      6.632     -0.332     0.2226      1.917    367.040 256.236456     4.4100     0.5559     0.5112     0.5499 1.2936e+00    22.4976      6.503      9.433     9.9007 0.0000e+00
      6.548     -0.328     0.2210      1.912    342.455 239.080018     4.4100     0.5864     0.5112     0.5499 1.4296e+00    22.5276      6.421      9.313     9.9015 0.0000e+00
      6.463     -0.326     0.2191      1.910    306.892 214.259229     4.4100     0.5940     0.5112     0.5499 1.5641e+00    10.2330      6.338      9.192     9.9023 0.0000e+00
      6.379     -0.325     0.2176      1.908    263.574 184.023843     4.7700     0.5864     0.4686     0.5922 1.6753e+00    10.1578      6.256      9.074     9.9031 0.0000e+00
      6.298     -0.324     0.2166      1.905    218.130 152.301474     4.7700     0.6246     0.4686     0.5922 1.7289e+00    10.2781      6.176      8.957     9.9041 0.0000e+00
      6.217     -0.324     0.2160      1.903    174.937 122.148283     4.7700     0.6093     0.4686     0.5922 1.7715e+00    10.2480      6.097      8.843     9.9054 0.0000e+00
      6.136     -0.325     0.2158      1.899    136.447  95.276602     4.7700     0.6169     0.4686     0.5922 1.9078e+00     5.9945      6.017      8.727     9.9070 0.0000e+00
      6.053     -0.326     0.2156      1.893    104.524  72.988261     4.6800     0.6169     0.5964     0.3807 2.1291e+00     5.9043      5.936      8.609     9.9088 0.0000e+00
      5.968     -0.326     0.2154      1.890     81.282  56.760621     4.6800     0.6055     0.5964     0.3807 2.3028e+00     5.9494      5.853      8.489     9.9106 0.0000e+00
      5.883     -0.326     0.2152      1.889     66.327  46.318093     4.6800     0.6436     0.5964     0.3807 2.5604e+00     5.9494      5.769      8.367     9.9124 0.0000e+00
      5.798     -0.323     0.2146      1.890     57.100  39.874257     4.6800     0.5979     0.5964     0.3807 2.7299e+00     4.5065      5.686      8.247     9.9140 0.0000e+00
      5.716     -0.320     0.2140      1.891     51.444  35.924613     4.3200     0.6208     0.3834     0.4653 2.9075e+00     4.5366      5.605      8.130     9.9150 0.0000e+00
      5.636     -0.317     0.2137      1.892     47.960  33.491169     4.3200     0.6284     0.3834     0.4653 2.9688e+00     4.5817      5.527      8.017     9.9155 0.0000e+00
      5.558     -0.315     0.2137      1.897     45.791  31.976487     4.3200     0.6093     0.3834     0.4653 3.0765e+00     4.5666      5.450      7.905     9.9154 0.0000e+00
      5.479     -0.314     0.2138      1.916     44.428  31.024171     4.3200     0.6322     0.3834     0.4653 3.2780e+00     3.7550      5.373      7.793     9.9149 0.0000e+00
      5.398     -0.313     0.2138      1.962     43.557  30.415913     3.9600     0.6246     0.2556     0.3384 3.5317e+00     3.9203      5.294      7.679     9.9142 0.0000e+00
      5.317     -0.312     0.2139      2.057     42.978  30.011289     3.9600     0.6093     0.2556     0.3384 3.8658e+00     3.8452      5.215      7.563     9.9135 0.0000e+00
      5.236     -0.310     0.2146      2.226     42.575  29.730120     3.9600     0.5979     0.2556     0.3384 4.1858e+00     3.7550      5.135      7.447     9.9129 0.0000e+00
      5.157     -0.307     0.2167      2.509     42.302  29.539007     3.9600     0.6208     0.2556     0.3384 4.3851e+00     3.1388      5.057      7.335     9.9125 0.0000e+00
      5.079     -0.304     0.2219      2.983     42.115  29.408768     3.9600     0.5864     0.2556     0.3384 4.4804e+00     3.0486      4.981      7.225     9.9121 0.0000e+00
      5.004     -0.301     0.2327      3.778     41.972  29.308631     3.9600     0.6055     0.2982     0.2538 4.7604e+00     2.9885      4.907      7.117     9.9120 0.0000e+00
      4.928     -0.299     0.2518      5.105     41.859  29.229714     3.9600     0.6284     0.2982     0.2538 5.0844e+00     3.0937      4.833      7.009     9.9120 0.0000e+00
      4.852     -0.296     0.2838      7.300     41.772  29.168791     3.9600     0.6246     0.2982     0.2538 5.3299e+00     3.3191      4.758      6.902     9.9120 0.0000e+00
      4.776     -0.294     0.3373     10.825     41.699  29.117536     3.9600     0.6017     0.2982     0.2538 5.6631e+00     3.3943      4.684      6.794     9.9120 0.0000e+00
      4.701     -0.292     0.4272     16.159     41.637  29.074160     3.9600     0.5979     0.2556     0.2538 6.1358e+00     3.2740      4.610      6.686     9.9120 0.0000e+00
      4.626     -0.291     0.5774     23.651     41.582  29.035018     3.9600     0.5940     0.2556     0.2538 6.4391e+00     3.3792      4.536      6.580     9.9119 0.0000e+00
      4.553     -0.290     0.8257     33.383     41.523  28.993631     3.9600     0.6246     0.2556     0.2538 6.4223e+00     2.7179      4.465      6.476     9.9117 0.0000e+00
      4.481     -0.290     1.2243     45.076     41.467  28.954801     3.9600     0.5864     0.2556     0.2538 6.6279e+00     2.6428      4.394      6.374     9.9115 0.0000e+00
      4.408     -0.291     1.8277     58.101     41.423  28.924015     3.8700     0.5979     0.1278     0.2961 7.0269e+00     2.6728      4.323      6.270     9.9113 0.0000e+00
      4.333     -0.291     2.6750     71.615     41.384  28.897021     3.8700     0.6131     0.1278     0.2961 7.4742e+00     2.7179      4.250      6.164     9.9111 0.0000e+00
      4.257     -0.291     3.7758     84.720     41.339  28.866621     3.8700     0.6017     0.1278     0.2961 7.9586e+00     2.7179      4.175      6.056     9.9109 0.0000e+00
      4.181     -0.290     5.0983     96.614     41.293  28.834610     3.8700     0.6017     0.1278     0.2961 8.5819e+00     2.6277      4.101      5.948     9.9109 0.0000e+00
      4.107     -0.287     6.5714    106.709     41.257  28.810270     3.8700     0.6360     0.1278     0.2961 9.1005e+00     2.8231      4.027      5.841     9.9110 0.0000e+00
      4.034     -0.285     8.0998    114.664     41.231  28.793049     3.8700     0.6208     0.1278     0.2961 9.2742e+00     2.6578      3.956      5.738     9.9112 0.0000e+00
      3.964     -0.282     9.5819    120.396     41.209  28.778356     3.8700     0.5940     0.1278     0.2961 9.4820e+00     5.0326      3.887      5.638     9.9117 0.0000e+00
      3.894     -0.279    10.9270    124.066     41.186  28.764253     3.8700     0.6284     0.1278     0.2961 1.0088e+01     5.0025      3.818      5.538     9.9123 0.0000e+00
      3.823     -0.275    12.0685    125.977     41.159  28.746979     3.8700     0.6093     0.1278     0.2961 1.0665e+01     5.0326      3.748      5.437     9.9131 0.0000e+00
      3.751     -0.270    12.9678    126.455     41.128  28.727868     3.7800     0.6093     0.1704     0.1269 1.1425e+01     5.0476      3.678      5.335     9.9141 0.0000e+00
      3.680     -0.263    13.6157    125.790     41.100  28.711724     3.7800     0.6932     0.1704     0.1269 1.2398e+01     2.8983      3.609      5.235     9.9154 0.0000e+00
      3.613     -0.254    14.0302    124.226     41.075  28.698200     3.7800     0.6856     0.1704     0.1269 1.3085e+01     2.9133      3.543      5.138     9.9172 0.0000e+00
      3.550     -0.245    14.2456    121.981     41.054  28.687650     3.7800     0.6856     0.1704     0.1269 1.2938e+01     2.8081      3.481      5.048     9.9197 0.0000e+00
      3.490     -0.237    14.2986    119.267     41.038  28.681222     3.6900     0.6475     0.0852     0.1692 1.3317e+01     2.8832      3.423      4.964     9.9229 0.0000e+00
      3.433     -0.231    14.2221    116.288     41.025  28.677200     3.6900     0.7772     0.0852     0.1692 1.3684e+01     1.7560      3.367      4.883     9.9269 0.0000e+00
      3.377     -0.229    14.0438    113.221     41.018  28.678474     3.6900     0.7772     0.0852     0.1692 1.4036e+01     1.6207      3.312      4.803     9.9315 0.0000e+00
      3.321     -0.230    13.7884    110.215     41.012  28.681421     3.6900     0.7848     0.0852     0.1692 1.4316e+01     1.7860      3.256      4.723     9.9365 0.0000e+00
      3.262     -0.233    13.4800    107.382     40.995  28.678910     4.0500     0.7924     0.0426     0.1692 1.4959e+01     1.7259      3.199      4.640     9.9421 0.0000e+00
      3.202     -0.237    13.1414    104.788     40.973  28.674230     4.0500     0.6970     0.0426     0.1692 1.6388e+01     1.7560      3.140      4.554     9.9484 0.0000e+00
      3.140     -0.241    12.7926    102.451     40.949  28.670095     4.0500     0.7085     0.0426     0.1692 1.7367e+01     1.7560      3.079      4.466     9.9559 0.0000e+00
      3.078     -0.243    12.4504    100.331     40.923  28.665400     4.0500     0.7352     0.0426     0.1692 1.7645e+01     1.8311      3.018      4.377     9.9649 0.0000e+00
      3.015     -0.245    12.1272     98.341     40.893  28.658896     3.8700     0.7047     0.1278     0.1692 1.8825e+01     1.7109      2.957      4.288     9.9761 0.0000e+00
      2.952     -0.245    11.8306     96.372     40.861  28.652808     3.8700     0.8458     0.1278     0.1692 2.0406e+01     2.4323      2.895      4.198     9.9895 0.0000e+00
      2.888     -0.244    11.5627     94.326     40.832  28.649472     3.8700     0.8267     0.1278     0.1692 2.1932e+01     2.3873      2.833      4.108    10.0047 0.0000e+00
      2.826     -0.242    11.3190     92.142     40.805  28.648001     3.8700     0.8229     0.1278     0.1692 2.2723e+01     2.5376      2.772      4.020    10.0213 0.0000e+00
      2.765     -0.241    11.0898     89.816     40.785  28.651962     3.8700     0.8306     0.1278     0.1692 2.3263e+01     2.5225      2.712      3.934    10.0394 0.0000e+00
      2.705     -0.240    10.8629     87.408     40.778  28.666371     3.8700     1.3379     0.1278     0.2961 2.4306e+01     1.7109      2.653      3.848    10.0590 0.0000e+00
      2.644     -0.238    10.6272     85.032     40.777  28.687153     3.8700     1.3379     0.1278     0.2961 2.6496e+01     1.7259      2.593      3.761    10.0798 0.0000e+00
      2.583     -0.235    10.3761     82.823     40.771  28.707969     3.8700     1.3494     0.1278     0.2961 2.8183e+01     1.7259      2.533      3.674    10.1012 0.0000e+00
      2.522     -0.232    10.1089     80.893     40.756  28.726452     3.8700     1.3227     0.1278     0.2961 2.9602e+01     1.7259      2.473      3.588    10.1235 0.0000e+00
      2.463     -0.228     9.8325     79.293     40.729  28.739612     3.7800     1.8720     0.0852     0.2538 3.2122e+01     1.5907      2.415      3.503    10.1472 0.0000e+00
      2.405     -0.224     9.5593     78.025     40.691  28.747000     3.7800     1.8796     0.0852     0.2538 3.3974e+01     1.5155      2.358      3.421    10.1738 0.0000e+00
      2.350     -0.222     9.3043     77.036     40.641  28.748606     3.7800     1.8682     0.0852     0.2538 3.4219e+01     1.4854      2.304      3.342    10.2044 0.0000e+00
      2.296     -0.222     9.0799     76.233     40.582  28.746841     3.7800     1.8949     0.0852     0.2538 3.3959e+01     1.4704      2.252      3.265    10.2398 0.0000e+00
      2.241     -0.224     8.8921     75.518     40.518  28.747174     3.7800     2.4442     0.0852     0.2115 3.6381e+01     1.6959      2.198      3.188    10.2794 0.0000e+00
      2.185     -0.229     8.7411     74.821     40.446  28.747717     3.7800     2.4213     0.0852     0.2115 3.9823e+01     1.7259      2.142      3.107    10.3218 0.0000e+00
      2.125     -0.235     8.6211     74.127     40.363  28.744654     3.7800     2.4404     0.0852     0.2115 4.2905e+01     1.5907      2.084      3.023    10.3670 0.0000e+00
      2.064     -0.241     8.5213     73.482     40.275  28.741133     3.7800     2.4366     0.0852     0.2115 4.5914e+01     1.7259      2.024      2.936    10.4166 0.0000e+00
      2.002     -0.247     8.4303     72.942     40.195  28.744135     3.7800     3.4284     0.0852     0.2115 4.8383e+01     1.6808      1.963      2.847    10.4730 0.0000e+00
      1.937     -0.252     8.3400     72.530     40.126  28.754462     3.7800     3.4360     0.1278     0.2115 5.4324e+01     1.6959      1.899      2.755    10.5369 0.0000e+00
      1.871     -0.256     8.2492     72.249     40.061  28.766952     3.7800     3.4170     0.1278     0.2115 6.0022e+01     1.6959      1.835      2.661    10.6067 0.0000e+00
      1.805     -0.259     8.1635     72.088     39.995  28.778996     3.7800     3.4284     0.1278     0.2115 6.1889e+01     1.6357      1.770      2.568    10.6796 0.0000e+00
      1.740     -0.263     8.0895     72.001     39.924  28.785889     3.7800     5.1946     0.1278     0.2115 6.3139e+01     2.0115      1.706      2.475    10.7537 0.0000e+00
      1.673     -0.267     8.0298     71.889     39.842  28.783531     3.7800     5.1718     0.0852     0.3384 6.9564e+01     1.8612      1.641      2.380    10.8282 0.0000e+00
      1.605     -0.271     7.9848     71.648     39.760  28.781195     3.7800     5.1946     0.0852     0.3384 7.6811e+01     1.9514      1.574      2.282    10.9025 0.0000e+00
      1.535     -0.275     7.9534     71.245     39.700  28.794099     3.7800     5.2061     0.0852     0.3384 7.9857e+01     2.0115      1.505      2.183    10.9762 0.0000e+00
      1.464     -0.280     7.9304     70.686     39.669  28.831625     3.7800    10.3102     0.0852     0.3384 8.4609e+01     2.8832      1.436      2.082    11.0489 0.0000e+00
      1.392     -0.284     7.9050     70.005     39.666  28.893881     3.9600    10.3331     0.0852     0.9306 9.1315e+01     2.8231      1.365      1.979    11.1205 0.0000e+00
      1.318     -0.286     7.8658     69.259     39.682  28.977674     3.9600    10.3484     0.0852     0.9306 1.0087e+02     2.9133      1.293      1.875    11.1914 0.0000e+00
      1.244     -0.287     7.8087     68.526     39.729  29.091489     3.9600    10.3293     0.0852     0.9306 1.0894e+02     2.7931      1.220      1.769    11.2627 0.0000e+00
      1.170     -0.287     7.7344     67.912     39.810  29.237962     3.9600    13.2819     0.0852     0.9306 1.1693e+02     3.9354      1.148      1.664    11.3372 0.0000e+00
      1.097     -0.287     7.6457     67.528     39.917  29.412596     4.3200    13.3048     0.0852     1.1421 1.2606e+02     4.0706      1.076      1.560    11.4183 0.0000e+00
      1.024     -0.286     7.5486     67.461     40.077  29.638203     4.3200    13.3010     0.0852     1.1421 1.3310e+02     4.0105      1.004      1.456    11.5083 0.0000e+00
      0.951     -0.284     7.4515     67.776     40.288  29.915550     4.3200    13.2819     0.0852     1.1421 1.3802e+02     3.9354      0.933      1.353    11.6077 0.0000e+00
      0.879     -0.282     7.3659     68.552     40.445  30.170097     4.3200    11.1800     0.0852     1.1421 1.4525e+02     4.3111      0.862      1.250    11.7168 0.0000e+00
      0.807     -0.279     7.3035     69.874     40.475  30.350926     4.3200    11.1686     0.0852     1.1421 1.5979e+02     4.2961      0.791      1.147    11.8370 0.0000e+00
      0.735     -0.275     7.2730     71.815     40.420  30.484484     4.3200    11.1686     0.1278     1.3959 1.7529e+02     4.2961      0.721      1.045    11.9707 0.0000e+00
      0.665     -0.271     7.2807     74.426     40.333  30.602433     4.3200    11.1724     0.1278     1.3959 1.8519e+02     4.2961      0.652      0.945    12.1213 0.0000e+00
      0.597     -0.266     7.3337     77.701     40.255  30.728313     4.3200     8.1320     0.1278     1.3959 1.9507e+02     4.0406      0.585      0.848    12.2936 0.0000e+00
      0.530     -0.261     7.4400     81.550     40.221  30.883819     4.3200     8.1244     0.1278     1.3959 2.1098e+02     3.9955      0.519      0.753    12.4905 0.0000e+00
      0.464     -0.256     7.6075     85.818     40.228  31.064881     4.5000     8.1244     0.1278     2.1573 2.2378e+02     4.0255      0.455      0.660    12.7079 0.0000e+00
      0.400     -0.253     7.8421     90.333     40.247  31.252466     4.5000     8.1320     0.1278     2.1573 2.3372e+02     4.0857      0.392      0.569    12.9359 0.0000e+00
      0.337     -0.252     8.1440     94.906     40.296  31.462940     4.5000     6.6710     0.1278     2.1573 2.3813e+02     3.5897      0.330      0.479    13.1652 0.0000e+00
      0.274     -0.252     8.5042     99.322     40.398  31.716793     4.5000     6.6519     0.1278     2.1573 2.5307e+02     3.6348      0.269      0.389    13.3896 0.0000e+00
      0.210     -0.252     8.9059    103.400     40.513  31.986675     4.5900     6.6595     0.0852     2.4111 2.7998e+02     3.6047      0.206      0.299    13.6078 0.0000e+00
      0.145     -0.252     9.3308    107.007     40.621  32.261393     4.5900     6.6557     0.0852     2.4111 3.1538e+02     3.5897      0.143      0.207    13.8219 0.0000e+00
      0.080     -0.253     9.7585    110.045     40.758  32.572629     4.5900     4.5271     0.0852     2.4111 3.2315e+02     3.3642      0.079      0.114    14.0344 0.0000e+00
      0.015     -0.252    10.1661    112.460     40.918  32.918233     4.5900     4.5194     0.0852     2.4111 4.3768e+02     3.3492      0.015      0.021    14.2489 0.0000e+00
     -0.049     -0.249    10.5343    114.167     41.002  33.226010     4.5000     4.5118     0.0852     2.7072 3.9202e+02     3.2740     -0.048     -0.070    14.4703 0.0000e+00
     -0.113     -0.245    10.8489    115.018     40.928  33.437439     4.5000     4.5347     0.0852     2.7072 4.2006e+02     3.3342     -0.111     -0.162    14.7035 0.0000e+00
     -0.176     -0.238    11.0996    114.919     40.705  33.567323     4.5000     3.2911     0.0852     2.7072 4.0501e+02     3.3041     -0.173     -0.251    14.9522 0.0000e+00
     -0.237     -0.229    11.2807    113.880     40.433  33.689915     4.5000     3.3140     0.0852     2.7072 3.7928e+02     3.3342     -0.233     -0.338    15.2211 0.0000e+00
     -0.296     -0.216    11.3827    111.990     40.361  33.958727     4.5000     3.2873     0.0852     2.7072 3.7372e+02     3.3342     -0.290     -0.421    15.5183 0.0000e+00
     -0.352     -0.199    11.3896    109.391     40.810  34.576162     4.3200     3.2911     0.0852     2.7918 3.5790e+02     3.3191     -0.345     -0.500    15.8540 0.0000e+00
     -0.403     -0.178    11.2904    106.215     41.701  35.443477     4.3200     1.9368     0.0852     2.7918 3.3626e+02   285.8707     -0.395     -0.573    16.2405 0.0000e+00
     -0.448     -0.155    11.0900    102.593     42.207  35.865034     4.3200     1.8682     0.0852     2.7918 4.7432e+02   285.8406     -0.439     -0.637    16.6692 0.0000e+00
     -0.484     -0.131    10.8144     98.702     41.812  35.434300     4.3200     1.9140     0.0852     2.7918 4.0598e+02   285.8707     -0.474     -0.688    17.0715 0.0000e+00
     -0.512     -0.107    10.4989     94.737     41.068  34.660332     6.7500     1.9063    -0.1278     1.3536 2.9542e+02   285.8707     -0.502     -0.728    17.3551 0.0000e+00
     -0.534     -0.085    10.1641     90.883     40.494  34.018084     6.7500     1.8949    -0.1278     1.3536 2.7006e+02   285.9458     -0.524     -0.759    17.4801 0.0000e+00
     -0.551     -0.067     9.8172     87.307     40.106  33.538282     6.7500    -0.6839    -0.1278     1.3536 2.5088e+02    73.3145     -0.540     -0.783    17.4639 0.0000e+00
     -0.564     -0.052     9.4646     84.133     39.828  33.166244     6.7500    -0.6839    -0.1278     1.3536 2.6610e+02    73.2694     -0.553     -0.802    17.3473 0.0000e+00
     -0.575     -0.040     9.1151     81.421     39.613  32.862165    12.6900    -0.7068    -3.9618     3.0879 3.3531e+02    73.2694     -0.563     -0.817    17.1746 0.0000e+00
     -0.583     -0.031     8.7784     79.179     39.443  32.612281    12.6900    -0.6724    -3.9618     3.0879 4.7042e+02    73.2093     -0.571     -0.828    16.9827 0.0000e+00
     -0.589     -0.024     8.4661     77.365     39.313  32.409360    12.6900   245.2114    -3.9618     3.0879 5.9163e+02     1.2750     -0.577     -0.837    16.7948 0.0000e+00
     -0.594     -0.019     8.1885     75.896     39.217  32.246812    12.6900   245.1885    -3.9618     3.0879 4.8918e+02     1.2299     -0.582     -0.844    16.6219 0.0000e+00
     -0.597     -0.015     7.9511     74.676     39.151  32.118912    31.8600   245.2267     0.3834     3.1302 6.3409e+02     1.1698     -0.586     -0.850    16.4674 0.0000e+00
     -0.600     -0.012     7.7553     73.617     39.110  32.019275    31.8600   245.2191     0.3834     3.1302 4.6981e+02     1.1848     -0.589     -0.854    16.3313 0.0000e+00
     -0.603     -0.009     7.5976     72.645     39.083  31.937169    31.8600     3.0508     0.3834     3.1302 3.6616e+02    -6.0146     -0.591     -0.857    16.2120 0.0000e+00
     -0.604     -0.007     7.4706     71.726     39.059  31.862580    31.8600     3.0546     0.3834     3.1302 4.9603e+02    -6.0597     -0.592     -0.860    16.1070 0.0000e+00
     -0.606     -0.005     7.3657     70.844     39.037  31.795416    31.8600     3.0660     0.3834     3.1302 3.8509e+02    -6.1198     -0.594     -0.862    16.0136 0.0000e+00
     -0.607     -0.004     7.2746     69.985     39.023  31.739548     6.8400     3.0584     0.5112     0.2115 4.4217e+02    -6.0747     -0.595     -0.863    15.9297 0.0000e+00
     -0.608     -0.003     7.1905     69.156     39.017  31.695916     6.8400    -2.4730     0.5112     0.2115 3.6720e+02    13.8102     -0.596     -0.864    15.8534 0.0000e+00
     -0.609     -0.003     7.1103     68.377     39.014  31.658825     6.8400    -2.4616     0.5112     0.2115 2.5846e+02    13.7049     -0.597     -0.865    15.7838 0.0000e+00
     -0.609     -0.002     7.0325     67.657     39.005  31.622344     6.8400    -2.4578     0.5112     0.2115 2.9819e+02    13.6599     -0.597     -0.866    15.7206 0.0000e+00
     -0.610     -0.002     6.9558     67.005     38.992  31.584663     8.0100    -2.4692    -0.3834    -4.1877 3.1361e+02    13.7801     -0.598     -0.867    15.6640 0.0000e+00
     -0.610     -0.001     6.8809     66.430     38.972  31.543655     8.0100     0.8306    -0.3834    -4.1877 3.7879e+02    22.0166     -0.598     -0.867    15.6139 0.0000e+00
     -0.610     -0.001     6.8098     65.936     38.952  31.504224     8.0100     0.8420    -0.3834    -4.1877 4.6594e+02    22.0316     -0.598     -0.868    15.5701 0.0000e+00
     -0.611     -0.001     6.7437     65.516     38.946  31.475656     8.0100     0.8649    -0.3834    -4.1877 4.7185e+02    22.0617     -0.599     -0.868    15.5320 0.0000e+00
     -0.611     -0.001     6.6837     65.155     38.952  31.458253     1.7100     0.8496     2.0448     2.7495 4.8780e+02    22.1218     -0.599     -0.869    15.4980 0.0000e+00
     -0.611     -0.001     6.6309     64.831     38.965  31.447373     1.7100    -0.7907     2.0448     2.7495 4.9863e+02    -2.8432     -0.599     -0.869    15.4664 0.0000e+00
     -0.611     -0.001     6.5859     64.519     38.980  31.440114     1.7100    -0.8060     2.0448     2.7495 5.1694e+02    -2.8432     -0.599     -0.869    15.4359 0.0000e+00
     -0.611     -0.000     6.5482     64.200     38.996  31.434539     1.7100    -0.8060     2.0448     2.7495 5.6955e+02    -2.8583     -0.599     -0.870    15.4061 0.0000e+00
     -0.612     -0.000     6.5162     63.863     39.011  31.429162     0.0000    -0.8060    -0.2982     0.2961 5.8536e+02    -2.9034     -0.600     -0.870    15.3774 0.0000e+00
     -0.612     -0.000     6.4875     63.504     39.022  31.422548     0.0000    -1.0577    -0.2982     0.2961 5.4782e+02     3.1388     -0.600     -0.870    15.3503 0.0000e+00
     -0.612     -0.000     6.4598     63.125     39.034  31.416893     0.0000    -1.0501    -0.2982     0.2961 8.5360e+02     3.1087     -0.600     -0.870    15.3250 0.0000e+00
     -0.612     -0.000     6.4312     62.741     39.048  31.414649     0.0000    -1.0501    -0.2982     0.2961 1.0378e+03     3.2139     -0.600     -0.870    15.3013 0.0000e+00
     -0.612     -0.000     6.4005     62.373     39.059  31.411255     0.0000    -1.0501    -0.2982     0.2961 1.2230e+03     3.1087     -0.600     -0.870    15.2792 0.0000e+00
     -0.612     -0.000     6.3673     62.039     39.062  31.401848     0.0000    -0.5771     0.5112    -2.8341 1.1713e+03    -5.1579     -0.600     -0.870    15.2587 0.0000e+00
     -0.612     -0.000     6.3319     61.753     39.058  31.387877     0.0000    -0.5695     0.5112    -2.8341 5.9653e+02    -5.0376     -0.600     -0.870    15.2397 0.0000e+00
     -0.612      0.000     6.2957     61.525     39.053  31.373539     0.0000    -0.5351     0.5112    -2.8341 7.2712e+02    -5.0677     -0.600     -0.870    15.2223 0.0000e+00
     -0.612      0.000     6.2610     61.360     39.045  31.358968     0.0000    -0.5695     0.5112    -2.8341 1.0881e+03    -5.0978     -0.600     -0.870    15.2062 0.0000e+00
     -0.612      0.000     6.2295     61.261     39.035  31.344239     0.0000    -0.0659    -0.2982     1.8189 1.3200e+03    11.3152     -0.600     -0.870    15.1912 0.0000e+00
     -0.612      0.000     6.2026     61.229     39.029  31.337306     0.0000    -0.0812    -0.2982     1.8189 1.5523e+03    11.4354     -0.600     -0.870    15.1773 0.0000e+00
     -0.612 -9.990e-29     6.1814 -9.990e-29 -9.990e-29 -9.990e-29     0.0000 -9.990e-29    -0.2982     1.8189 1.6065e+03 -9.990e-29     -0.600     -0.870    15.1646 0.0000e+00
     -0.612 -9.990e-29     6.1663 -9.990e-29 -9.990e-29 -9.990e-29     0.0000 -9.990e-29    -0.2982     1.8189 1.5843e+03 -9.990e-29     -0.600     -0.870    15.1537 0.0000e+00
     -0.612 -9.990e-29     6.1574 -9.990e-29 -9.990e-29 -9.990e-29     0.0000 -9.990e-29    -0.0852     1.5228 1.5915e+03 -9.990e-29     -0.600     -0.870    15.1458 0.0000e+00
     -0.612 -9.990e-29     6.1546 -9.990e-29 -9.990e-29 -9.990e-29     0.0000 -9.990e-29    -0.0852     1.5228 1.6019e+03 -9.990e-29     -0.600     -0.870    15.1427 0.0000e+00
