* Sea-Bird SBE19plus  Data File:
* FileName = C:\R\Reservoirs\Data\DataNotYetUploadedToEDI\Raw_CTD\RawDownloads\052024_bvr50_S7809_0005.hex
* Software version 2.8.0.119
* Temperature SN = 7809
* Conductivity SN = 7809
* System UpLoad Time = May 23 2024 16:49:44
* <ApplicationData>
* <Seaterm232>
* <SoftwareVersion>2.8.0.119</SoftwareVersion>
* <BuildDate>07-Nov-2018</BuildDate>
* </Seaterm232>
* </ApplicationData>
* <InstrumentState>
* <HardwareData DeviceType='SBE19plus' SerialNumber='01907809'>
*
*    <Manufacturer>Sea-Bird Electronics, Inc.</Manufacturer>
*
*    <FirmwareVersion>3.1.8</FirmwareVersion>
*
*    <FirmwareDate>Mar  9 2016 16:22:29</FirmwareDate>
*
*    <CommandSetVersion>1.4</CommandSetVersion>
*
*    <PCBAssembly PCBSerialNum='120721' AssemblyNum='41054J'/>
*
*    <PCBAssembly PCBSerialNum='120715' AssemblyNum='41967A'/>
*
*    <PCBAssembly PCBSerialNum='116699' AssemblyNum='41606'/>
*
*    <PCBAssembly PCBSerialNum='120719' AssemblyNum='41059D'/>
*
*    <MfgDate>28-Apr-2017</MfgDate>
*
*    <InternalSensors>
*
*       <Sensor id='Main Temperature'>
*
*          <type>temperature0</type>
*
*          <SerialNumber>01907809</SerialNumber>
*
*       </Sensor>
*
*       <Sensor id='Main Conductivity'>
*
*          <type>conductivity-0</type>
*
*          <SerialNumber>01907809</SerialNumber>
*
*       </Sensor>
*
*       <Sensor id='Main Pressure'>
*
*          <type>strain-0</type>
*
*          <SerialNumber>10586018</SerialNumber>
*
*       </Sensor>
*
*    </InternalSensors>
*
*    <ExternalSensors>
*
*       <Sensor id='volt 0'>
*
*          <type>pH</type>
*
*          <SerialNumber>27-0363</SerialNumber>
*
*       </Sensor>
*
*       <Sensor id='volt 1'>
*
*          <type>ORP</type>
*
*          <SerialNumber>27-0363</SerialNumber>
*
*       </Sensor>
*
*       <Sensor id='volt 2'>
*
*          <type>OXY</type>
*
*          <SerialNumber>43-0434</SerialNumber>
*
*       </Sensor>
*
*       <Sensor id='volt 3'>
*
*          <type>PAR</type>
*
*          <SerialNumber>1122</SerialNumber>
*
*       </Sensor>
*
*       <Sensor id='volt 4'>
*
*          <type>ECO AFL/FL</type>
*
*          <SerialNumber>FLNTURT-2496</SerialNumber>
*
*       </Sensor>
*
*       <Sensor id='volt 5'>
*
*          <type>ECO-NTU</type>
*
*          <SerialNumber>FLNTURT-2496</SerialNumber>
*
*       </Sensor>
*
*       <Sensor id='serial'>
*
*          <type>not assigned</type>
*
*          <SerialNumber>not assigned</SerialNumber>
*
*       </Sensor>
*
*    </ExternalSensors>
*
* </HardwareData>
* <StatusData DeviceType='SBE19plus' SerialNumber='01907809'>
*
*    <DateTime>2024-05-23T16:44:28</DateTime>
*
*    <LoggingState>not logging</LoggingState>
*
*    <EventSummary numEvents='0'/>
*
*    <Power>
*
*       <vMain>12.9</vMain>
*
*       <vLith>8.4</vLith>
*
*       <iMain>63.0</iMain>
*
*       <iPump>102.3</iPump>
*
*       <iExt01>20.0</iExt01>
*
*       <iExt2345>37.6</iExt2345>
*
*    </Power>
*
*    <MemorySummary>
*
*       <Bytes>257209</Bytes>
*
*       <Samples>11183</Samples>
*
*       <SamplesFree>2849605</SamplesFree>
*
*       <SampleLength>23</SampleLength>
*
*       <Profiles>5</Profiles>
*
*    </MemorySummary>
*
* </StatusData>
* <ConfigurationData DeviceType='SBE19plus' SerialNumber='01907809'>
*
*    <ProfileMode>
*
*       <ScansToAverage>1</ScansToAverage>
*
*       <MinimumCondFreq>0</MinimumCondFreq>
*
*       <PumpDelay>45</PumpDelay>
*
*       <AutoRun>no</AutoRun>
*
*       <IgnoreSwitch>no</IgnoreSwitch>
*
*    </ProfileMode>
*
*    <Battery>
*
*       <Type>alkaline</Type>
*
*       <CutOff>7.5</CutOff>
*
*    </Battery>
*
*    <DataChannels>
*
*       <ExtVolt0>yes</ExtVolt0>
*
*       <ExtVolt1>yes</ExtVolt1>
*
*       <ExtVolt2>yes</ExtVolt2>
*
*       <ExtVolt3>yes</ExtVolt3>
*
*       <ExtVolt4>yes</ExtVolt4>
*
*       <ExtVolt5>yes</ExtVolt5>
*
*       <SBE38>no</SBE38>
*
*       <WETLABS>no</WETLABS>
*
*       <OPTODE>no</OPTODE>
*
*       <SBE63>no</SBE63>
*
*       <SeaFET>no</SeaFET>
*
*       <GTD>no</GTD>
*
*    </DataChannels>
*
*    <EchoCharacters>yes</EchoCharacters>
*
*    <OutputExecutedTag>yes</OutputExecutedTag>
*
*    <OutputFormat>raw HEX</OutputFormat>
*
* </ConfigurationData>
* <CalibrationCoefficients DeviceType='SBE19plus' SerialNumber='01907809'>
*
*    <Calibration format='TEMP1' id='Main Temperature'>
*
*       <SerialNum>01907809</SerialNum>
*
*       <CalDate>31-Jan-23</CalDate>
*
*       <TA0>1.218232e-03</TA0>
*
*       <TA1>2.815090e-04</TA1>
*
*       <TA2>-1.578887e-06</TA2>
*
*       <TA3>1.972343e-07</TA3>
*
*       <TOFFSET>0.000000e+00</TOFFSET>
*
*    </Calibration>
*
*    <Calibration format='WBCOND0' id='Main Conductivity'>
*
*       <SerialNum>01907809</SerialNum>
*
*       <CalDate>31-Jan-23</CalDate>
*
*       <G>-1.005652e+00</G>
*
*       <H>1.267963e-01</H>
*
*       <I>-1.561708e-04</I>
*
*       <J>2.645944e-05</J>
*
*       <CPCOR>-9.570000e-08</CPCOR>
*
*       <CTCOR>3.250000e-06</CTCOR>
*
*       <CSLOPE>1.000000e+00</CSLOPE>
*
*    </Calibration>
*
*    <Calibration format='STRAIN0' id='Main Pressure'>
*
*       <SerialNum>10586018</SerialNum>
*
*       <CalDate>20-Jan-23</CalDate>
*
*       <PA0>4.416439e-02</PA0>
*
*       <PA1>4.850502e-04</PA1>
*
*       <PA2>-3.090426e-12</PA2>
*
*       <PTCA0>5.254757e+05</PTCA0>
*
*       <PTCA1>1.050255e+01</PTCA1>
*
*       <PTCA2>-2.922435e-01</PTCA2>
*
*       <PTCB0>2.516687e+01</PTCB0>
*
*       <PTCB1>3.750000e-04</PTCB1>
*
*       <PTCB2>0.000000e+00</PTCB2>
*
*       <PTEMPA0>-5.470820e+01</PTEMPA0>
*
*       <PTEMPA1>5.485421e+01</PTEMPA1>
*
*       <PTEMPA2>-3.446578e-01</PTEMPA2>
*
*       <POFFSET>8.500000e-01</POFFSET>
*
*       <PRANGE>1.600000e+02</PRANGE>
*
*    </Calibration>
*
*    <Calibration format='VOLT0' id='Volt 0'>
*
*       <OFFSET>-4.920000e-02</OFFSET>
*
*       <SLOPE>1.248122e+00</SLOPE>
*
*    </Calibration>
*
*    <Calibration format='VOLT0' id='Volt 1'>
*
*       <OFFSET>-4.784000e-02</OFFSET>
*
*       <SLOPE>1.248871e+00</SLOPE>
*
*    </Calibration>
*
*    <Calibration format='VOLT0' id='Volt 2'>
*
*       <OFFSET>-4.864632e-02</OFFSET>
*
*       <SLOPE>1.248714e+00</SLOPE>
*
*    </Calibration>
*
*    <Calibration format='VOLT0' id='Volt 3'>
*
*       <OFFSET>-4.743790e-02</OFFSET>
*
*       <SLOPE>1.248571e+00</SLOPE>
*
*    </Calibration>
*
*    <Calibration format='VOLT0' id='Volt 4'>
*
*       <OFFSET>-4.671263e-02</OFFSET>
*
*       <SLOPE>1.248951e+00</SLOPE>
*
*    </Calibration>
*
*    <Calibration format='VOLT0' id='Volt 5'>
*
*       <OFFSET>-4.871053e-02</OFFSET>
*
*       <SLOPE>1.249136e+00</SLOPE>
*
*    </Calibration>
*
*    <Calibration format='FREQ0' id='external frequency channel'>
*
*       <EXTFREQSF>1.000014e+00</EXTFREQSF>
*
*    </Calibration>
*
* </CalibrationCoefficients>
* <EventCounters DeviceType='SBE19plus' SerialNumber='01907809'>
*
*    <EventSummary numEvents='0'/>
*
* </EventCounters></InstrumentState>
* <Headers>
*
* cast   5 22 May 2024 13:09:49 samples 10106 to 11183, avg = 1, stop = mag switch
*
# nquan = 15
# nvalues = 1078                        
# units = specified
# name 0 = depFM: Depth [fresh water, m]
# name 1 = dz/dtM: Descent Rate [m/s]
# name 2 = sbeox0Mg/L: Oxygen, SBE 43 [mg/l]
# name 3 = sbeox0PS: Oxygen, SBE 43 [% saturation]
# name 4 = specc: Specific Conductance [uS/cm]
# name 5 = c0uS/cm: Conductivity [uS/cm]
# name 6 = flECO-AFL: Fluorescence, WET Labs ECO-AFL/FL [mg/m^3]
# name 7 = ph: pH
# name 8 = orp: Oxidation Reduction Potential [mV]
# name 9 = par/sat/log: PAR/Logarithmic, Satlantic
# name 10 = turbWETntu0: Turbidity, WET Labs ECO [NTU]
# name 11 = prdM: Pressure, Strain Gauge [db]
# name 12 = prdE: Pressure, Strain Gauge [psi]
# name 13 = tv290C: Temperature [ITS-90, deg C]
# name 14 = flag:  0.000e+00
# span 0 =     -0.485,      5.449       
# span 1 =     -0.370,      0.409       
# span 2 =     4.7428,     9.5023       
# span 3 =     46.949,    114.894       
# span 4 =      8.483,    121.018       
# span 5 =   8.277967, 120.137253       
# span 6 =    -0.0669,   101.2212       
# span 7 =      7.374,      8.188       
# span 8 =    85.2313,   191.3273       
# span 9 = 1.1506e+01, 2.4412e+03       
# span 10 =     0.8388,   499.6070      
# span 11 =     -0.486,      5.344      
# span 12 =     -0.706,      7.751      
# span 13 =    14.7927,    31.2879      
# span 14 = 0.0000e+00, 0.0000e+00      
# interval = seconds: 0.25
# start_time = May 22 2024 13:09:49 [Instrument's time stamp, header]
# bad_flag = -9.990e-29
# <Sensors count="9" >
#   <sensor Channel="1" >
#     <!-- Count, Temperature -->
#     <TemperatureSensor SensorID="58" >
#       <SerialNumber>7809</SerialNumber>
#       <CalibrationDate>31-Jan-23</CalibrationDate>
#       <A0>1.21823180e-003</A0>
#       <A1>2.81508993e-004</A1>
#       <A2>-1.57888696e-006</A2>
#       <A3>1.97234302e-007</A3>
#       <Slope>1.00000000</Slope>
#       <Offset>0.0000</Offset>
#     </TemperatureSensor>
#   </sensor>
#   <sensor Channel="2" >
#     <!-- Frequency 0, Conductivity -->
#     <ConductivitySensor SensorID="3" >
#       <SerialNumber>7809</SerialNumber>
#       <CalibrationDate>31-Jan-23</CalibrationDate>
#       <UseG_J>1</UseG_J>
#       <!-- Cell const and series R are applicable only for wide range sensors. -->
#       <SeriesR>0.0000</SeriesR>
#       <CellConst>2000.0000</CellConst>
#       <ConductivityType>0</ConductivityType>
#       <Coefficients equation="0" >
#         <A>0.00000000e+000</A>
#         <B>0.00000000e+000</B>
#         <C>0.00000000e+000</C>
#         <D>0.00000000e+000</D>
#         <M>0.0</M>
#         <CPcor>-9.57000000e-008</CPcor>
#       </Coefficients>
#       <Coefficients equation="1" >
#         <G>-1.00565232e+000</G>
#         <H>1.26796307e-001</H>
#         <I>-1.56170788e-004</I>
#         <J>2.64594368e-005</J>
#         <CPcor>-9.57000000e-008</CPcor>
#         <CTcor>3.2500e-006</CTcor>
#         <!-- WBOTC not applicable unless ConductivityType = 1. -->
#         <WBOTC>0.00000000e+000</WBOTC>
#       </Coefficients>
#       <Slope>1.00000000</Slope>
#       <Offset>0.00000</Offset>
#     </ConductivitySensor>
#   </sensor>
#   <sensor Channel="3" >
#     <!-- Count, Pressure, Strain Gauge -->
#     <PressureSensor SensorID="46" >
#       <SerialNumber>7809</SerialNumber>
#       <CalibrationDate>20-Jan-23</CalibrationDate>
#       <PA0>4.41643944e-002</PA0>
#       <PA1>4.85050239e-004</PA1>
#       <PA2>-3.09042623e-012</PA2>
#       <PTEMPA0>-5.47081996e+001</PTEMPA0>
#       <PTEMPA1>5.48542136e+001</PTEMPA1>
#       <PTEMPA2>-3.44657813e-001</PTEMPA2>
#       <PTCA0>5.25475731e+005</PTCA0>
#       <PTCA1>1.05025484e+001</PTCA1>
#       <PTCA2>-2.92243463e-001</PTCA2>
#       <PTCB0>2.51668750e+001</PTCB0>
#       <PTCB1>3.75000000e-004</PTCB1>
#       <PTCB2>0.00000000e+000</PTCB2>
#       <Offset>0.000000</Offset>
#     </PressureSensor>
#   </sensor>
#   <sensor Channel="4" >
#     <!-- A/D voltage 0, Oxygen, SBE 43 -->
#     <OxygenSensor SensorID="38" >
#       <SerialNumber>0434</SerialNumber>
#       <CalibrationDate>18-Feb-23</CalibrationDate>
#       <Use2007Equation>1</Use2007Equation>
#       <CalibrationCoefficients equation="0" >
#         <!-- Coefficients for Owens-Millard equation. -->
#         <Boc>0.0000</Boc>
#         <Soc>0.0000e+000</Soc>
#         <offset>0.0000</offset>
#         <Pcor>0.00e+000</Pcor>
#         <Tcor>0.0000</Tcor>
#         <Tau>0.0</Tau>
#       </CalibrationCoefficients>
#       <CalibrationCoefficients equation="1" >
#         <!-- Coefficients for Sea-Bird equation - SBE calibration in 2007 and later. -->
#         <Soc>5.1878e-001</Soc>
#         <offset>-0.5046</offset>
#         <A>-4.2788e-003</A>
#         <B> 1.5372e-004</B>
#         <C>-2.1853e-006</C>
#         <D0> 2.5826e+000</D0>
#         <D1> 1.92634e-004</D1>
#         <D2>-4.64803e-002</D2>
#         <E> 3.6000e-002</E>
#         <Tau20> 0.9900</Tau20>
#         <H1>-3.3000e-002</H1>
#         <H2> 5.0000e+003</H2>
#         <H3> 1.4500e+003</H3>
#       </CalibrationCoefficients>
#     </OxygenSensor>
#   </sensor>
#   <sensor Channel="5" >
#     <!-- A/D voltage 1, PAR/Logarithmic, Satlantic -->
#     <PARLog_SatlanticSensor SensorID="76" >
#       <SerialNumber>1122</SerialNumber>
#       <CalibrationDate>08-Sep-2021</CalibrationDate>
#       <a0>9.6751e-001</a0>
#       <a1>8.0992e-001</a1>
#       <Im>1.3589e+000</Im>
#       <Multiplier>1.0000e+000</Multiplier>
#     </PARLog_SatlanticSensor>
#   </sensor>
#   <sensor Channel="6" >
#     <!-- A/D voltage 2, pH -->
#     <pH_Sensor SensorID="43" >
#       <SerialNumber>0363</SerialNumber>
#       <CalibrationDate>28-Feb-23</CalibrationDate>
#       <Slope>4.7364</Slope>
#       <Offset>2.5433</Offset>
#     </pH_Sensor>
#   </sensor>
#   <sensor Channel="7" >
#     <!-- A/D voltage 3, Oxidation Reduction Potential -->
#     <OxidationReductionPotentialSensor SensorID="41" >
#       <SerialNumber>0363</SerialNumber>
#       <CalibrationDate>28-Feb-23</CalibrationDate>
#       <B>2.499480</B>
#       <M>-0.496195</M>
#       <Offset>0.0</Offset>
#     </OxidationReductionPotentialSensor>
#   </sensor>
#   <sensor Channel="8" >
#     <!-- A/D voltage 4, Fluorometer, WET Labs ECO-AFL/FL -->
#     <FluoroWetlabECO_AFL_FL_Sensor SensorID="20" >
#       <SerialNumber>FLNTURT-2496</SerialNumber>
#       <CalibrationDate>02-Sep-2021</CalibrationDate>
#       <ScaleFactor>4.80000000e+001</ScaleFactor>
#       <!-- Dark output -->
#       <Vblank>0.0550</Vblank>
#     </FluoroWetlabECO_AFL_FL_Sensor>
#   </sensor>
#   <sensor Channel="9" >
#     <!-- A/D voltage 5, Turbidity Meter, WET Labs, ECO-NTU -->
#     <TurbidityMeter SensorID="67" >
#       <SerialNumber>FLNTURT--2496</SerialNumber>
#       <CalibrationDate>02-Sep-2021</CalibrationDate>
#       <ScaleFactor>197.000000</ScaleFactor>
#       <!-- Dark output -->
#       <DarkVoltage>0.070000</DarkVoltage>
#     </TurbidityMeter>
#   </sensor>
# </Sensors>
# datcnv_date = May 23 2024 16:58:57, 7.26.7.129 [datcnv_vars = 14]
# datcnv_in = C:\R\Reservoirs\Data\DataNotYetUploadedToEDI\Raw_CTD\RawDownloads\052224_ccr99_S7809005.hex C:\R\Reservoirs\Data\DataNotYetUploadedToEDI\Raw_CTD\RawDownloads\SBE19plusV2_7809_start20230701.xmlcon
# datcnv_skipover = 0
# datcnv_ox_hysteresis_correction = yes
# datcnv_ox_tau_correction = yes
# filter_date = May 23 2024 16:59:17, 7.26.7.129
# filter_in = C:\R\Reservoirs\Data\DataNotYetUploadedToEDI\Raw_CTD\RawDownloads\052224_ccr99_S7809005.cnv
# filter_low_pass_tc_A = 0.030
# filter_low_pass_tc_B = 0.150
# filter_low_pass_A_vars = sbeox0Mg/L prdM prdE tv290C
# filter_low_pass_B_vars = depFM dz/dtM sbeox0PS specc c0uS/cm flECO-AFL ph orp par/sat/log turbWETntu0
# alignctd_date = May 23 2024 16:59:35, 7.26.7.129
# alignctd_in = C:\R\Reservoirs\Data\DataNotYetUploadedToEDI\Raw_CTD\RawDownloads\052224_ccr99_S7809005.cnv
# alignctd_adv = dz/dtM 1.000, sbeox0PS 1.000, specc 1.000, c0uS/cm 1.000, flECO-AFL 1.000, ph 1.000, orp 1.000, turbWETntu0 1.000                                                                                                   
# file_type = ascii
*END*
     -0.484      0.163     6.7720     93.907    110.425 118.072391     0.3989      7.468   125.5807 1.2853e+03    11.4508     -0.486     -0.706    31.2754 0.0000e+00
     -0.441      0.232     6.7823     95.081    111.958 117.912828     0.4236      7.536   110.6888 1.0170e+03    11.5374     -0.450     -0.653    31.2879 0.0000e+00
     -0.356      0.299     6.8382     96.206    113.053 117.645507     0.4250      7.556   104.1981 6.6869e+02     9.8283     -0.354     -0.514    30.7329 0.0000e+00
     -0.251      0.359     7.0316     97.600    114.244 117.832275     0.4085      7.552    99.9311 4.5714e+02     6.6703     -0.248     -0.359    29.4551 0.0000e+00
     -0.141      0.400     7.3209     99.032    115.513 118.385632     0.3903      7.532    97.3838 3.7685e+02     4.9177     -0.139     -0.200    28.3846 0.0000e+00
     -0.031      0.409     7.4915    100.322    116.653 119.047212     0.3798      7.506    95.5982 3.2008e+02     4.7608     -0.029     -0.043    27.6081 0.0000e+00
      0.080      0.382     7.6535    101.310    117.307 119.523403     0.3727      7.479    93.7417 2.5134e+02     4.7738      0.075      0.109    26.9613 0.0000e+00
      0.195      0.325     7.8455    101.832    117.376 119.746889     0.3871      7.454    92.4887 1.9672e+02     4.8017      0.194      0.281    26.5231 0.0000e+00
      0.295      0.250     8.0037    101.961    116.975 119.647128     0.4208      7.434    91.5475 1.7612e+02     4.8248      0.304      0.442    26.2087 0.0000e+00
      0.357      0.169     8.1489    101.857    116.510 119.400814     0.4394      7.418    90.3636 1.7658e+02     4.8481      0.368      0.535    25.9750 0.0000e+00
      0.372      0.092     8.2513    101.506    116.589 119.508707     0.4540      7.406    89.9617 1.8549e+02     4.9119      0.376      0.545    25.8724 0.0000e+00
      0.358      0.030     8.2751    100.964    117.272 120.059699     0.4724      7.397    94.6892 1.9642e+02     4.9474      0.352      0.511    25.9821 0.0000e+00
      0.337     -0.008     8.2492    100.434    117.552 120.137253     0.4706      7.390   100.8903 2.0548e+02     4.9017      0.328      0.475    26.1523 0.0000e+00
      0.321     -0.016     8.2302    100.056    116.701 119.044360     0.4647      7.385    98.9474 2.1101e+02     4.8376      0.311      0.451    26.2698 0.0000e+00
      0.316      0.002     8.1977     99.859    115.450 117.484976     0.4680      7.380    97.5259 2.1532e+02     4.8211      0.307      0.445    26.2788 0.0000e+00
      0.321      0.035     8.1607     99.858    114.877 116.508723     0.4610      7.376   103.4918 2.2180e+02     4.8048      0.314      0.454    26.1849 0.0000e+00
      0.331      0.071     8.1265     99.934    115.604 116.732028     0.4466      7.374   108.0130 2.3047e+02     4.7780      0.322      0.468    26.0926 0.0000e+00
      0.351      0.097     8.1101     99.839    117.179 117.763330     0.4353      7.374   106.8491 2.3781e+02     4.7696      0.339      0.492    26.0062 0.0000e+00
      0.386      0.106     8.1092     99.475    118.102 118.211117     0.4321      7.374   103.2718 2.4608e+02     4.7715      0.372      0.540    25.8925 0.0000e+00
      0.435      0.100     8.1344     98.298    117.708 117.495004     0.4586      7.374    99.4333 2.5323e+02     4.8012      0.428      0.620    25.7248 0.0000e+00
      0.479      0.082     8.1899     95.693    116.589 116.175731     0.5056      7.375    93.6501 2.5956e+02     4.8556      0.481      0.697    25.4928 0.0000e+00
      0.499      0.061     8.2175     92.952    115.714 115.127679     0.5335      7.377    89.1005 2.6835e+02     4.8822      0.497      0.722    25.2329 0.0000e+00
      0.495      0.041     8.2257     91.615    115.699 114.951273     0.5389      7.378    87.4445 3.0379e+02     4.8833      0.487      0.707    25.0112 0.0000e+00
      0.483      0.027     8.2069     91.146    115.910 115.061796     0.5294      7.378    86.2749 3.4011e+02     4.8691      0.472      0.684    24.8830 0.0000e+00
      0.478      0.031     7.9384     90.081    115.631 114.743998     0.5257      7.378    85.7139 3.0730e+02     4.8127      0.461      0.669    24.8173 0.0000e+00
      0.487      0.056     7.6458     87.859    115.294 114.357322     0.5277      7.376    85.5655 2.5431e+02     4.7827      0.475      0.688    24.7418 0.0000e+00
      0.505      0.098     7.5932     86.135    115.250 114.208297     0.5197      7.375    85.4274 2.3600e+02     4.7795      0.498      0.721    24.6580 0.0000e+00
      0.528      0.145     7.5969     86.655    115.722 114.534371     0.5458      7.376    85.4203 2.2781e+02     4.7743      0.510      0.741    24.6167 0.0000e+00
      0.567      0.185     7.5578     89.175    116.784 115.433217     0.6109      7.378    85.6522 2.1934e+02     4.8220      0.546      0.792    24.6131 0.0000e+00
      0.629      0.211     7.2961     92.456    117.660 116.158177     0.6489      7.382    85.8220 2.1429e+02     4.8780      0.613      0.889    24.5998 0.0000e+00
      0.705      0.219     7.0849     95.186    117.725 116.165277     0.6477      7.387    85.7528 2.0996e+02     4.9054      0.690      1.001    24.5466 0.0000e+00
      0.780      0.209     7.1705     96.796    117.226 115.710061     0.6464      7.392    85.5903 2.0738e+02     4.9478      0.770      1.117    24.4803 0.0000e+00
      0.842      0.179     7.4186     97.539    116.911 115.431830     0.6497      7.398    85.4048 2.1420e+02     4.9810      0.835      1.211    24.4203 0.0000e+00
      0.882      0.136     7.7552     97.429    117.044 115.540392     0.6466      7.406    85.2313 2.3363e+02     4.9655      0.872      1.264    24.3420 0.0000e+00
      0.904      0.089     8.0044     95.972    117.184 115.621252     0.6412      7.412    85.4713 2.9391e+02     4.8964      0.888      1.288    24.3091 0.0000e+00
      0.914      0.046     8.1145     93.251    117.026 115.390220     0.6346      7.417    88.8233 4.9361e+02     4.8632      0.898      1.302    24.3538 0.0000e+00
      0.916      0.016     8.1667     90.101    116.894 115.167451     0.6254      7.424    93.6674 7.2049e+02     4.9398      0.902      1.308    24.3730 0.0000e+00
      0.911     -0.004     8.1921     87.353    117.476 115.603001     0.6217      7.431    95.6873 7.4762e+02     5.0028      0.894      1.297    24.3552 0.0000e+00
      0.901     -0.025     8.0697     85.382    118.396 116.388241     0.6228      7.436    95.2629 7.0873e+02     5.0101      0.883      1.281    24.3309 0.0000e+00
      0.895     -0.053     7.8144     84.280    118.288 116.380404     0.6304      7.441    94.3010 7.3942e+02     4.9933      0.875      1.268    24.2955 0.0000e+00
      0.894     -0.087     7.5312     84.337    117.291 115.699514     0.6470      7.445    93.7795 7.3370e+02     4.9367      0.877      1.271    24.2627 0.0000e+00
      0.885     -0.124     7.2938     85.432    116.729 115.354400     0.6576      7.449    91.7103 6.9382e+02     4.9062      0.884      1.281    24.2081 0.0000e+00
      0.844     -0.165     7.1537     86.867    116.519 115.138262     0.6577      7.454    91.7384 7.1457e+02     4.9326      0.841      1.219    24.1035 0.0000e+00
      0.778     -0.206     7.0346     88.188    116.254 114.742294     0.6492      7.459    93.1732 7.7345e+02     4.9138      0.756      1.097    24.1391 0.0000e+00
      0.713     -0.244     7.0145     89.382    116.406 114.706941     0.6211      7.464    92.0221 9.0873e+02     4.8843      0.697      1.011    24.3453 0.0000e+00
      0.648     -0.270     7.1243     90.387    116.493 114.583188     0.5836      7.469    93.6521 9.9111e+02     4.9510      0.644      0.934    24.4477 0.0000e+00
      0.574     -0.280     7.2609     90.935    116.113 114.009984     0.5619      7.475    95.1580 8.6861e+02     5.0034      0.562      0.815    24.4148 0.0000e+00
      0.497     -0.277     7.3759     91.010    116.413 114.145659     0.5594      7.480    92.1614 8.4519e+02     5.0058      0.487      0.707    24.3506 0.0000e+00
      0.420     -0.271     7.4854     90.941    117.474 115.076841     0.5534      7.484    90.7177 9.2390e+02     4.9790      0.414      0.601    24.2691 0.0000e+00
      0.343     -0.263     7.5989     90.956    117.756 115.331952     0.5224      7.487    93.9637 9.2314e+02     4.8849      0.329      0.478    24.1727 0.0000e+00
      0.282     -0.248     7.6572     90.924    116.936 114.618591     0.5014      7.489    97.0786 8.8289e+02     4.8244      0.271      0.393    24.0801 0.0000e+00
      0.233     -0.224     7.6607     90.711    116.162 113.968126     0.5154      7.490    95.6843 7.9541e+02     4.8628      0.234      0.340    24.0153 0.0000e+00
      0.175     -0.192     7.6500     90.281    115.990 113.837103     0.5249      7.491    91.8185 7.8867e+02     4.9051      0.175      0.255    23.9642 0.0000e+00
      0.111     -0.152     7.6657     89.685    116.215 114.053584     0.5079      7.491    92.1526 8.8870e+02     4.8579      0.099      0.144    23.9396 0.0000e+00
      0.066     -0.110     7.6580     89.220    116.842 114.674709     0.4848      7.491    96.6261 9.6540e+02     4.8044      0.054      0.078    24.0013 0.0000e+00
      0.048     -0.070     7.6277     88.912    117.657 115.486955     0.4698      7.493    98.9302 1.0065e+03     4.8388      0.042      0.061    24.0684 0.0000e+00
      0.048     -0.034     7.5983     88.472    117.956 115.784736     0.4527      7.496    98.8457 1.0257e+03     4.8636      0.043      0.062    24.0707 0.0000e+00
      0.059     -0.006     7.5305     87.986    117.496 115.345042     0.4357      7.498    98.8737 1.0147e+03     4.8309      0.056      0.081    24.0605 0.0000e+00
      0.071      0.009     7.4898     87.868    116.749 114.629588     0.4470      7.500    99.0968 9.7260e+02     4.8185      0.074      0.107    24.0659 0.0000e+00
      0.075      0.012     7.4808     88.252    116.368 114.268450     0.4646      7.502    98.9614 9.2395e+02     4.8163      0.077      0.111    24.0753 0.0000e+00
      0.070      0.007     7.4396     88.793    116.373 114.290836     0.4651      7.504    98.6136 8.9856e+02     4.8043      0.067      0.097    24.0715 0.0000e+00
      0.067      0.001     7.3795     88.942    116.246 114.199625     0.4784      7.506    98.5060 8.1476e+02     4.8446      0.063      0.092    24.0768 0.0000e+00
      0.070     -0.002     7.3634     88.498    115.973 113.993704     0.4919      7.507    98.6055 6.6082e+02     4.8935      0.068      0.099    24.0894 0.0000e+00
      0.072      0.001     7.4076     87.848    115.906 114.030490     0.4872      7.507    98.7844 5.7916e+02     4.9180      0.073      0.105    24.0910 0.0000e+00
      0.068      0.005     7.4720     87.329    116.076 114.326074     0.4714      7.508    99.0350 5.8303e+02     4.9020      0.066      0.097    24.0970 0.0000e+00
      0.065      0.005     7.4938     86.792    116.267 114.637783     0.4593      7.509    99.3123 5.8847e+02     4.8364      0.060      0.088    24.1106 0.0000e+00
      0.070      0.002     7.4334     86.029    116.268 114.742112     0.4569      7.510    99.3840 5.6177e+02     4.8081      0.068      0.098    24.1335 0.0000e+00
      0.078     -0.004     7.3575     85.135    116.006 114.568511     0.4514      7.511    99.2988 5.2922e+02     4.7983      0.078      0.113    24.1811 0.0000e+00
      0.080     -0.009     7.3172     84.472    115.686 114.322407     0.4512      7.513    99.3148 5.3031e+02     4.7867      0.081      0.118    24.2418 0.0000e+00
      0.075     -0.014     7.2725     84.348    115.560 114.250752     0.4625      7.514    99.3190 5.5596e+02     4.8385      0.077      0.111    24.2974 0.0000e+00
      0.064     -0.018     7.1993     84.592    115.662 114.402873     0.4717      7.514    99.0918 5.8040e+02     4.9129      0.063      0.091    24.3413 0.0000e+00
      0.052     -0.019     7.1082     84.693    115.816 114.633055     0.4709      7.515    98.8906 5.9665e+02     4.9349      0.049      0.070    24.3758 0.0000e+00
      0.047     -0.017     7.0338     84.317    115.887 114.804599     0.4694      7.516    99.1243 6.0198e+02     4.9326      0.043      0.063    24.4087 0.0000e+00
      0.047     -0.013     7.0278     83.477    115.931 114.948428     0.4701      7.516    99.5934 5.8797e+02     4.9193      0.045      0.066    24.4294 0.0000e+00
      0.048     -0.009     7.0664     82.385    115.988 115.098278     0.4630      7.517    99.9167 5.7417e+02     4.8769      0.048      0.070    24.4436 0.0000e+00
      0.048     -0.005     7.0802     81.257    116.146 115.342603     0.4496      7.518   100.1080 5.8526e+02     4.7956      0.049      0.071    24.4788 0.0000e+00
      0.045     -0.003     7.0412     80.209    116.464 115.736896     0.4407      7.520   100.2713 6.0240e+02     4.7224      0.045      0.065    24.5285 0.0000e+00
      0.041     -0.002     6.9569     79.225    116.780 116.107472     0.4394      7.521   100.3431 6.1285e+02     4.7431      0.039      0.057    24.5716 0.0000e+00
      0.039     -0.000     6.8554     78.270    116.961 116.319767     0.4427      7.523   100.2874 6.2347e+02     4.8068      0.037      0.054    24.6110 0.0000e+00
      0.041      0.001     6.7516     77.337    117.008 116.392736     0.4391      7.526   100.2869 6.4230e+02     4.8092      0.039      0.057    24.6493 0.0000e+00
      0.045      0.002     6.6631     76.494    116.865 116.289050     0.4366      7.528   100.3360 6.7288e+02     4.7727      0.045      0.065    24.6848 0.0000e+00
      0.048      0.002     6.5785     75.832    116.554 116.021685     0.4620      7.531   100.2799 6.8588e+02     4.8082      0.049      0.071    24.7115 0.0000e+00
      0.048      0.003     6.4983     75.314    116.467 115.962975     0.4882      7.532   100.2109 6.6737e+02     4.8967      0.048      0.069    24.7205 0.0000e+00
      0.045      0.004     6.4198     74.923    116.838 116.343639     0.4872      7.532   100.2751 6.4724e+02     4.9207      0.043      0.063    24.7275 0.0000e+00
      0.043      0.003     6.3397     74.614    117.284 116.802166     0.4834      7.532   100.4544 6.3690e+02     4.8946      0.041      0.060    24.7473 0.0000e+00
      0.045      0.002     6.2888     74.332    117.412 116.984134     0.4760      7.533   100.5724 6.0931e+02     4.8543      0.041      0.061    24.7693 0.0000e+00
      0.051     -0.001     6.2420     74.132    117.219 116.887587     0.4556      7.535   100.6698 5.7584e+02     4.8088      0.050      0.074    24.7799 0.0000e+00
      0.055     -0.003     6.2105     74.085    116.968 116.717933     0.4451      7.536   100.8576 6.0989e+02     4.7893      0.058      0.084    24.7844 0.0000e+00
      0.052     -0.003     6.1897     74.248    116.918 116.716689     0.4409      7.539   100.9495 8.5637e+02     4.7891      0.053      0.076    24.7813 0.0000e+00
      0.043     -0.002     6.1594     74.614    117.095 116.936322     0.4380      7.541   100.9206 1.2713e+03     4.8061      0.042      0.061    24.8012 0.0000e+00
      0.037      0.000     6.1358     75.068    117.322 117.207632     0.4520      7.543   101.0244 1.5348e+03     4.8585      0.034      0.049    24.8584 0.0000e+00
      0.038      0.004     6.1250     75.453    117.461 117.385266     0.4685      7.543   101.1724 1.4903e+03     4.9098      0.035      0.051    24.8937 0.0000e+00
      0.045      0.008     6.1371     75.699    117.534 117.491514     0.4781      7.544   101.1604 1.1754e+03     4.9133      0.043      0.063    24.9066 0.0000e+00
      0.052      0.010     6.1686     75.799    117.545 117.536731     0.4848      7.547   101.1383 7.9991e+02     4.9009      0.052      0.075    24.9260 0.0000e+00
      0.057      0.008     6.2103     75.759    117.460 117.486095     0.4836      7.552   101.2487 6.0909e+02     4.8970      0.057      0.083    24.9467 0.0000e+00
      0.059      0.003     6.2414     75.613    117.397 117.452678     0.4806      7.555   101.4622 5.9989e+02     4.9001      0.059      0.086    24.9624 0.0000e+00
      0.057     -0.002     6.2595     75.379    117.497 117.578677     0.4736      7.557   101.6559 8.0581e+02     4.9039      0.057      0.083    24.9758 0.0000e+00
      0.053     -0.005     6.2672     75.026    117.692 117.799152     0.4570      7.558   101.8700 1.2864e+03     4.8745      0.052      0.075    24.9904 0.0000e+00
      0.048     -0.005     6.2596     74.509    117.757 117.888748     0.4460      7.558   102.1573 1.7546e+03     4.8185      0.046      0.067    25.0059 0.0000e+00
      0.046     -0.002     6.2464     73.870    117.613 117.770123     0.4490      7.558   102.2908 1.9549e+03     4.8076      0.044      0.063    25.0187 0.0000e+00
      0.047      0.003     6.2257     73.152    117.521 117.702737     0.4520      7.559   102.2790 1.9818e+03     4.8445      0.046      0.068    25.0286 0.0000e+00
      0.049      0.007     6.1991     72.360    117.638 117.838506     0.4567      7.563   102.3600 1.7450e+03     4.8893      0.048      0.070    25.0401 0.0000e+00
      0.052      0.010     6.1526     71.557    117.792 118.010177     0.4724      7.566   102.4951 1.1897e+03     4.9391      0.049      0.072    25.0495 0.0000e+00
      0.057      0.011     6.0962     70.765    117.878 118.122044     0.4829      7.567   102.6214 7.3724e+02     4.9346      0.055      0.080    25.0609 0.0000e+00
      0.062      0.010     6.0386     69.996    117.956 118.235499     0.4840      7.569   102.7693 5.9016e+02     4.9030      0.062      0.090    25.0732 0.0000e+00
      0.065      0.008     5.9674     69.306    118.046 118.362690     0.4777      7.572   102.9066 6.0338e+02     4.8988      0.065      0.094    25.0794 0.0000e+00
      0.065      0.004     5.9016     68.734    118.103 118.449504     0.4735      7.575   102.9905 9.5446e+02     4.8831      0.064      0.093    25.0850 0.0000e+00
      0.065      0.000     5.8350     68.287    118.081 118.456985     0.4747      7.576   103.0090 1.6252e+03     4.8501      0.064      0.093    25.0959 0.0000e+00
      0.065     -0.001     5.7676     67.950    118.039 118.453188     0.4680      7.579   103.0451 2.0490e+03     4.8084      0.065      0.095    25.1124 0.0000e+00
      0.063      0.000     5.7074     67.650    118.076 118.531064     0.4585      7.580   103.2547 2.1170e+03     4.7886      0.062      0.090    25.1299 0.0000e+00
      0.060      0.001     5.6599     67.360    118.148 118.634136     0.4605      7.581   103.5638 2.1180e+03     4.8496      0.058      0.084    25.1408 0.0000e+00
      0.060      0.002     5.6210     67.153    118.175 118.680135     0.4750      7.583   103.6860 2.0748e+03     4.9312      0.058      0.085    25.1507 0.0000e+00
      0.064      0.003     5.5946     67.023    118.060 118.577582     0.4845      7.584   103.6996 1.9959e+03     4.9214      0.063      0.091    25.1691 0.0000e+00
      0.068      0.003     5.5703     66.893    117.815 118.349827     0.4922      7.585   103.8137 2.0449e+03     4.8677      0.067      0.098    25.1885 0.0000e+00
      0.069      0.003     5.5397     66.715    117.734 118.283608     0.5007      7.587   104.0333 2.1703e+03     4.8622      0.069      0.100    25.2024 0.0000e+00
      0.068      0.002     5.5232     66.480    117.924 118.477754     0.4966      7.589   104.2908 2.2128e+03     4.9233      0.067      0.097    25.2084 0.0000e+00
      0.066      0.000     5.5153     66.209    118.169 118.722268     0.4836      7.591   104.4311 2.1928e+03     4.9568      0.064      0.093    25.2110 0.0000e+00
      0.066     -0.001     5.5050     65.973    118.329 118.882776     0.4685      7.593   104.5249 2.1793e+03     4.8918      0.064      0.093    25.2212 0.0000e+00
      0.067     -0.003     5.4889     65.808    118.394 118.953117     0.4557      7.595   104.8232 2.2272e+03     4.8209      0.066      0.096    25.2302 0.0000e+00
      0.068     -0.005     5.4705     65.672    118.364 118.935664     0.4527      7.596   105.1120 2.2915e+03     4.8174      0.067      0.097    25.2296 0.0000e+00
      0.067     -0.008     5.4448     65.517    118.267 118.862900     0.4576      7.599   105.1775 2.2560e+03     4.8141      0.066      0.096    25.2273 0.0000e+00
      0.064     -0.010     5.4240     65.304    118.084 118.710471     0.4652      7.601   105.1854 2.2087e+03     4.8161      0.064      0.092    25.2273 0.0000e+00
      0.059     -0.010     5.4128     65.036    117.842 118.494320     0.4693      7.603   105.2933 2.2952e+03     4.8748      0.059      0.085    25.2289 0.0000e+00
      0.054     -0.006     5.4018     64.751    117.809 118.479290     0.4664      7.604   105.5356 2.4098e+03     4.9092      0.052      0.076    25.2335 0.0000e+00
      0.049      0.000     5.3899     64.489    118.038 118.719905     0.4719      7.606   105.7059 2.4412e+03     4.8909      0.046      0.069    25.2443 0.0000e+00
      0.048      0.007     5.3704     64.264    118.231 118.918928     0.4851      7.606   105.8030 2.3819e+03     4.8583      0.044      0.065    25.2596 0.0000e+00
      0.053      0.014     5.3456     64.066    118.281 118.974387     0.5010      7.607   105.9352 2.2661e+03     4.8573      0.051      0.074    25.2730 0.0000e+00
      0.063      0.019     5.3205     63.874    118.304 119.008187     0.5144      7.609   106.1006 2.1859e+03     4.8439      0.063      0.092    25.2797 0.0000e+00
      0.071      0.019     5.2982     63.681    118.349 119.072780     0.5149      7.610   106.5116 2.1392e+03     4.7648      0.072      0.104    25.2832 0.0000e+00
      0.077      0.016     5.2798     63.474    118.370 119.118298     0.5145      7.611   106.9470 2.1192e+03     4.7203      0.076      0.110    25.2853 0.0000e+00
      0.081      0.011     5.2644     63.215    118.333 119.112608     0.5012      7.613   107.0630 2.1682e+03     4.7502      0.080      0.116    25.2856 0.0000e+00
      0.082      0.007     5.2483     62.898    118.313 119.131449     0.4717      7.614   107.1392 2.2061e+03     4.7844      0.082      0.118    25.2903 0.0000e+00
      0.080      0.006     5.2315     62.562    118.360 119.218746     0.4575      7.616   107.2666 2.1726e+03     4.8263      0.080      0.115    25.2991 0.0000e+00
      0.079      0.006     5.2151     62.242    118.383 119.276207     0.4539      7.617   107.3995 2.1663e+03     4.8809      0.077      0.110    25.3090 0.0000e+00
      0.080      0.006     5.1934     62.016    118.333 119.252858     0.4439      7.618   107.5405 2.2275e+03     4.8983      0.076      0.111    25.3225 0.0000e+00
      0.084      0.003     5.1633     61.988    118.253 119.191324     0.4368      7.620   107.6813 2.2375e+03     4.9000      0.082      0.119    25.3398 0.0000e+00
      0.089     -0.002     5.1336     62.089    118.019 118.978215     0.4351      7.621   107.8117 2.1694e+03     4.9015      0.089      0.129    25.3571 0.0000e+00
      0.092     -0.009     5.1049     62.163    117.547 118.523796     0.4315      7.623   107.8260 2.1240e+03     4.9169      0.093      0.134    25.3724 0.0000e+00
      0.089     -0.015     5.0790     62.221    117.122 118.092958     0.4181      7.625   107.9406 2.1392e+03     4.8816      0.090      0.130    25.3844 0.0000e+00
      0.079     -0.016     5.0791     62.415    117.101 118.037445     0.3982      7.628   108.1648 2.1982e+03     4.7812      0.079      0.114    25.3897 0.0000e+00
      0.066     -0.012     5.0942     62.780    117.406 118.298490     0.3910      7.630   108.2994 2.2663e+03     4.7621      0.063      0.092    25.3992 0.0000e+00
      0.059     -0.005     5.0978     63.245    117.638 118.509727     0.3967      7.631   108.4504 2.3002e+03     4.7878      0.054      0.078    25.4138 0.0000e+00
      0.059      0.005     5.0959     63.965    117.579 118.552791     0.4168      7.633   108.6130 2.3122e+03     4.7847      0.056      0.079    25.4156 0.0000e+00
      0.069      0.014     5.1114     65.090    117.208 118.437065     0.4517      7.634   108.7170 2.2638e+03     4.8264      0.066      0.096    25.3929 0.0000e+00
      0.080      0.020     5.1510     66.410    116.731 118.193947     0.4689      7.636   108.7606 2.1702e+03     4.9166      0.081      0.117    25.3758 0.0000e+00
      0.088      0.024     5.1845     67.602    116.484 118.034558     0.4669      7.638   108.7970 2.1306e+03     4.9531      0.089      0.129    25.3468 0.0000e+00
      0.090      0.025     5.2317     68.493    116.557 118.102725     0.4770      7.639   108.7268 2.1014e+03     4.9264      0.090      0.130    25.3684 0.0000e+00
      0.091      0.023     5.3195     69.065    116.789 118.317350     0.4913      7.639   106.8791 2.0742e+03     4.9010      0.088      0.128    25.5270 0.0000e+00
      0.096      0.015     5.4252     69.469    116.867 118.463458     0.4817      7.639   103.3213 2.0096e+03     4.8503      0.091      0.132    25.6532 0.0000e+00
      0.106     -0.005     5.5258     70.145    116.540 118.404094     0.4689      7.638   100.9862 1.8682e+03     4.7917      0.103      0.149    25.6710 0.0000e+00
      0.118     -0.035     5.5992     71.797    115.979 118.237093     0.4697      7.637   100.1550 1.8009e+03     4.8075      0.117      0.171    25.6587 0.0000e+00
      0.120     -0.072     5.6459     74.954    115.603 118.165023     0.4502      7.638    99.6370 1.7717e+03     4.8373      0.127      0.184    25.6410 0.0000e+00
      0.096     -0.108     5.6657     79.123    115.523 118.233988     0.4165      7.641    99.1117 1.6548e+03     4.8103      0.106      0.152    25.6361 0.0000e+00
      0.046     -0.136     5.6873     82.982    115.591 118.370371     0.3954      7.645    98.6214 1.6678e+03     4.7883      0.047      0.068    25.7638 0.0000e+00
     -0.013     -0.148     5.7729     85.731    115.647 118.476249     0.3863      7.647    98.4413 1.8338e+03     4.8098     -0.014     -0.019    25.9947 0.0000e+00
     -0.066     -0.141     6.0262     87.319    115.597 118.494878     0.3900      7.648    98.3111 1.8619e+03     4.8655     -0.070     -0.101    26.1304 0.0000e+00
     -0.105     -0.116     6.4145     87.954    115.485 118.468306     0.4062      7.650    98.1647 1.7862e+03     4.9156     -0.111     -0.161    26.1766 0.0000e+00
     -0.126     -0.080     6.7424     87.839    115.362 118.409949     0.4244      7.653    98.3061 1.7521e+03     4.9029     -0.127     -0.186    26.1995 0.0000e+00
     -0.134     -0.038     6.9598     87.074    115.285 118.362762     0.4271      7.654    98.7304 1.7492e+03     4.8824     -0.134     -0.194    26.2115 0.0000e+00
     -0.136      0.007     7.0782     85.822    115.253 118.343769     0.4132      7.654    99.6821 1.7554e+03     4.8726     -0.134     -0.194    26.2421 0.0000e+00
     -0.135      0.052     7.1153     84.362    115.209 118.307736     0.4066      7.655   100.6065 1.7634e+03     4.8181     -0.136     -0.196    26.2910 0.0000e+00
     -0.126      0.093     7.1022     82.926    115.205 118.309346     0.4051      7.657   100.9585 1.7835e+03     4.7710     -0.132     -0.191    26.3211 0.0000e+00
     -0.097      0.124     7.0347     81.566    115.193 118.299534     0.3955      7.660   101.8734 1.7053e+03     4.7816     -0.105     -0.153    26.3309 0.0000e+00
     -0.047      0.141     6.9244     80.267    115.026 118.125397     0.4075      7.664   103.2373 1.8558e+03     4.8771     -0.051     -0.074    26.3342 0.0000e+00
      0.014      0.144     6.7980     79.143    114.801 117.860249     0.4417      7.668   104.1131 2.2063e+03     5.0032      0.018      0.026    26.3387 0.0000e+00
      0.065      0.129     6.6818     78.438    114.745 117.705587     0.4676      7.672   104.5468 2.1356e+03     5.0770      0.073      0.105    26.3422 0.0000e+00
      0.095      0.099     6.5743     78.273    114.899 117.720497     0.4870      7.675   104.7811 1.9876e+03     5.1195      0.099      0.144    26.3410 0.0000e+00
      0.108      0.060     6.4662     78.419    115.159 117.849180     0.4850      7.680   105.0531 1.9467e+03     5.0733      0.109      0.158    26.3446 0.0000e+00
      0.113      0.022     6.3677     78.517    115.390 117.987143     0.4522      7.684   105.4268 1.8707e+03     4.9288      0.113      0.164    26.3380 0.0000e+00
      0.111     -0.006     6.3092     78.371    115.578 118.114319     0.4312      7.686   105.7716 1.9503e+03     4.8413      0.112      0.162    26.2925 0.0000e+00
      0.102     -0.022     6.3140     77.962    115.753 118.240037     0.4223      7.686   106.0381 2.0527e+03     4.8351      0.102      0.148    26.2197 0.0000e+00
      0.088     -0.030     6.3454     77.316    115.866 118.296664     0.3865      7.687   106.2411 2.0442e+03     4.8196      0.086      0.124    26.1542 0.0000e+00
      0.076     -0.031     6.3638     76.474    115.916 118.289238     0.3490      7.689   106.2465 2.0625e+03     4.7910      0.072      0.104    26.1134 0.0000e+00
      0.070     -0.027     6.3531     75.578    115.931 118.277582     0.3350      7.692   106.2750 2.1310e+03     4.7623      0.067      0.098    26.0900 0.0000e+00
      0.065     -0.020     6.3218     74.814    115.923 118.283104     0.3255      7.695   106.5866 2.1703e+03     4.7463      0.064      0.093    26.0698 0.0000e+00
      0.060     -0.011     6.2720     74.315    115.837 118.228609     0.3250      7.697   106.9168 2.2144e+03     4.7675      0.058      0.084    26.0438 0.0000e+00
      0.058     -0.005     6.2040     74.018    115.336 117.746161     0.3452      7.699   107.0837 2.2423e+03     4.8481      0.055      0.080    26.0118 0.0000e+00
      0.059     -0.001     6.1243     73.865    114.556 116.909283     0.3700      7.702   107.2279 2.2248e+03     4.9351      0.058      0.082    25.9972 0.0000e+00
      0.062      0.001     6.0618     75.520    114.295 116.455280     0.3832      7.706   107.5424 2.1860e+03     4.9319      0.061      0.088    26.0102 0.0000e+00
      0.063      0.001     6.0107     81.152    114.453 116.333674     0.3970      7.709   107.8749 2.1561e+03     4.8777      0.063      0.092    26.0251 0.0000e+00
      0.063     -0.000     6.0112     89.647    114.467 116.075521     0.4130      7.712   107.9784 2.1625e+03     4.8941      0.063      0.091    26.0448 0.0000e+00
      0.062     -0.002     5.9536     98.118    114.402 115.754215     0.4092      7.715   108.0190 2.1728e+03     4.9251      0.061      0.088    26.0522 0.0000e+00
      0.060     -0.003     5.9733    104.999    114.398 115.506035     0.4016      7.716   108.1075 2.1797e+03     4.8429      0.059      0.085    25.9571 0.0000e+00
      0.058     -0.003     6.5152    110.054    114.408 115.303921     0.4117      7.718   108.2740 2.1739e+03     4.7882      0.057      0.083    25.8049 0.0000e+00
      0.058     -0.002     7.3295    113.362    114.449 115.157429     0.4241      7.720   108.5695 2.1450e+03     4.8443      0.057      0.083    25.6946 0.0000e+00
      0.059     -0.002     8.0717    114.894    114.594 115.135908     0.4266      7.722   108.7550 2.1199e+03     4.8724      0.058      0.085    25.5866 0.0000e+00
      0.059     -0.001     8.6520    114.721    114.744 115.170849     0.4250      7.724   108.7965 2.0981e+03     4.8891      0.059      0.085    25.4696 0.0000e+00
      0.058      0.003     9.0740    113.331    114.764 115.133844     0.4291      7.726   108.8126 2.1200e+03     4.9436      0.058      0.083    25.3826 0.0000e+00
      0.057      0.008     9.3645    111.605    114.604 114.943189     0.4349      7.727   108.8644 2.1316e+03     4.9841      0.056      0.082    25.3029 0.0000e+00
      0.057      0.017     9.5023    110.146    114.303 114.585453     0.4369      7.728   109.1647 1.9987e+03     5.0039      0.056      0.082    25.2207 0.0000e+00
      0.060      0.027     9.4882    109.064    114.094 114.248042     0.4370      7.728   110.2052 1.8537e+03     4.9430      0.056      0.081    25.1692 0.0000e+00
      0.069      0.032     9.3404    108.240    114.274 114.239290     0.4275      7.727   110.4329 1.8605e+03     4.8288      0.063      0.092    25.1505 0.0000e+00
      0.084      0.023     9.1835    107.606    114.787 114.606720     0.4057      7.726   108.3904 1.8986e+03     4.7848      0.082      0.118    25.1461 0.0000e+00
      0.103     -0.002     9.0646    107.230    115.365 115.187090     0.3895      7.724   106.5890 1.9613e+03     4.7867      0.103      0.149    25.1297 0.0000e+00
      0.114     -0.040     8.9898    107.127    115.837 115.842200     0.3816      7.724   106.4620 1.9718e+03     4.7840      0.117      0.171    25.0763 0.0000e+00
      0.107     -0.082     8.9423    107.253    116.069 116.412738     0.3773      7.724   109.7803 1.8475e+03     4.8200      0.118      0.170    24.9719 0.0000e+00
      0.072     -0.118     8.8984    107.606    115.977 116.735038     0.3954      7.727   114.0157 1.5892e+03     4.9140      0.081      0.117    24.8887 0.0000e+00
      0.014     -0.139     8.8672    108.085    115.559 116.682027     0.4252      7.729   115.3405 1.3668e+03     4.9651      0.013      0.020    24.8890 0.0000e+00
     -0.046     -0.139     8.8488    108.444    115.147 116.473091     0.4381      7.731   115.2146 1.5261e+03     4.9600     -0.052     -0.075    24.9700 0.0000e+00
     -0.091     -0.118     8.8309    108.498    115.073 116.438707     0.4349      7.734   112.1501 1.6619e+03     4.9542     -0.097     -0.142    25.1301 0.0000e+00
     -0.116     -0.084     8.8303    108.254    115.172 116.521147     0.4201      7.738   108.9174 1.5321e+03     4.8950     -0.120     -0.174    25.3261 0.0000e+00
     -0.125     -0.046     8.8494    107.853    115.160 116.514298     0.4091      7.743   111.1470 1.4181e+03     4.7909     -0.127     -0.184    25.5093 0.0000e+00
     -0.121     -0.016     8.8697    107.440    114.990 116.355901     0.4099      7.748   114.5009 1.3369e+03     4.7539     -0.121     -0.176    25.6015 0.0000e+00
     -0.113      0.004     8.8752    107.089    114.927 116.262265     0.4039      7.752   112.5583 1.2555e+03     4.7894     -0.108     -0.157    25.5931 0.0000e+00
     -0.109      0.011     8.8527    106.787    115.188 116.465043     0.3956      7.755   112.3523 1.1700e+03     4.8100     -0.105     -0.151    25.5720 0.0000e+00
     -0.108      0.009     8.8155    106.587    115.488 116.769083     0.4003      7.759   117.5166 1.0870e+03     4.8320     -0.107     -0.156    25.5791 0.0000e+00
     -0.104      0.003     8.7752    106.596    115.496 116.880660     0.4106      7.762   120.5363 1.0104e+03     4.8848     -0.100     -0.145    25.5966 0.0000e+00
     -0.101     -0.002     8.7510    106.749    115.293 116.795033     0.4126      7.764   120.9007 9.3304e+02     4.9028     -0.097     -0.139    25.5856 0.0000e+00
     -0.105     -0.004     8.7335    106.902    114.957 116.498400     0.4330      7.767   120.5447 8.5658e+02     4.9126     -0.103     -0.149    25.5358 0.0000e+00
     -0.110     -0.003     8.7114    106.935    114.629 116.097076     0.4735      7.769   120.1051 7.9818e+02     4.9006     -0.109     -0.157    25.5247 0.0000e+00
     -0.114     -0.002     8.7061    106.774    114.598 115.892072     0.4863      7.772   120.5756 7.5786e+02     4.8603     -0.114     -0.165    25.5929 0.0000e+00
     -0.113      0.001     8.7127    106.554    114.764 115.866778     0.4713      7.774   120.9850 7.2631e+02     4.8689     -0.113     -0.164    25.6587 0.0000e+00
     -0.110      0.003     8.7235    106.434    114.884 115.854657     0.4423      7.776   121.0979 7.0601e+02     4.8339     -0.107     -0.156    25.6816 0.0000e+00
     -0.106      0.004     8.7362    106.370    114.982 115.872713     0.4110      7.777   121.2522 6.9558e+02     4.7794     -0.104     -0.150    25.6544 0.0000e+00
     -0.103      0.004     8.7322    106.319    115.108 115.957581     0.3919      7.778   121.3873 6.8639e+02     4.7905     -0.101     -0.145    25.5612 0.0000e+00
     -0.103      0.003     8.7214    106.307    115.193 116.052609     0.3856      7.778   121.6129 6.7575e+02     4.7972     -0.100     -0.146    25.4600 0.0000e+00
     -0.106      0.002     8.7263    106.418    115.285 116.193585     0.4021      7.779   121.8288 6.6629e+02     4.7582     -0.105     -0.152    25.4089 0.0000e+00
     -0.108      0.002     8.7251    106.638    115.407 116.388159     0.4416      7.780   120.5565 6.5892e+02     4.7625     -0.107     -0.155    25.3787 0.0000e+00
     -0.106      0.003     8.7254    106.801    115.352 116.430537     0.4804      7.781   118.4465 6.5322e+02     4.8496     -0.104     -0.152    25.3529 0.0000e+00
     -0.103      0.005     8.7200    106.863    115.156 116.323920     0.4960      7.781   116.7087 6.5336e+02     4.8891     -0.101     -0.146    25.3604 0.0000e+00
     -0.100      0.005     8.7218    106.896    115.046 116.245842     0.5060      7.781   114.4293 6.5950e+02     4.8303     -0.098     -0.141    25.3873 0.0000e+00
     -0.098      0.004     8.7472    106.966    115.066 116.250976     0.5255      7.781   115.4947 6.6894e+02     4.7870     -0.096     -0.139    25.4129 0.0000e+00
     -0.098      0.003     8.7503    107.001    115.151 116.322261     0.5323      7.783   119.8669 6.7935e+02     4.8097     -0.095     -0.138    25.4608 0.0000e+00
     -0.099      0.003     8.7466    106.913    115.223 116.406993     0.5297      7.785   120.4884 6.8207e+02     4.7982     -0.096     -0.140    25.5131 0.0000e+00
     -0.099      0.004     8.7423    106.757    115.227 116.447367     0.5282      7.785   116.2127 6.7777e+02     4.7500     -0.098     -0.142    25.5240 0.0000e+00
     -0.098      0.009     8.7548    106.610    115.169 116.428261     0.5134      7.784   111.5335 6.7360e+02     4.7733     -0.097     -0.141    25.5068 0.0000e+00
     -0.096      0.018     8.7645    106.529    115.092 116.367151     0.4842      7.781   109.1688 6.6867e+02     4.8398     -0.094     -0.136    25.4983 0.0000e+00
     -0.093      0.035     8.7508    106.484    114.967 116.218129     0.4668      7.779   108.2708 6.6447e+02     4.8709     -0.093     -0.134    25.5031 0.0000e+00
     -0.088      0.062     8.7355    106.445    114.593 115.773042     0.4688      7.779   107.7304 6.6523e+02     4.8762     -0.089     -0.130    25.5236 0.0000e+00
     -0.075      0.095     8.7154    106.414    114.116 115.126027     0.4756      7.781   108.5727 6.6741e+02     4.8699     -0.075     -0.109    25.5425 0.0000e+00
     -0.052      0.126     8.7101    106.306    114.009 114.701101     0.4906      7.784   109.6786 6.5365e+02     4.8976     -0.056     -0.081    25.5564 0.0000e+00
     -0.013      0.149     8.7095    106.064    114.198 114.520411     0.4930      7.788   108.5402 5.6301e+02     4.9041     -0.022     -0.032    25.5425 0.0000e+00
      0.046      0.159     8.7080    105.782    114.511 114.533165     0.4785      7.790   107.6286 4.3870e+02     4.8796      0.044      0.063    25.5181 0.0000e+00
      0.107      0.151     8.7165    105.587    114.947 114.791165     0.4659      7.793   110.5294 3.9497e+02     4.9436      0.113      0.164    25.4732 0.0000e+00
      0.154      0.126     8.7384    105.527    115.391 115.219105     0.4485      7.798   115.7373 3.9671e+02     5.0283      0.157      0.226    25.3033 0.0000e+00
      0.182      0.087     8.7432    105.639    115.711 115.694357     0.4431      7.803   118.8868 4.1687e+02     5.0497      0.182      0.265    25.1198 0.0000e+00
      0.194      0.044     8.7365    105.941    115.752 116.014977     0.4509      7.806   119.7863 4.7252e+02     5.0661      0.194      0.283    24.9875 0.0000e+00
      0.192      0.009     8.7350    106.399    115.545 116.102231     0.4513      7.807   120.4178 5.2813e+02     5.0561      0.192      0.278    24.8985 0.0000e+00
      0.181     -0.013     8.7287    106.929    115.151 115.921680     0.4646      7.808   121.0155 5.5153e+02     4.9976      0.179      0.260    24.8942 0.0000e+00
      0.166     -0.023     8.7266    107.396    114.776 115.615882     0.4869      7.809   121.4205 5.5764e+02     4.9731      0.161      0.234    24.9630 0.0000e+00
      0.155     -0.025     8.7288    107.593    114.762 115.526271     0.4878      7.813   121.7884 5.6884e+02     4.9638      0.148      0.215    25.1077 0.0000e+00
      0.151     -0.022     8.7473    107.475    114.949 115.602483     0.4747      7.817   122.2803 5.7488e+02     4.9200      0.147      0.214    25.2492 0.0000e+00
      0.151     -0.016     8.7764    107.223    115.106 115.709089     0.4699      7.819   122.4628 5.7737e+02     4.8530      0.149      0.217    25.3491 0.0000e+00
      0.150     -0.010     8.8172    106.946    115.179 115.795955     0.4716      7.822   122.3605 5.7923e+02     4.8027      0.148      0.215    25.3910 0.0000e+00
      0.147     -0.005     8.8459    106.692    115.090 115.760987     0.4625      7.826   122.1623 5.7534e+02     4.7904      0.144      0.210    25.3303 0.0000e+00
      0.142     -0.001     8.8368    106.536    114.945 115.668588     0.4677      7.828   121.9586 5.5818e+02     4.8064      0.138      0.202    25.2626 0.0000e+00
      0.141      0.002     8.8172    106.455    114.842 115.570658     0.4922      7.831   121.7904 5.3461e+02     4.8256      0.136      0.197    25.2486 0.0000e+00
      0.144      0.006     8.7933    106.397    114.792 115.468727     0.5099      7.834   121.5052 5.3524e+02     4.8523      0.141      0.204    25.2540 0.0000e+00
      0.149      0.011     8.7631    106.430    114.799 115.391562     0.5237      7.835   121.4358 5.5153e+02     4.8552      0.147      0.214    25.2857 0.0000e+00
      0.154      0.013     8.7460    106.536    114.830 115.338218     0.5345      7.836   121.7258 5.6920e+02     4.8268      0.151      0.220    25.3180 0.0000e+00
      0.157      0.010     8.7438    106.578    114.895 115.333205     0.5489      7.838   122.1721 5.8958e+02     4.8158      0.153      0.223    25.3214 0.0000e+00
      0.160      0.002     8.7376    106.543    115.061 115.458241     0.5555      7.839   122.7019 5.7883e+02     4.8254      0.157      0.228    25.2943 0.0000e+00
      0.164     -0.007     8.7474    106.497    115.229 115.639666     0.5391      7.840   123.0556 5.4532e+02     4.8399      0.163      0.235    25.2501 0.0000e+00
      0.164     -0.014     8.7699    106.470    115.197 115.679545     0.5180      7.842   123.2651 5.3605e+02     4.8545      0.165      0.239    25.2132 0.0000e+00
      0.156     -0.017     8.7774    106.534    115.007 115.558325     0.5077      7.843   123.3427 5.4278e+02     4.9336      0.155      0.225    25.1816 0.0000e+00
      0.142     -0.014     8.7744    106.639    114.767 115.320717     0.5066      7.844   123.3049 5.5247e+02     5.0110      0.138      0.201    25.1579 0.0000e+00
      0.131     -0.008     8.7724    106.631    114.555 115.036115     0.5044      7.845   123.4101 5.6737e+02     5.0040      0.126      0.183    25.1596 0.0000e+00
      0.129      0.002     8.7586    106.531    114.504 114.856152     0.5142      7.847   123.4970 5.6593e+02     4.9518      0.123      0.178    25.2031 0.0000e+00
      0.136      0.012     8.7564    106.392    114.545 114.737049     0.5427      7.849   123.5805 5.5033e+02     4.9265      0.132      0.191    25.2476 0.0000e+00
      0.149      0.019     8.7761    106.249    114.571 114.614968     0.5576      7.851   123.8174 5.4755e+02     4.9372      0.147      0.214    25.2466 0.0000e+00
      0.159      0.020     8.7752    106.165    114.712 114.653788     0.5523      7.851   124.1251 5.4710e+02     4.9447      0.158      0.230    25.2123 0.0000e+00
      0.165      0.015     8.7761    106.124    115.057 114.951474     0.5367      7.852   124.3752 5.4007e+02     4.9143      0.162      0.235    25.1536 0.0000e+00
      0.166      0.007     8.7774    106.118    115.343 115.284106     0.5267      7.854   124.4313 5.3704e+02     4.8435      0.162      0.235    25.0764 0.0000e+00
      0.164      0.000     8.7728    106.219    115.342 115.427083     0.5317      7.855   124.5459 5.3423e+02     4.8397      0.161      0.234    25.0035 0.0000e+00
      0.161     -0.004     8.7747    106.459    115.163 115.406458     0.5302      7.855   124.6426 5.3442e+02     4.8695      0.158      0.230    24.9642 0.0000e+00
      0.157     -0.007     8.7773    106.740    114.951 115.289773     0.5258      7.856   124.4818 5.3023e+02     4.8280      0.153      0.222    24.9333 0.0000e+00
      0.155     -0.008     8.7711    106.916    114.872 115.226681     0.5280      7.857   124.5807 5.1907e+02     4.7812      0.151      0.219    24.9465 0.0000e+00
      0.155     -0.007     8.7637    106.930    114.952 115.280613     0.5324      7.858   124.8061 5.0756e+02     4.7819      0.153      0.221    25.0320 0.0000e+00
      0.154     -0.005     8.7750    106.842    114.983 115.304820     0.5371      7.859   124.7972 4.9830e+02     4.8026      0.153      0.220    25.1101 0.0000e+00
      0.150     -0.002     8.7953    106.718    114.995 115.328273     0.5429      7.860   124.8179 4.9859e+02     4.8602      0.147      0.213    25.1561 0.0000e+00
      0.148      0.000     8.8126    106.601    115.091 115.436803     0.5362      7.862   124.7981 5.0052e+02     4.8979      0.143      0.207    25.1569 0.0000e+00
      0.149      0.000     8.8143    106.511    115.158 115.534171     0.5147      7.863   124.8157 5.0383e+02     4.8830      0.146      0.210    25.1290 0.0000e+00
      0.153      0.001     8.8053    106.457    115.126 115.550098     0.4988      7.864   124.9445 5.0898e+02     4.8504      0.151      0.219    25.1309 0.0000e+00
      0.155      0.003     8.7922    106.428    115.036 115.502055     0.4854      7.866   124.8925 5.0333e+02     4.8109      0.154      0.223    25.1423 0.0000e+00
      0.153      0.004     8.7820    106.384    114.980 115.462949     0.4690      7.868   124.8764 4.9538e+02     4.8496      0.151      0.219    25.1391 0.0000e+00
      0.152      0.004     8.7730    106.339    114.982 115.459488     0.4588      7.869   125.1796 4.9454e+02     4.9425      0.147      0.213    25.1534 0.0000e+00
      0.153      0.003     8.7630    106.339    114.993 115.460196     0.4545      7.869   125.5468 4.9218e+02     4.9779      0.148      0.215    25.1803 0.0000e+00
      0.157      0.001     8.7606    106.369    115.002 115.471498     0.4503      7.870   125.7025 4.8426e+02     5.0048      0.154      0.224    25.2003 0.0000e+00
      0.160      0.000     8.7546    106.391    114.991 115.468739     0.4657      7.871   125.7723 4.7467e+02     5.0278      0.159      0.231    25.2087 0.0000e+00
      0.159 9.9748e-07     8.7494    106.402    114.948 115.426853     0.5080      7.873   126.0463 4.7382e+02     4.9830      0.158      0.229    25.2024 0.0000e+00
      0.155      0.000     8.7518    106.429    114.936 115.410955     0.5370      7.873   126.2618 4.7674e+02     4.9412      0.152      0.220    25.1941 0.0000e+00
      0.152      0.000     8.7556    106.486    114.993 115.467600     0.5420      7.873   126.3128 4.7498e+02     4.9317      0.148      0.215    25.1964 0.0000e+00
      0.152      0.001     8.7563    106.567    115.056 115.538459     0.5258      7.876   126.4912 4.7462e+02     4.8684      0.148      0.215    25.2035 0.0000e+00
      0.156      0.004     8.7555    106.624    115.063 115.567017     0.4913      7.878   126.6119 4.7830e+02     4.7572      0.153      0.221    25.2032 0.0000e+00
      0.160      0.007     8.7590    106.690    115.032 115.558123     0.4670      7.879   126.5688 4.8409e+02     4.7151      0.158      0.229    25.2002 0.0000e+00
      0.161      0.008     8.7621    106.805    115.027 115.558365     0.4570      7.880   126.5723 4.8542e+02     4.7350      0.159      0.231    25.1989 0.0000e+00
      0.162      0.007     8.7727    106.890    115.049 115.569953     0.4698      7.881   126.5672 4.8059e+02     4.7917      0.158      0.230    25.2005 0.0000e+00
      0.165      0.004     8.7735    106.865    115.062 115.570812     0.5051      7.881   126.4212 4.7888e+02     4.8546      0.162      0.235    25.2116 0.0000e+00
      0.167      0.002     8.7728    106.729    115.066 115.568728     0.5343      7.881   126.2692 4.7919e+02     4.8815      0.165      0.239    25.2264 0.0000e+00
      0.167      0.000     8.7876    106.585    115.047 115.544745     0.5559      7.881   126.2786 4.8164e+02     4.9452      0.165      0.239    25.2282 0.0000e+00
      0.165      0.000     8.7967    106.490    115.042 115.535634     0.5664      7.881   125.6743 4.8274e+02     4.9762      0.162      0.235    25.2197 0.0000e+00
      0.163     -0.001     8.7982    106.468    115.087 115.585957     0.5610      7.881   123.3509 4.8075e+02     4.8805      0.159      0.231    25.2141 0.0000e+00
      0.162     -0.002     8.7806    106.531    115.121 115.643599     0.5570      7.881   120.6423 4.8138e+02     4.8132      0.159      0.230    25.2124 0.0000e+00
      0.163     -0.002     8.7687    106.571    115.031 115.595629     0.5435      7.880   119.6838 4.7713e+02     4.8457      0.160      0.232    25.2109 0.0000e+00
      0.165     -0.001     8.7620    106.536    114.870 115.451913     0.5233      7.879   121.7418 4.7321e+02     4.8295      0.162      0.236    25.2075 0.0000e+00
      0.165      0.002     8.7563    106.519    114.826 115.371059     0.5203      7.878   125.3923 4.7391e+02     4.7879      0.163      0.236    25.2083 0.0000e+00
      0.162      0.003     8.7667    106.553    114.904 115.382371     0.5161      7.879   127.4268 4.7015e+02     4.7862      0.159      0.230    25.2157 0.0000e+00
      0.162      0.000     8.7680    106.566    115.037 115.461178     0.5064      7.880   127.9283 4.6256e+02     4.7750      0.157      0.228    25.2431 0.0000e+00
      0.165     -0.008     8.7571    106.558    115.204 115.623132     0.5109      7.881   128.0147 4.6337e+02     4.7543      0.161      0.233    25.2602 0.0000e+00
      0.170     -0.023     8.7581    106.571    115.329 115.811739     0.5287      7.882   128.2995 4.6409e+02     4.7748      0.167      0.242    25.2354 0.0000e+00
      0.170     -0.042     8.7712    106.579    115.356 115.958114     0.5465      7.882   128.7913 4.5176e+02     4.8530      0.171      0.248    25.2007 0.0000e+00
      0.158     -0.062     8.7768    106.632    115.318 116.055414     0.5520      7.882   128.9707 4.4740e+02     4.9141      0.160      0.233    25.1702 0.0000e+00
      0.132     -0.077     8.7733    106.775    115.250 116.096580     0.5527      7.882   128.8334 4.7130e+02     4.9321      0.131      0.191    25.1642 0.0000e+00
      0.098     -0.083     8.7730    106.880    115.157 116.073813     0.5552      7.883   127.5616 5.0562e+02     4.9348      0.097      0.140    25.1943 0.0000e+00
      0.066     -0.079     8.7635    106.969    115.082 116.035047     0.5410      7.885   125.1225 5.3039e+02     4.9128      0.062      0.091    25.2520 0.0000e+00
      0.043     -0.069     8.7497    107.051    115.049 116.010125     0.5142      7.886   123.4339 5.4649e+02     4.8698      0.036      0.052    25.3190 0.0000e+00
      0.033     -0.054     8.7656    106.991    114.951 115.899899     0.5055      7.887   122.8041 5.5765e+02     4.8256      0.030      0.044    25.3676 0.0000e+00
      0.030     -0.039     8.7655    106.901    114.748 115.657808     0.5189      7.887   122.2391 5.6332e+02     4.8224      0.031      0.046    25.3969 0.0000e+00
      0.025     -0.024     8.7647    106.813    114.568 115.376168     0.5260      7.887   121.6788 5.6353e+02     4.8645      0.025      0.037    25.4133 0.0000e+00
      0.016     -0.014     8.7867    106.660    114.485 115.106146     0.5256      7.888   121.2781 5.6645e+02     4.8912      0.016      0.022    25.4135 0.0000e+00
      0.009     -0.008     8.7697    106.520    114.556 114.940655     0.5382      7.888   121.3520 5.6875e+02     4.9067      0.007      0.011    25.4089 0.0000e+00
      0.008     -0.002     8.7639    106.365    114.716 114.903616     0.5540      7.889   122.4862 5.6570e+02     4.9150      0.005      0.009    25.4002 0.0000e+00
      0.012      0.004     8.7710    106.188    114.853 114.912805     0.5581      7.890   124.0646 5.6307e+02     4.9226      0.011      0.016    25.3619 0.0000e+00
      0.017      0.009     8.7616    106.098    114.948 114.924180     0.5551      7.890   124.4336 5.6292e+02     4.8967      0.017      0.024    25.2775 0.0000e+00
      0.021      0.012     8.7760    106.113    114.972 114.913629     0.5421      7.890   124.8823 5.6411e+02     4.8070      0.020      0.030    25.1522 0.0000e+00
      0.024      0.013     8.7788    106.147    114.952 114.912571     0.5013      7.891   127.2526 5.6518e+02     4.7599      0.024      0.034    25.0614 0.0000e+00
      0.026      0.014     8.7646    106.166    114.915 114.911426     0.4617      7.892   129.6044 5.6608e+02     4.7710      0.026      0.037    25.0176 0.0000e+00
      0.028      0.015     8.7643    106.220    114.890 114.899843     0.4542      7.893   130.5172 5.6702e+02     4.7711      0.027      0.039    24.9756 0.0000e+00
      0.032      0.015     8.7722    106.311    114.895 114.899932     0.4520      7.894   130.0294 5.6672e+02     4.7961      0.029      0.043    24.9578 0.0000e+00
      0.037      0.015     8.7741    106.411    114.905 114.912492     0.4687      7.895   128.9549 5.6612e+02     4.9009      0.035      0.051    24.9742 0.0000e+00
      0.044      0.016     8.7682    106.510    114.899 114.924308     0.5223      7.896   128.3662 5.6192e+02     4.9791      0.044      0.064    24.9981 0.0000e+00
      0.048      0.020     8.7728    106.586    114.869 114.915440     0.5589      7.897   127.5576 5.5313e+02     4.9231      0.049      0.071    25.0017 0.0000e+00
      0.049      0.026     8.7831    106.634    114.879 114.932697     0.5622      7.897   127.1791 5.4663e+02     4.8731      0.048      0.069    24.9937 0.0000e+00
      0.051      0.034     8.7904    106.670    114.950 115.005567     0.5547      7.897   127.1460 5.3083e+02     4.8871      0.047      0.069    24.9946 0.0000e+00
      0.060      0.044     8.7986    106.714    115.016 115.095832     0.5431      7.896   126.8986 5.0508e+02     4.8523      0.057      0.083    25.0042 0.0000e+00
      0.075      0.053     8.8027    106.742    115.064 115.196038     0.5377      7.896   126.9418 4.8868e+02     4.8282      0.072      0.105    25.0168 0.0000e+00
      0.094      0.059     8.8057    106.711    115.119 115.325444     0.5312      7.897   126.7220 4.8133e+02     4.8352      0.091      0.131    25.0197 0.0000e+00
      0.114      0.060     8.8092    106.717    115.091 115.386617     0.5222      7.898   126.5635 4.6625e+02     4.8341      0.113      0.163    25.0131 0.0000e+00
      0.132      0.057     8.8103    106.811    114.936 115.298818     0.5207      7.899   126.0585 4.5360e+02     4.8482      0.132      0.191    25.0232 0.0000e+00
      0.146      0.055     8.8135    106.885    114.662 115.028365     0.5299      7.899   124.5738 4.5606e+02     4.8697      0.145      0.210    25.0502 0.0000e+00
      0.156      0.056     8.8006    106.885    114.247 114.537121     0.5414      7.898   123.4111 4.5329e+02     4.9233      0.154      0.223    25.0787 0.0000e+00
      0.163      0.061     8.7896    106.752    113.972 114.072689     0.5609      7.898   123.0995 4.4247e+02     5.0178      0.160      0.231    25.1252 0.0000e+00
      0.173      0.067     8.7994    106.433    114.071 113.871393     0.5993      7.899   123.2159 4.2992e+02     5.0905      0.166      0.241    25.1653 0.0000e+00
      0.192      0.072     8.8039    106.029    114.384 113.886260     0.6228      7.901   123.8719 4.2114e+02     5.1191      0.183      0.267    25.1623 0.0000e+00
      0.222      0.072     8.8101    105.685    114.688 113.997211     0.6118      7.902   124.6634 4.1269e+02     5.1243      0.219      0.317    25.1391 0.0000e+00
      0.252      0.067     8.8154    105.467    114.823 114.066110     0.5903      7.903   124.6989 4.0398e+02     5.0505      0.253      0.365    25.0634 0.0000e+00
      0.269      0.057     8.8098    105.384    114.693 113.954881     0.5796      7.904   124.5593 4.0567e+02     4.9780      0.268      0.389    24.9037 0.0000e+00
      0.276      0.045     8.7956    105.417    114.465 113.735196     0.5817      7.906   124.8681 4.0889e+02     5.0332      0.272      0.395    24.7563 0.0000e+00
      0.279      0.033     8.7789    105.509    114.429 113.639237     0.5827      7.908   125.3351 4.0616e+02     5.1035      0.274      0.397    24.6727 0.0000e+00
      0.283      0.025     8.7652    105.624    114.506 113.622589     0.5842      7.909   125.8167 4.0394e+02     5.1107      0.276      0.401    24.6482 0.0000e+00
      0.288      0.022     8.7535    105.754    114.565 113.597456     0.5995      7.910   125.7873 4.0405e+02     5.1551      0.282      0.409    24.6759 0.0000e+00
      0.296      0.022     8.7562    105.859    114.626 113.590001     0.6184      7.912   125.4101 4.0032e+02     5.1964      0.290      0.421    24.6914 0.0000e+00
      0.303      0.024     8.7717    105.922    114.618 113.532354     0.6292      7.914   125.3006 3.9682e+02     5.1662      0.298      0.432    24.6531 0.0000e+00
      0.308      0.028     8.7878    105.962    114.537 113.409925     0.6297      7.916   125.2371 3.9638e+02     5.1307      0.303      0.440    24.6042 0.0000e+00
      0.311      0.032     8.8066    105.998    114.502 113.319833     0.6164      7.917   125.2436 3.9257e+02     5.0750      0.304      0.442    24.5715 0.0000e+00
      0.318      0.036     8.8210    106.039    114.591 113.334678     0.5931      7.919   126.1537 3.8843e+02     5.0047      0.309      0.448    24.5382 0.0000e+00
      0.330      0.038     8.8284    106.065    114.725 113.398228     0.5813      7.919   127.2939 3.8404e+02     5.0322      0.322      0.467    24.5186 0.0000e+00
      0.346      0.038     8.8336    106.074    114.818 113.451172     0.5817      7.920   127.4142 3.7775e+02     5.1001      0.340      0.493    24.5056 0.0000e+00
      0.359      0.037     8.8396    106.082    114.832 113.465221     0.5812      7.923   127.1786 3.7492e+02     5.1084      0.355      0.514    24.4818 0.0000e+00
      0.367      0.033     8.8504    106.117    114.785 113.440699     0.5841      7.925   127.4560 3.7359e+02     5.1325      0.361      0.524    24.4459 0.0000e+00
      0.372      0.028     8.8582    106.175    114.734 113.409483     0.5907      7.926   128.1008 3.7165e+02     5.1526      0.365      0.529    24.4102 0.0000e+00
      0.376      0.024     8.8616    106.203    114.653 113.342597     0.6039      7.926   129.0383 3.7088e+02     5.1464      0.369      0.535    24.3925 0.0000e+00
      0.381      0.022     8.8606    106.192    114.573 113.268937     0.6102      7.927   130.7038 3.7050e+02     5.1600      0.374      0.542    24.3950 0.0000e+00
      0.387      0.021     8.8603    106.166    114.541 113.219494     0.5997      7.929   131.5469 3.6754e+02     5.1469      0.380      0.551    24.4106 0.0000e+00
      0.394      0.021     8.8672    106.137    114.556 113.190608     0.5939      7.930   130.6284 3.6580e+02     5.0906      0.387      0.561    24.4177 0.0000e+00
      0.400      0.022     8.8686    106.111    114.589 113.174383     0.5978      7.931   130.1802 3.6691e+02     5.0594      0.393      0.569    24.4226 0.0000e+00
      0.405      0.024     8.8651    106.086    114.615 113.150624     0.5888      7.932   131.0321 3.6450e+02     5.0433      0.398      0.577    24.4300 0.0000e+00
      0.410      0.025     8.8643    106.060    114.676 113.158032     0.5685      7.935   131.8082 3.6083e+02     5.0319      0.401      0.581    24.4219 0.0000e+00
      0.415      0.027     8.8655    106.050    114.691 113.136494     0.5685      7.936   132.4234 3.5921e+02     5.0925      0.405      0.588    24.3979 0.0000e+00
      0.424      0.032     8.8667    106.074    114.581 113.017535     0.5804      7.937   133.3934 3.5926e+02     5.1608      0.415      0.602    24.3766 0.0000e+00
      0.432      0.038     8.8685    106.110    114.451 112.866160     0.5883      7.938   133.9860 3.5907e+02     5.1744      0.424      0.615    24.3573 0.0000e+00
      0.440      0.044     8.8700    106.098    114.424 112.771096     0.6058      7.938   134.4264 3.5416e+02     5.1892      0.430      0.624    24.3298 0.0000e+00
      0.451      0.047     8.8716    106.003    114.507 112.759697     0.6166      7.939   135.1910 3.4950e+02     5.2029      0.439      0.637    24.3104 0.0000e+00
      0.467      0.046     8.8733    105.873    114.616 112.791891     0.6115      7.940   135.3148 3.4674e+02     5.2031      0.457      0.663    24.3137 0.0000e+00
      0.485      0.043     8.8793    105.800    114.698 112.841782     0.5938      7.942   135.1491 3.4298e+02     5.1239      0.477      0.692    24.3119 0.0000e+00
      0.499      0.039     8.8856    105.850    114.703 112.853352     0.5690      7.944   135.3383 3.4013e+02     4.9283      0.493      0.714    24.2766 0.0000e+00
      0.506      0.037     8.8838    105.962    114.632 112.804409     0.5608      7.944   135.0218 3.3688e+02     4.7855      0.499      0.723    24.2272 0.0000e+00
      0.507      0.035     8.8764    106.052    114.567 112.759584     0.5614      7.944   134.9358 3.3535e+02     4.7975      0.497      0.721    24.1908 0.0000e+00
      0.511      0.034     8.8685    106.117    114.551 112.757236     0.5677      7.944   135.2447 3.3502e+02     4.9368      0.498      0.722    24.1781 0.0000e+00
      0.521      0.037     8.8746    106.196    114.508 112.712354     0.5873      7.945   135.2286 3.3233e+02     5.1029      0.509      0.738    24.1865 0.0000e+00
      0.536      0.042     8.8859    106.292    114.363 112.535363     0.5988      7.945   135.6873 3.2915e+02     5.1999      0.527      0.764    24.1976 0.0000e+00
      0.549      0.047     8.8911    106.333    114.253 112.336852     0.5990      7.946   135.9724 3.2744e+02     5.2222      0.539      0.781    24.2056 0.0000e+00
      0.559      0.049     8.8939    106.253    114.276 112.222740     0.5971      7.947   135.4067 3.2510e+02     5.1677      0.548      0.795    24.2142 0.0000e+00
      0.571      0.049     8.8997    106.104    114.374 112.174468     0.6096      7.949   135.4722 3.2223e+02     5.0873      0.559      0.811    24.2132 0.0000e+00
      0.585      0.047     8.9122    106.011    114.464 112.135125     0.6334      7.949   136.3348 3.2059e+02     5.0364      0.573      0.832    24.2052 0.0000e+00
      0.599      0.045     8.9252    106.011    114.497 112.065304     0.6355      7.950   136.0277 3.1799e+02     4.9963      0.589      0.854    24.1645 0.0000e+00
      0.611      0.044     8.9284    106.034    114.481 111.967016     0.6265      7.952   134.5982 3.1520e+02     4.9781      0.600      0.871    24.0950 0.0000e+00
      0.620      0.046     8.9213    106.031    114.357 111.774562     0.6323      7.953   133.8497 3.1301e+02     5.0206      0.609      0.883    24.0303 0.0000e+00
      0.629      0.053     8.9217    106.011    114.054 111.394137     0.6560      7.952   134.6352 3.1097e+02     5.1010      0.616      0.893    23.9715 0.0000e+00
      0.638      0.064     8.9328    105.987    113.798 110.997367     0.6805      7.952   135.7502 3.1088e+02     5.1637      0.624      0.906    23.9303 0.0000e+00
      0.652      0.074     8.9417    105.897    113.878 110.861904     0.6865      7.952   135.4576 3.0843e+02     5.1983      0.636      0.922    23.8947 0.0000e+00
      0.674      0.081     8.9461    105.702    114.117 110.902296     0.6952      7.953   134.5389 3.0153e+02     5.1786      0.656      0.952    23.8646 0.0000e+00
      0.707      0.085     8.9470    105.514    114.223 110.912293     0.7188      7.955   134.0208 2.9553e+02     5.1297      0.693      1.006    23.8394 0.0000e+00
      0.737      0.085     8.9578    105.436    114.189 110.855279     0.7231      7.956   134.0977 2.9241e+02     5.1202      0.728      1.056    23.7785 0.0000e+00
      0.757      0.082     8.9727    105.481    114.141 110.786079     0.7132      7.958   134.6932 2.9143e+02     5.0977      0.744      1.079    23.6666 0.0000e+00
      0.769      0.074     8.9669    105.608    114.185 110.776108     0.7165      7.960   134.9398 2.8799e+02     5.0625      0.753      1.092    23.5645 0.0000e+00
      0.784      0.064     8.9531    105.759    114.283 110.798323     0.7214      7.961   135.4456 2.8286e+02     5.0702      0.768      1.114    23.5345 0.0000e+00
      0.801      0.057     8.9459    105.908    114.344 110.799836     0.7138      7.963   136.5928 2.7978e+02     5.0880      0.786      1.140    23.5375 0.0000e+00
      0.819      0.052     8.9524    106.045    114.372 110.794309     0.7000      7.965   136.6795 2.7758e+02     5.1069      0.805      1.167    23.5293 0.0000e+00
      0.833      0.047     8.9698    106.172    114.401 110.795139     0.7042      7.966   136.1491 2.7513e+02     5.1275      0.820      1.189    23.5071 0.0000e+00
      0.842      0.042     8.9891    106.289    114.447 110.809839     0.7230      7.969   136.1164 2.7177e+02     5.1322      0.826      1.199    23.4665 0.0000e+00
      0.849      0.037     9.0075    106.382    114.496 110.844627     0.7350      7.971   136.2842 2.6874e+02     5.1642      0.832      1.207    23.4392 0.0000e+00
      0.857      0.032     9.0197    106.432    114.452 110.833621     0.7338      7.971   136.9732 2.6574e+02     5.1727      0.841      1.219    23.4309 0.0000e+00
      0.865      0.029     9.0329    106.449    114.316 110.740510     0.7161      7.972   137.6505 2.6319e+02     5.0982      0.849      1.232    23.4195 0.0000e+00
      0.874      0.029     9.0454    106.440    114.270 110.674163     0.6962      7.973   137.7628 2.6124e+02     5.0154      0.857      1.243    23.4040 0.0000e+00
      0.881      0.029     9.0571    106.374    114.343 110.668239     0.6932      7.976   137.6423 2.5950e+02     4.9911      0.864      1.253    23.3895 0.0000e+00
      0.887      0.029     9.0575    106.247    114.423 110.668765     0.6963      7.977   137.2258 2.5776e+02     5.0104      0.870      1.262    23.4095 0.0000e+00
      0.893      0.030     9.0515    106.104    114.487 110.680407     0.7001      7.977   137.0291 2.5607e+02     5.0439      0.876      1.270    23.4450 0.0000e+00
      0.901      0.031     9.0558    106.001    114.507 110.681557     0.7145      7.979   137.4141 2.5536e+02     5.1219      0.883      1.281    23.4312 0.0000e+00
      0.910      0.031     9.0574    105.952    114.508 110.682651     0.7280      7.980   138.3539 2.5515e+02     5.2023      0.892      1.294    23.3847 0.0000e+00
      0.920      0.031     9.0517    105.942    114.517 110.693641     0.7310      7.981   139.1863 2.5472e+02     5.1958      0.901      1.307    23.3493 0.0000e+00
      0.929      0.031     9.0406    105.947    114.511 110.687071     0.7421      7.982   138.6156 2.5331e+02     5.1455      0.911      1.323    23.3270 0.0000e+00
      0.936      0.032     9.0330    105.969    114.496 110.666892     0.7544      7.984   137.6484 2.5258e+02     5.1065      0.919      1.334    23.3206 0.0000e+00
      0.941      0.034     9.0285    106.024    114.477 110.640697     0.7462      7.984   137.6445 2.5150e+02     5.0664      0.922      1.338    23.3248 0.0000e+00
      0.948      0.036     9.0285    106.084    114.467 110.625078     0.7346      7.984   138.0534 2.4902e+02     5.0366      0.927      1.345    23.3255 0.0000e+00
      0.958      0.038     9.0296    106.127    114.452 110.605399     0.7214      7.985   138.2904 2.4602e+02     5.0188      0.938      1.360    23.3253 0.0000e+00
      0.971      0.041     9.0294    106.151    114.450 110.593811     0.7117      7.986   138.4443 2.4326e+02     5.0227      0.953      1.382    23.3232 0.0000e+00
      0.984      0.043     9.0377    106.156    114.482 110.612320     0.7256      7.986   138.7963 2.4146e+02     5.0829      0.966      1.401    23.3183 0.0000e+00
      0.995      0.044     9.0429    106.135    114.522 110.638120     0.7484      7.986   139.0186 2.3958e+02     5.1664      0.975      1.415    23.3161 0.0000e+00
      1.005      0.042     9.0473    106.094    114.544 110.650998     0.7549      7.986   138.3784 2.3781e+02     5.2126      0.984      1.427    23.3146 0.0000e+00
      1.015      0.038     9.0497    106.060    114.536 110.640640     0.7542      7.987   137.8535 2.3583e+02     5.2316      0.994      1.442    23.3105 0.0000e+00
      1.027      0.034     9.0516    106.040    114.533 110.640247     0.7563      7.989   138.0925 2.3389e+02     5.1910      1.008      1.463    23.3046 0.0000e+00
      1.037      0.032     9.0510    106.040    114.532 110.646255     0.7472      7.990   138.0841 2.3260e+02     5.0973      1.019      1.478    23.2977 0.0000e+00
      1.042      0.031     9.0463    106.068    114.531 110.649603     0.7265      7.992   138.6121 2.3162e+02     5.0557      1.022      1.483    23.2942 0.0000e+00
      1.046      0.030     9.0444    106.133    114.563 110.680738     0.7140      7.992   139.6581 2.3027e+02     4.9956      1.024      1.485    23.2932 0.0000e+00
      1.053      0.030     9.0418    106.239    114.589 110.704277     0.7219      7.993   140.0634 2.2858e+02     4.8826      1.031      1.495    23.2940 0.0000e+00
      1.063      0.032     9.0411    106.348    114.569 110.679475     0.7379      7.995   139.8989 2.2669e+02     4.8514      1.042      1.512    23.2991 0.0000e+00
      1.073      0.035     9.0427    106.390    114.537 110.635586     0.7497      7.996   139.1317 2.2446e+02     4.8911      1.053      1.528    23.3010 0.0000e+00
      1.081      0.038     9.0482    106.371    114.540 110.619386     0.7557      7.996   138.0146 2.2217e+02     4.9871      1.061      1.538    23.2996 0.0000e+00
      1.090      0.040     9.0577    106.326    114.549 110.610949     0.7611      7.997   136.9744 2.1993e+02     5.0894      1.068      1.549    23.3001 0.0000e+00
      1.101      0.043     9.0715    106.246    114.548 110.597239     0.7655      7.997   136.7936 2.1836e+02     5.1027      1.079      1.564    23.2983 0.0000e+00
      1.111      0.048     9.0747    106.154    114.543 110.580956     0.7506      7.997   137.2051 2.1657e+02     5.0797      1.090      1.581    23.2921 0.0000e+00
      1.122      0.054     9.0726    106.088    114.521 110.541430     0.7389      7.998   137.2181 2.1395e+02     5.0509      1.099      1.595    23.2828 0.0000e+00
      1.137      0.059     9.0719    106.027    114.511 110.501416     0.7572      7.998   137.0357 2.1068e+02     5.0279      1.114      1.615    23.2743 0.0000e+00
      1.155      0.064     9.0651    105.935    114.526 110.479208     0.7801      7.998   136.7209 2.0743e+02     5.0405      1.133      1.643    23.2689 0.0000e+00
      1.172      0.067     9.0556    105.848    114.543 110.463916     0.7912      7.999   136.4236 2.0448e+02     5.0661      1.149      1.666    23.2661 0.0000e+00
      1.191      0.069     9.0521    105.848    114.544 110.443838     0.8091      8.000   136.2805 2.0178e+02     5.0984      1.167      1.692    23.2601 0.0000e+00
      1.211      0.069     9.0518    105.925    114.544 110.427460     0.8459      8.000   136.1945 1.9989e+02     5.1582      1.188      1.723    23.2446 0.0000e+00
      1.228      0.071     9.0455    105.985    114.528 110.393238     0.8700      8.000   136.2447 1.9790e+02     5.1742      1.206      1.748    23.2265 0.0000e+00
      1.243      0.074     9.0369    106.006    114.504 110.348457     0.8760      8.000   136.3707 1.9571e+02     5.1558      1.218      1.766    23.2119 0.0000e+00
      1.259      0.076     9.0380    106.024    114.512 110.331768     0.8598      8.001   136.7727 1.9326e+02     5.1403      1.233      1.788    23.2038 0.0000e+00
      1.279      0.078     9.0511    106.030    114.526 110.318782     0.8159      8.002   137.0606 1.9075e+02     5.0887      1.254      1.817    23.1987 0.0000e+00
      1.303      0.079     9.0574    106.030    114.545 110.318773     0.7859      8.004   137.0127 1.8814e+02     5.0452      1.278      1.855    23.1896 0.0000e+00
      1.327      0.076     9.0583    106.058    114.566 110.331628     0.7801      8.005   137.3982 1.8570e+02     5.0241      1.302      1.889    23.1805 0.0000e+00
      1.348      0.069     9.0632    106.087    114.582 110.346833     0.7958      8.006   138.1931 1.8402e+02     5.0038      1.323      1.918    23.1693 0.0000e+00
      1.366      0.061     9.0661    106.081    114.611 110.375253     0.8347      8.008   138.8804 1.8286e+02     5.0391      1.342      1.947    23.1563 0.0000e+00
      1.378      0.056     9.0650    106.054    114.591 110.356833     0.8677      8.009   139.5135 1.8227e+02     5.1439      1.354      1.964    23.1479 0.0000e+00
      1.385      0.055     9.0695    106.033    114.554 110.315168     0.8779      8.011   140.4281 1.8216e+02     5.2118      1.358      1.971    23.1452 0.0000e+00
      1.394      0.055     9.0737    106.013    114.572 110.317250     0.8748      8.011   140.6467 1.8184e+02     5.1770      1.364      1.979    23.1465 0.0000e+00
      1.409      0.054     9.0719    106.000    114.590 110.318304     0.8723      8.012   139.9192 1.8024e+02     5.1330      1.378      2.000    23.1461 0.0000e+00
      1.432      0.053     9.0683    105.993    114.606 110.327890     0.8723      8.014   140.0635 1.7852e+02     5.1233      1.404      2.036    23.1475 0.0000e+00
      1.452      0.050     9.0673    105.962    114.644 110.369461     0.8665      8.016   140.8426 1.7737e+02     5.0606      1.427      2.070    23.1467 0.0000e+00
      1.463      0.045     9.0672    105.944    114.641 110.375153     0.8612      8.017   140.6491 1.7671e+02     4.9893      1.437      2.086    23.1375 0.0000e+00
      1.468      0.040     9.0664    105.995    114.591 110.333048     0.8656      8.018   139.7037 1.7687e+02     5.0125      1.440      2.088    23.1287 0.0000e+00
      1.472      0.036     9.0690    106.063    114.563 110.306168     0.8695      8.020   139.2201 1.7650e+02     5.0685      1.442      2.091    23.1262 0.0000e+00
      1.479      0.033     9.0642    106.070    114.567 110.304874     0.8666      8.021   139.7064 1.7553e+02     5.0851      1.448      2.101    23.1300 0.0000e+00
      1.491      0.031     9.0578    106.022    114.586 110.317402     0.8723      8.023   140.6792 1.7466e+02     5.1106      1.461      2.120    23.1351 0.0000e+00
      1.503      0.028     9.0653    105.968    114.597 110.330266     0.8801      8.023   140.8289 1.7372e+02     5.1385      1.474      2.140    23.1371 0.0000e+00
      1.512      0.025     9.0743    105.937    114.590 110.333037     0.8858      8.023   140.3128 1.7279e+02     5.1481      1.485      2.154    23.1374 0.0000e+00
      1.517      0.021     9.0742    105.928    114.601 110.350930     0.8919      8.025   140.3757 1.7181e+02     5.1244      1.490      2.160    23.1347 0.0000e+00
      1.518      0.020     9.0692    105.927    114.602 110.355570     0.8792      8.027   140.2981 1.7111e+02     5.0568      1.488      2.159    23.1305 0.0000e+00
      1.518      0.023     9.0632    105.917    114.567 110.325454     0.8406      8.028   139.8054 1.7071e+02     5.0142      1.487      2.157    23.1314 0.0000e+00
      1.521      0.029     9.0600    105.917    114.550 110.305225     0.7995      8.028   139.6662 1.7033e+02     5.0194      1.489      2.160    23.1379 0.0000e+00
      1.530      0.037     9.0588    105.955    114.563 110.302020     0.7812      8.028   140.1639 1.6933e+02     5.0171      1.499      2.175    23.1410 0.0000e+00
      1.544      0.043     9.0599    106.000    114.571 110.286690     0.7855      8.029   140.8327 1.6778e+02     5.0547      1.515      2.197    23.1409 0.0000e+00
      1.559      0.048     9.0576    106.008    114.552 110.247195     0.8191      8.029   140.3533 1.6658e+02     5.0982      1.530      2.220    23.1444 0.0000e+00
      1.574      0.050     9.0558    105.974    114.529 110.206556     0.8634      8.029   139.3581 1.6536e+02     5.0307      1.545      2.241    23.1445 0.0000e+00
      1.588      0.054     9.0621    105.939    114.519 110.177402     0.8793      8.029   139.1237 1.6430e+02     4.9566      1.558      2.259    23.1356 0.0000e+00
      1.599      0.059     9.0698    105.938    114.514 110.149397     0.8778      8.029   138.8961 1.6359e+02     4.9529      1.569      2.276    23.1240 0.0000e+00
      1.608      0.065     9.0722    105.973    114.509 110.122646     0.8623      8.030   138.5853 1.6275e+02     5.0199      1.575      2.285    23.1150 0.0000e+00
      1.622      0.071     9.0688    106.072    114.512 110.108657     0.8252      8.032   138.6355 1.6096e+02     5.0842      1.585      2.298    23.1082 0.0000e+00
      1.647      0.073     9.0655    106.258    114.523 110.107606     0.7949      8.032   138.8148 1.5816e+02     5.0810      1.614      2.341    23.0996 0.0000e+00
      1.676      0.070     9.0688    106.479    114.532 110.109921     0.7877      8.032   139.8058 1.5633e+02     5.0845      1.648      2.389    23.0885 0.0000e+00
      1.698      0.060     9.0722    106.697    114.558 110.136635     0.8043      8.033   140.6375 1.5496e+02     5.0574      1.667      2.418    23.0784 0.0000e+00
      1.713      0.045     9.0799    106.925    114.587 110.175865     0.8374      8.034   139.7505 1.5372e+02     4.9584      1.683      2.441    23.0707 0.0000e+00
      1.722      0.030     9.0992    107.107    114.598 110.202178     0.8640      8.036   138.6318 1.5334e+02     4.9116      1.692      2.454    23.0663 0.0000e+00
      1.722      0.021     9.1215    107.217    114.582 110.200072     0.8758      8.037   138.2970 1.5298e+02     4.9357      1.690      2.451    23.0631 0.0000e+00
      1.717      0.022     9.1364    107.267    114.521 110.150407     0.8720      8.038   138.6280 1.5252e+02     4.9772      1.683      2.440    23.0628 0.0000e+00
      1.715      0.029     9.1587    107.193    114.478 110.111164     0.8598      8.040   139.4504 1.5196e+02     5.0375      1.678      2.433    23.0689 0.0000e+00
      1.722      0.037     9.1751    107.086    114.486 110.107693     0.8532      8.040   140.3245 1.5090e+02     5.0505      1.684      2.441    23.0772 0.0000e+00
      1.740      0.044     9.1778    107.021    114.509 110.108415     0.8503      8.040   140.4210 1.4928e+02     5.0310      1.705      2.472    23.0832 0.0000e+00
      1.763      0.047     9.1903    106.925    114.539 110.119862     0.8497      8.041   139.7562 1.4793e+02     5.0416      1.731      2.510    23.0871 0.0000e+00
      1.781      0.045     9.1772    106.889    114.545 110.118703     0.8542      8.043   139.9445 1.4708e+02     5.0419      1.750      2.538    23.0897 0.0000e+00
      1.791      0.040     9.1629    106.936    114.520 110.094398     0.8629      8.045   140.7183 1.4631e+02     5.0682      1.758      2.551    23.0846 0.0000e+00
      1.793      0.033     9.1702    106.968    114.507 110.080714     0.8719      8.047   140.6801 1.4586e+02     5.1544      1.757      2.549    23.0721 0.0000e+00
      1.795      0.027     9.1546    107.011    114.511 110.080619     0.8717      8.048   140.2573 1.4551e+02     5.1614      1.758      2.550    23.0633 0.0000e+00
      1.801      0.024     9.1499    106.988    114.528 110.093241     0.8765      8.049   140.0807 1.4474e+02     5.0513      1.764      2.559    23.0615 0.0000e+00
      1.810      0.023     9.1643    106.905    114.540 110.105957     0.9059      8.050   140.0063 1.4393e+02     5.0183      1.774      2.574    23.0622 0.0000e+00
      1.819      0.024     9.1577    106.924    114.535 110.107009     0.9191      8.052   140.3044 1.4330e+02     5.0706      1.785      2.588    23.0620 0.0000e+00
      1.826      0.024     9.1689    106.971    114.522 110.105963     0.9109      8.053   140.9322 1.4274e+02     5.0344      1.791      2.598    23.0600 0.0000e+00
      1.829      0.023     9.1703    106.976    114.494 110.093328     0.8989      8.054   141.7462 1.4225e+02     4.9904      1.794      2.601    23.0580 0.0000e+00
      1.833      0.022     9.1486    107.059    114.472 110.081624     0.8733      8.054   142.2314 1.4163e+02     5.0514      1.796      2.605    23.0575 0.0000e+00
      1.838      0.022     9.1590    107.194    114.478 110.091833     0.8590      8.055   141.7225 1.4093e+02     5.1225      1.801      2.612    23.0602 0.0000e+00
      1.844      0.023     9.1652    107.203    114.477 110.089401     0.8596      8.057   141.0135 1.4029e+02     5.1669      1.809      2.623    23.0665 0.0000e+00
      1.851      0.024     9.1563    107.143    114.448 110.052224     0.8711      8.057   140.9722 1.3969e+02     5.2132      1.817      2.635    23.0737 0.0000e+00
      1.858      0.025     9.1628    107.178    114.442 110.024414     0.8824      8.058   141.1371 1.3924e+02     5.2038      1.822      2.643    23.0782 0.0000e+00
      1.864      0.027     9.1852    107.230    114.452 110.007841     0.8711      8.060   140.5117 1.3896e+02     5.1216      1.828      2.651    23.0789 0.0000e+00
      1.869      0.030     9.1832    107.205    114.443 109.979166     0.8597      8.060   139.7778 1.3847e+02     5.0384      1.833      2.658    23.0788 0.0000e+00
      1.876      0.033     9.1668    107.182    114.414 109.932402     0.8852      8.061   139.9213 1.3800e+02     5.0178      1.839      2.667    23.0771 0.0000e+00
      1.885      0.035     9.1796    107.198    114.393 109.888180     0.9307      8.062   140.5253 1.3736e+02     5.0095      1.848      2.680    23.0657 0.0000e+00
      1.896      0.036     9.1910    107.158    114.418 109.890223     0.9517      8.062   142.0046 1.3661e+02     4.9721      1.859      2.698    23.0504 0.0000e+00
      1.908      0.034     9.1839    106.975    114.437 109.893389     0.9564      8.063   143.0947 1.3603e+02     4.9751      1.871      2.714    23.0443 0.0000e+00
      1.918      0.031     9.1825    106.803    114.420 109.862751     0.9703      8.064   142.1763 1.3535e+02     5.0457      1.882      2.730    23.0377 0.0000e+00
      1.926      0.026     9.1889    106.768    114.415 109.838174     0.9864      8.066   141.0535 1.3470e+02     5.1424      1.891      2.743    23.0243 0.0000e+00
      1.930      0.022     9.1940    106.733    114.449 109.850937     0.9934      8.066   140.2735 1.3412e+02     5.1885      1.894      2.747    23.0144 0.0000e+00
      1.932      0.019     9.1721    106.714    114.496 109.889665     0.9967      8.066   139.4560 1.3347e+02     5.1585      1.894      2.748    23.0089 0.0000e+00
      1.935      0.019     9.1480    106.803    114.522 109.924331     0.9929      8.067   138.9992 1.3279e+02     5.0871      1.897      2.752    23.0038 0.0000e+00
      1.940      0.021     9.1604    106.881    114.539 109.951680     0.9723      8.068   138.7082 1.3211e+02     5.0428      1.902      2.758    22.9953 0.0000e+00
      1.946      0.024     9.1561    106.919    114.545 109.965630     0.9483      8.068   138.5197 1.3148e+02     5.0673      1.909      2.768    22.9828 0.0000e+00
      1.953      0.028     9.1467    107.015    114.536 109.965645     0.9442      8.068   138.3532 1.3086e+02     5.0761      1.916      2.779    22.9800 0.0000e+00
      1.961      0.032     9.1635    107.152    114.514 109.951865     0.9720      8.068   138.2437 1.3009e+02     5.0803      1.922      2.788    22.9876 0.0000e+00
      1.969      0.035     9.1691    107.257    114.484 109.926401     1.0102      8.069   138.3150 1.2939e+02     5.1528      1.931      2.800    22.9929 0.0000e+00
      1.979      0.038     9.1652    107.302    114.471 109.912492     1.0309      8.070   138.4405 1.2870e+02     5.2351      1.941      2.815    22.9959 0.0000e+00
      1.989      0.042     9.1757    107.311    114.471 109.911062     1.0475      8.071   138.4709 1.2796e+02     5.2552      1.951      2.830    22.9991 0.0000e+00
      2.000      0.045     9.1893    107.330    114.474 109.909106     1.0617      8.071   138.4254 1.2716e+02     5.1911      1.961      2.844    23.0032 0.0000e+00
      2.011      0.047     9.1985    107.340    114.461 109.888833     1.0531      8.071   138.4064 1.2631e+02     5.0747      1.972      2.861    23.0046 0.0000e+00
      2.024      0.048     9.2029    107.333    114.441 109.856983     1.0345      8.072   138.4128 1.2548e+02     4.9761      1.985      2.879    23.0034 0.0000e+00
      2.039      0.051     9.1993    107.288    114.440 109.842398     1.0282      8.073   138.4176 1.2460e+02     4.9541      1.999      2.900    23.0030 0.0000e+00
      2.052      0.055     9.2050    107.206    114.450 109.839819     1.0188      8.073   138.4646 1.2392e+02     4.9796      2.013      2.920    23.0012 0.0000e+00
      2.064      0.059     9.2050    107.147    114.445 109.825792     1.0045      8.073   138.6356 1.2328e+02     5.0464      2.023      2.935    22.9975 0.0000e+00
      2.077      0.061     9.2057    107.118    114.428 109.800148     1.0047      8.074   138.8502 1.2241e+02     5.1129      2.035      2.952    22.9922 0.0000e+00
      2.095      0.062     9.2062    107.139    114.425 109.784465     1.0209      8.075   139.3386 1.2134e+02     5.1338      2.054      2.978    22.9856 0.0000e+00
      2.115      0.060     9.1930    107.153    114.421 109.763510     1.0414      8.076   139.9807 1.2028e+02     5.1968      2.076      3.010    22.9798 0.0000e+00
      2.134      0.056     9.1936    107.119    114.411 109.737811     1.0533      8.077   140.0742 1.1940e+02     5.2261      2.095      3.038    22.9766 0.0000e+00
      2.149      0.050     9.1866    107.070    114.413 109.728439     1.0573      8.079   139.9534 1.1868e+02     5.1459      2.109      3.059    22.9730 0.0000e+00
      2.159      0.044     9.1932    106.979    114.402 109.713860     1.0562      8.080   140.1549 1.1824e+02     5.0818      2.119      3.073    22.9674 0.0000e+00
      2.166      0.039     9.1996    106.909    114.378 109.688900     1.0402      8.081   140.7048 1.1793e+02     5.0652      2.124      3.080    22.9597 0.0000e+00
      2.171      0.038     9.1908    106.901    114.378 109.681373     1.0136      8.081   141.0951 1.1752e+02     5.0480      2.128      3.086    22.9510 0.0000e+00
      2.179      0.041     9.1962    106.986    114.392 109.686522     1.0086      8.082   140.8297 1.1703e+02     5.0446      2.135      3.096    22.9457 0.0000e+00
      2.191      0.048     9.1800    107.109    114.399 109.687461     1.0293      8.084   140.5942 1.1652e+02     5.0920      2.148      3.115    22.9455 0.0000e+00
      2.204      0.056     9.1764    107.097    114.411 109.692715     1.0403      8.085   140.8281 1.1592e+02     5.1435      2.162      3.136    22.9462 0.0000e+00
      2.219      0.062     9.1739    106.949    114.412 109.686357     1.0416      8.085   141.5929 1.1513e+02     5.1544      2.174      3.154    22.9414 0.0000e+00
      2.237      0.064     9.1812    106.781    114.404 109.674259     1.0535      8.085   142.3564 1.1425e+02     5.1896      2.192      3.179    22.9368 0.0000e+00
      2.257      0.061     9.2036    106.661    114.408 109.673788     1.0595      8.086   142.7461 1.1348e+02     5.2268      2.215      3.212    22.9361 0.0000e+00
      2.277      0.056     9.1990    106.556    114.417 109.680655     1.0465      8.087   143.7229 1.1289e+02     5.1946      2.234      3.241    22.9327 0.0000e+00
      2.292      0.049     9.1847    106.454    114.429 109.693601     1.0221      8.088   144.7020 1.1232e+02     5.1082      2.249      3.262    22.9288 0.0000e+00
      2.302      0.040     9.1657    106.374    114.436 109.702961     1.0055      8.089   144.3459 1.1201e+02     5.0701      2.259      3.276    22.9272 0.0000e+00
      2.308      0.032     9.1602    106.348    114.458 109.730155     1.0034      8.089   143.0313 1.1204e+02     5.1104      2.264      3.283    22.9250 0.0000e+00
      2.312      0.027     9.1504    106.438    114.486 109.767673     1.0057      8.088   141.7993 1.1194e+02     5.1170      2.267      3.287    22.9244 0.0000e+00
      2.317      0.024     9.1406    106.598    114.476 109.774517     1.0162      8.089   141.0650 1.1164e+02     5.1156      2.271      3.294    22.9249 0.0000e+00
      2.323      0.024     9.1342    106.721    114.428 109.749241     1.0392      8.091   140.6918 1.1143e+02     5.1618      2.278      3.304    22.9262 0.0000e+00
      2.331      0.024     9.1265    106.783    114.378 109.716823     1.0588      8.092   140.4705 1.1120e+02     5.1964      2.286      3.315    22.9286 0.0000e+00
      2.338      0.025     9.1364    106.804    114.363 109.700984     1.0626      8.092   140.4545 1.1085e+02     5.2277      2.293      3.326    22.9328 0.0000e+00
      2.344      0.026     9.1535    106.791    114.365 109.685090     1.0510      8.092   140.5844 1.1064e+02     5.1983      2.300      3.335    22.9400 0.0000e+00
      2.349      0.026     9.1624    106.757    114.349 109.651981     1.0348      8.092   140.6640 1.1037e+02     5.1142      2.303      3.340    22.9499 0.0000e+00
      2.354      0.027     9.1642    106.696    114.328 109.619053     1.0254      8.093   140.8148 1.1014e+02     5.0652      2.308      3.347    22.9608 0.0000e+00
      2.361      0.027     9.1671    106.607    114.323 109.605352     1.0204      8.094   140.9456 1.0994e+02     5.0157      2.316      3.359    22.9596 0.0000e+00
      2.371      0.027     9.1669    106.547    114.341 109.613670     1.0321      8.094   141.2982 1.0967e+02     4.9929      2.325      3.373    22.9478 0.0000e+00
      2.380      0.028     9.1655    106.522    114.323 109.592250     1.0669      8.094   142.4114 1.0948e+02     5.0637      2.334      3.385    22.9390 0.0000e+00
      2.386      0.030     9.1628    106.498    114.198 109.473722     1.0924      8.095   143.5642 1.0928e+02     5.1545      2.340      3.394    22.9350 0.0000e+00
      2.391      0.033     9.1517    106.471    114.050 109.326816     1.0984      8.096   143.8800 1.0908e+02     5.1677      2.344      3.401    22.9311 0.0000e+00
      2.397      0.035     9.1480    106.440    114.024 109.280670     1.0980      8.097   143.7338 1.0878e+02     5.1216      2.350      3.409    22.9266 0.0000e+00
      2.407      0.036     9.1482    106.402    114.064 109.297830     1.1044      8.098   144.2058 1.0844e+02     5.1436      2.359      3.422    22.9244 0.0000e+00
      2.420      0.038     9.1445    106.347    114.054 109.279535     1.1263      8.100   145.1992 1.0819e+02     5.2618      2.373      3.442    22.9270 0.0000e+00
      2.432      0.040     9.1433    106.265    114.025 109.250501     1.1376      8.100   145.0754 1.0799e+02     5.2871      2.388      3.463    22.9274 0.0000e+00
      2.441      0.040     9.1419    106.155    113.976 109.201496     1.1330      8.100   144.1723 1.0794e+02     5.2453      2.395      3.473    22.9145 0.0000e+00
      2.449      0.040     9.1419    106.031    113.909 109.132776     1.1365      8.100   143.6576 1.0792e+02     5.2003      2.401      3.483    22.9022 0.0000e+00
      2.459      0.038     9.1371    105.902    113.905 109.120089     1.1478      8.101   143.3262 1.0768e+02     5.1193      2.412      3.498    22.9006 0.0000e+00
      2.470      0.035     9.1308    105.760    113.906 109.111764     1.1530      8.102   143.1772 1.0728e+02     5.1191      2.423      3.514    22.9012 0.0000e+00
      2.481      0.033     9.1204    105.617    113.895 109.095785     1.1573      8.103   143.2326 1.0685e+02     5.1646      2.435      3.530    22.9004 0.0000e+00
      2.491      0.030     9.1096    105.498    113.920 109.117923     1.1583      8.103   143.0499 1.0664e+02     5.1571      2.445      3.546    22.8989 0.0000e+00
      2.497      0.027     9.1003    105.413    113.928 109.124710     1.1571      8.103   142.6033 1.0669e+02     5.1643      2.450      3.554    22.8940 0.0000e+00
      2.500      0.025     9.0883    105.346    113.918 109.114169     1.1592      8.103   142.3923 1.0662e+02     5.1490      2.451      3.555    22.8886 0.0000e+00
      2.504      0.026     9.0757    105.321    113.922 109.117821     1.1497      8.103   142.2202 1.0637e+02     5.0401      2.454      3.560    22.8870 0.0000e+00
      2.511      0.032     9.0645    105.358    113.907 109.105190     1.1351      8.102   141.9844 1.0604e+02     4.9752      2.463      3.572    22.8867 0.0000e+00
      2.518      0.043     9.0591    105.428    113.891 109.088806     1.1318      8.101   142.0368 1.0575e+02     5.0136      2.471      3.583    22.8868 0.0000e+00
      2.526      0.056     9.0515    105.499    113.920 109.110766     1.1344      8.101   142.3375 1.0547e+02     5.0600      2.477      3.592    22.8861 0.0000e+00
      2.539      0.066     9.0487    105.553    113.932 109.115972     1.1418      8.101   142.7806 1.0461e+02     5.0924      2.485      3.605    22.8855 0.0000e+00
      2.563      0.069     9.0532    105.578    113.905 109.088062     1.1723      8.102   143.6085 1.0326e+02     5.1322      2.510      3.640    22.8875 0.0000e+00
      2.593      0.067     9.0598    105.576    113.907 109.091706     1.2194      8.102   144.5179 1.0222e+02     5.1656      2.548      3.694    22.8876 0.0000e+00
      2.617      0.060     9.0676    105.556    113.908 109.096344     1.2447      8.103   144.4836 1.0177e+02     5.1536      2.572      3.731    22.8833 0.0000e+00
      2.629      0.050     9.0727    105.525    113.891 109.080465     1.2369      8.104   143.9682 1.0163e+02     5.1248      2.581      3.743    22.8799 0.0000e+00
      2.634      0.040     9.0755    105.463    113.904 109.090760     1.2001      8.104   143.7931 1.0159e+02     5.1589      2.584      3.749    22.8789 0.0000e+00
      2.637      0.034     9.0744    105.376    113.911 109.093457     1.1493      8.105   143.6569 1.0151e+02     5.2236      2.586      3.750    22.8803 0.0000e+00
      2.641      0.036     9.0717    105.305    113.869 109.049390     1.1218      8.105   143.8703 1.0133e+02     5.2585      2.588      3.753    22.8830 0.0000e+00
      2.649      0.044     9.0703    105.286    113.826 109.003705     1.1175      8.105   144.3949 1.0095e+02     5.3075      2.597      3.766    22.8832 0.0000e+00
      2.662      0.052     9.0652    105.339    113.816 108.986826     1.1306      8.105   144.4068 1.0028e+02     5.4062      2.609      3.784    22.8815 0.0000e+00
      2.679      0.058     9.0561    105.439    113.810 108.972651     1.1730      8.106   144.4440 9.9307e+01     5.4610      2.625      3.807    22.8797 0.0000e+00
      2.701      0.060     9.0494    105.530    113.805 108.959660     1.2215      8.108   144.7595 9.8190e+01     5.4571      2.649      3.843    22.8781 0.0000e+00
      2.720      0.058     9.0472    105.591    113.809 108.957095     1.2430      8.108   144.6925 9.7386e+01     5.4617      2.671      3.874    22.8763 0.0000e+00
      2.733      0.054     9.0528    105.639    113.797 108.941631     1.2408      8.108   144.6666 9.6798e+01     5.4482      2.681      3.888    22.8729 0.0000e+00
      2.742      0.052     9.0649    105.662    113.756 108.900044     1.2293      8.109   144.9629 9.6243e+01     5.3974      2.688      3.900    22.8687 0.0000e+00
      2.752      0.051     9.0738    105.625    113.693 108.836334     1.2113      8.109   145.3497 9.5720e+01     5.3261      2.698      3.914    22.8656 0.0000e+00
      2.763      0.052     9.0785    105.536    113.670 108.808106     1.1984      8.110   145.7300 9.5013e+01     5.2690      2.707      3.927    22.8623 0.0000e+00
      2.777      0.054     9.0830    105.419    113.682 108.813456     1.1894      8.112   146.1188 9.4138e+01     5.2872      2.722      3.948    22.8605 0.0000e+00
      2.795      0.057     9.0874    105.292    113.646 108.773652     1.1779      8.112   146.3521 9.3203e+01     5.3416      2.741      3.976    22.8603 0.0000e+00
      2.811      0.058     9.0831    105.167    113.586 108.708903     1.1915      8.112   146.5717 9.2421e+01     5.3464      2.759      4.000    22.8590 0.0000e+00
      2.826      0.055     9.0753    105.042    113.553 108.667357     1.2292      8.113   146.7083 9.1706e+01     5.3440      2.771      4.019    22.8559 0.0000e+00
      2.839      0.049     9.0658    104.948    113.548 108.653370     1.2343      8.113   145.8525 9.0803e+01     5.3470      2.784      4.037    22.8527 0.0000e+00
      2.853      0.042     9.0536    104.888    113.569 108.667130     1.2198      8.112   144.9155 8.9909e+01     5.3154      2.798      4.059    22.8510 0.0000e+00
      2.865      0.036     9.0453    104.825    113.613 108.706355     1.2377      8.112   144.8420 8.9235e+01     5.3024      2.813      4.080    22.8482 0.0000e+00
      2.872      0.032     9.0329    104.765    113.653 108.745567     1.2596      8.112   145.0504 8.8846e+01     5.2928      2.819      4.089    22.8436 0.0000e+00
      2.874      0.030     9.0256    104.730    113.664 108.759170     1.2594      8.112   145.4568 8.8509e+01     5.2332      2.817      4.086    22.8389 0.0000e+00
      2.878      0.030     9.0233    104.741    113.643 108.743473     1.2683      8.112   145.8843 8.8039e+01     5.2303      2.820      4.091    22.8353 0.0000e+00
      2.887      0.031     9.0170    104.801    113.575 108.683143     1.3008      8.113   145.7448 8.7466e+01     5.2926      2.830      4.105    22.8346 0.0000e+00
      2.899      0.034     9.0112    104.888    113.490 108.602837     1.3197      8.115   145.2333 8.6816e+01     5.3381      2.843      4.124    22.8352 0.0000e+00
      2.910      0.039     9.0072    104.980    113.428 108.536636     1.3214      8.115   144.9479 8.6236e+01     5.3699      2.855      4.141    22.8363 0.0000e+00
      2.918      0.042     9.0074    105.060    113.363 108.455807     1.3382      8.115   144.8744 8.5746e+01     5.4037      2.862      4.151    22.8389 0.0000e+00
      2.926      0.043     9.0132    105.113    113.328 108.389648     1.3485      8.115   144.8612 8.5128e+01     5.4392      2.867      4.159    22.8416 0.0000e+00
      2.938      0.042     9.0210    105.119    113.353 108.373448     1.3372      8.115   144.8744 8.4355e+01     5.3889      2.878      4.175    22.8425 0.0000e+00
      2.953      0.040     9.0300    105.072    113.394 108.387223     1.3259      8.115   144.8614 8.3665e+01     5.2735      2.897      4.202    22.8402 0.0000e+00
      2.966      0.037     9.0384    104.993    113.441 108.428807     1.3042      8.115   144.8763 8.3214e+01     5.2398      2.912      4.223    22.8329 0.0000e+00
      2.975      0.033     9.0463    104.899    113.495 108.494163     1.2671      8.116   144.8828 8.2943e+01     5.2552      2.918      4.232    22.8173 0.0000e+00
      2.980      0.028     9.0514    104.801    113.522 108.540684     1.2512      8.117   144.8542 8.2763e+01     5.2543      2.922      4.238    22.7956 0.0000e+00
      2.985      0.026     9.0482    104.719    113.437 108.481891     1.2535      8.118   144.8741 8.2623e+01     5.2643      2.927      4.245    22.7824 0.0000e+00
      2.989      0.031     9.0407    104.680    113.225 108.292764     1.2616      8.118   144.9515 8.2475e+01     5.3066      2.931      4.250    22.7830 0.0000e+00
      2.993      0.043     9.0316    104.695    113.027 108.100627     1.2821      8.117   145.2735 8.2321e+01     5.3896      2.934      4.256    22.7902 0.0000e+00
      3.001      0.058     9.0205    104.723    113.012 108.069077     1.3013      8.116   145.9291 8.2024e+01     5.4486      2.940      4.265    22.8004 0.0000e+00
      3.016      0.069     9.0108    104.707    113.128 108.165974     1.3203      8.115   146.5114 8.1398e+01     5.4400      2.953      4.283    22.8115 0.0000e+00
      3.042      0.075     9.0050    104.643    113.219 108.253364     1.3699      8.115   146.6346 8.0414e+01     5.4216      2.978      4.320    22.8197 0.0000e+00
      3.074      0.076     9.0080    104.560    113.259 108.297899     1.4266      8.116   146.5588 7.9478e+01     5.4313      3.017      4.377    22.8187 0.0000e+00
      3.100      0.072     9.0152    104.473    113.283 108.322385     1.4314      8.116   146.8850 7.8960e+01     5.4551      3.047      4.418    22.8071 0.0000e+00
      3.114      0.062     9.0150    104.388    113.253 108.294715     1.4190      8.117   147.3963 7.8658e+01     5.4706      3.056      4.432    22.7984 0.0000e+00
      3.121      0.052     9.0075    104.330    113.176 108.218050     1.4353      8.118   147.2341 7.8397e+01     5.4469      3.061      4.439    22.8016 0.0000e+00
      3.128      0.047     8.9996    104.328    113.186 108.223232     1.4536      8.118   146.9886 7.8086e+01     5.4077      3.067      4.448    22.8055 0.0000e+00
      3.138      0.049     8.9920    104.377    113.260 108.293687     1.4570      8.119   147.2668 7.7673e+01     5.4068      3.076      4.463    22.8051 0.0000e+00
      3.149      0.056     8.9836    104.408    113.204 108.242109     1.4678      8.119   147.4151 7.7168e+01     5.4022      3.087      4.477    22.8060 0.0000e+00
      3.164      0.062     8.9780    104.384    113.074 108.109021     1.5180      8.120   147.6622 7.6481e+01     5.4539      3.100      4.496    22.8054 0.0000e+00
      3.184      0.066     8.9776    104.349    113.006 108.021732     1.5896      8.122   147.9317 7.5640e+01     5.6227      3.121      4.528    22.8008 0.0000e+00
      3.208      0.066     8.9856    104.337    112.954 107.950792     1.6179      8.123   147.8338 7.4869e+01     5.7352      3.148      4.565    22.8009 0.0000e+00
      3.228      0.062     8.9888    104.347    112.902 107.888030     1.6109      8.124   147.7701 7.4219e+01     5.7892      3.168      4.595    22.8060 0.0000e+00
      3.243      0.056     8.9846    104.354    112.922 107.899615     1.6046      8.124   147.6779 7.3624e+01     5.8311      3.182      4.615    22.8023 0.0000e+00
      3.253      0.051     8.9832    104.314    112.987 107.963497     1.5996      8.124   147.7514 7.3181e+01     5.7984      3.192      4.629    22.7889 0.0000e+00
      3.260      0.048     8.9841    104.228    112.902 107.896307     1.6085      8.124   148.4005 7.2703e+01     5.7347      3.196      4.636    22.7782 0.0000e+00
      3.270      0.048     8.9860    104.149    112.582 107.596659     1.6286      8.124   149.2445 7.2046e+01     5.6760      3.206      4.649    22.7739 0.0000e+00
      3.284      0.049     8.9896    104.073    112.129 107.142205     1.6431      8.125   150.0402 7.1401e+01     5.6345      3.220      4.669    22.7693 0.0000e+00
      3.300      0.049     8.9869    103.968    111.747 106.731360     1.6921      8.126   150.3649 7.0783e+01     5.6779      3.235      4.692    22.7682 0.0000e+00
      3.316      0.046     8.9742    103.858    111.709 106.640503     1.7641      8.126   149.9014 7.0177e+01     5.7567      3.253      4.718    22.7788 0.0000e+00
      3.329      0.039     8.9668    103.735    111.932 106.807650     1.7893      8.127   149.6843 6.9704e+01     5.7673      3.267      4.738    22.7868 0.0000e+00
      3.338      0.031     8.9648    103.555    112.052 106.905765     1.7968      8.127   150.0619 6.9411e+01     5.7721      3.275      4.749    22.7743 0.0000e+00
      3.343      0.022     8.9572    103.330    112.081 106.935367     1.8293      8.127   150.3371 6.9213e+01     5.8495      3.280      4.757    22.7517 0.0000e+00
      3.345      0.016     8.9524    103.112    112.126 106.974551     1.8746      8.126   150.3456 6.9050e+01     5.9508      3.281      4.757    22.7256 0.0000e+00
      3.346      0.014     8.9490    102.934    112.091 106.933819     1.9123      8.126   150.3359 6.8914e+01     6.0067      3.280      4.758    22.6992 0.0000e+00
      3.349      0.015     8.9334    102.797    111.917 106.761238     1.9348      8.127   150.6505 6.8784e+01     6.0817      3.284      4.763    22.6947 0.0000e+00
      3.351      0.020     8.9107    102.699    111.635 106.479698     1.9304      8.128   151.0516 6.8602e+01     6.1395      3.286      4.766    22.7015 0.0000e+00
      3.355      0.028     8.8913    102.636    111.379 106.203940     1.9018      8.128   150.9695 6.8335e+01     6.0906      3.289      4.770    22.6981 0.0000e+00
      3.363      0.034     8.8774    102.586    111.256 106.037547     1.8799      8.129   150.7763 6.8085e+01     6.0366      3.296      4.780    22.6931 0.0000e+00
      3.374      0.037     8.8658    102.523    111.327 106.059539     1.8733      8.129   151.0386 6.7805e+01     6.0331      3.307      4.797    22.6916 0.0000e+00
      3.388      0.037     8.8576    102.408    111.584 106.278761     1.9049      8.129   151.3019 6.7424e+01     6.0482      3.323      4.819    22.6890 0.0000e+00
      3.403      0.033     8.8556    102.228    111.768 106.459631     1.9706      8.130   151.1210 6.7144e+01     6.1172      3.340      4.844    22.6753 0.0000e+00
      3.413      0.028     8.8561    102.027    111.743 106.463645     2.0105      8.130   150.8308 6.7040e+01     6.2188      3.350      4.858    22.6481 0.0000e+00
      3.414      0.023     8.8560    101.866    111.641 106.391016     2.0212      8.129   150.7179 6.6995e+01     6.2860      3.349      4.857    22.6260 0.0000e+00
      3.414      0.022     8.8495    101.775    111.322 106.090885     1.9748      8.129   150.7016 6.6970e+01     6.2119      3.347      4.855    22.6117 0.0000e+00
      3.416      0.025     8.8315    101.758    110.810 105.572597     1.8747      8.129   150.7201 6.6891e+01     6.0062      3.348      4.856    22.6141 0.0000e+00
      3.421      0.030     8.8085    101.784    110.580 105.281628     1.8176      8.130   150.7692 6.6667e+01     5.8825      3.353      4.863    22.6346 0.0000e+00
      3.432      0.036     8.7920    101.799    110.557 105.183135     1.8096      8.130   150.8657 6.6371e+01     5.8438      3.365      4.880    22.6458 0.0000e+00
      3.447      0.043     8.7834    101.750    110.231 104.827287     1.8434      8.130   151.1126 6.6097e+01     5.8794      3.382      4.904    22.6495 0.0000e+00
      3.461      0.052     8.7839    101.609    109.439 104.035032     1.9181      8.131   151.6039 6.5840e+01     6.0394      3.396      4.926    22.6417 0.0000e+00
      3.471      0.062     8.7954    101.372    108.551 103.116397     1.9566      8.132   152.2458 6.5640e+01     6.1730      3.405      4.939    22.6002 0.0000e+00
      3.481      0.070     8.8056    101.047    107.965 102.441842     1.9668      8.133   153.1947 6.5365e+01     6.2309      3.410      4.946    22.5553 0.0000e+00
      3.498      0.074     8.8048    100.616    107.707 102.053947     2.0835      8.134   154.0427 6.4764e+01     6.5001      3.425      4.968    22.5422 0.0000e+00
      3.527      0.073     8.7940    100.027    107.927 102.118381     2.2854      8.134   153.8945 6.4001e+01     6.9690      3.458      5.015    22.5340 0.0000e+00
      3.557      0.068     8.7785     99.257    108.367 102.456796     2.3940      8.134   153.3816 6.3416e+01     7.2204      3.491      5.065    22.4987 0.0000e+00
      3.579      0.060     8.7614     98.415    108.339 102.453384     2.4064      8.135   153.2621 6.3129e+01     7.2516      3.514      5.097    22.4395 0.0000e+00
      3.589      0.055     8.7358     97.590    107.070 101.313280     2.3936      8.136   153.3962 6.3098e+01     7.2094      3.523      5.110    22.3733 0.0000e+00
      3.590      0.055     8.7019     96.813    104.853  99.174809     2.3308      8.137   154.4004 6.3112e+01     7.0859      3.521      5.107    22.2929 0.0000e+00
      3.591      0.064     8.6365     96.162    103.441  97.602373     2.2378      8.138   155.5962 6.2892e+01     6.9538      3.517      5.102    22.2459 0.0000e+00
      3.602      0.075     8.5554     95.535    103.327  97.131007     2.1927      8.140   155.4650 6.2261e+01     6.9446      3.525      5.114    22.2699 0.0000e+00
      3.631      0.085     8.4789     94.693    103.777  97.230008     2.2021      8.141   154.9644 6.1267e+01     7.0426      3.556      5.157    22.3228 0.0000e+00
      3.672      0.089     8.4018     93.504    104.222  97.462433     2.2600      8.142   154.7914 6.0223e+01     7.2170      3.603      5.226    22.3293 0.0000e+00
      3.708      0.085     8.3718     92.044    104.414  97.586199     2.3519      8.145   154.5789 5.9501e+01     7.4472      3.643      5.283    22.1984 0.0000e+00
      3.728      0.074     8.3609     90.528    104.468  97.644447     2.3976      8.145   154.4591 5.9181e+01     7.5374      3.662      5.311    21.9853 0.0000e+00
      3.736      0.058     8.3187     89.142    104.389  97.593930     2.3875      8.145   154.5472 5.9049e+01     7.4880      3.665      5.316    21.8129 0.0000e+00
      3.740      0.043     8.2265     88.099    104.197  97.420942     2.3715      8.146   154.7840 5.8862e+01     7.4309      3.664      5.315    21.7276 0.0000e+00
      3.747      0.034     8.0892     87.504    104.072  97.271246     2.3627      8.148   154.9992 5.8523e+01     7.3929      3.672      5.326    21.7163 0.0000e+00
      3.757      0.032     7.9522     87.243    103.974  97.120430     2.3552      8.148   155.1706 5.8157e+01     7.4043      3.684      5.344    21.7272 0.0000e+00
      3.767      0.033     7.8196     87.226    103.769  96.870198     2.3638      8.148   155.3941 5.7858e+01     7.5001      3.694      5.358    21.7420 0.0000e+00
      3.776      0.033     7.7202     87.399    103.607  96.664026     2.4085      8.149   155.7214 5.7578e+01     7.6290      3.703      5.371    21.7526 0.0000e+00
      3.784      0.033     7.6800     87.627    103.602  96.600437     2.4553      8.150   156.0306 5.7325e+01     7.6985      3.711      5.383    21.7323 0.0000e+00
      3.792      0.033     7.6634     87.792    103.681  96.610397     2.4626      8.150   156.2941 5.7088e+01     7.7260      3.719      5.393    21.6962 0.0000e+00
      3.799      0.033     7.6658     87.860    103.807  96.657069     2.4473      8.149   156.5839 5.6829e+01     7.7223      3.725      5.403    21.6699 0.0000e+00
      3.805      0.033     7.6906     87.805    103.952  96.719159     2.4208      8.148   156.7820 5.6490e+01     7.6193      3.731      5.411    21.6458 0.0000e+00
      3.814      0.033     7.7192     87.643    104.079  96.788251     2.3910      8.148   156.7960 5.6061e+01     7.4722      3.740      5.425    21.6162 0.0000e+00
      3.825      0.031     7.7379     87.465    104.154  96.855973     2.3780      8.148   156.8393 5.5674e+01     7.4468      3.751      5.441    21.5853 0.0000e+00
      3.835      0.026     7.7502     87.346    104.176  96.901572     2.3808      8.147   157.0474 5.5363e+01     7.5173      3.762      5.457    21.5536 0.0000e+00
      3.843      0.021     7.7521     87.296    104.204  96.957772     2.3917      8.146   157.1616 5.5114e+01     7.5384      3.771      5.469    21.5120 0.0000e+00
      3.847      0.016     7.7380     87.329    104.246  97.026386     2.4016      8.146   157.1011 5.4987e+01     7.5308      3.775      5.475    21.4815 0.0000e+00
      3.847      0.012     7.7187     87.464    104.297  97.094798     2.4001      8.146   157.0046 5.4964e+01     7.5279      3.774      5.473    21.4875 0.0000e+00
      3.847      0.011     7.7063     87.642    104.348  97.148543     2.3816      8.145   156.9416 5.4944e+01     7.4698      3.772      5.470    21.5036 0.0000e+00
      3.848      0.012     7.7000     87.813    104.314  97.103438     2.3616      8.144   156.9408 5.4880e+01     7.3743      3.773      5.472    21.5174 0.0000e+00
      3.852      0.015     7.6980     87.983    104.234  96.994917     2.3586      8.144   156.9092 5.4757e+01     7.3301      3.777      5.478    21.5334 0.0000e+00
      3.858      0.017     7.7115     88.137    104.187  96.918294     2.3696      8.144   156.9033 5.4572e+01     7.3792      3.783      5.486    21.5443 0.0000e+00
      3.865      0.018     7.7291     88.267    104.157  96.877010     2.3863      8.144   157.0416 5.4394e+01     7.4893      3.790      5.497    21.5484 0.0000e+00
      3.871      0.019     7.7426     88.346    104.162  96.877584     2.3952      8.145   157.1195 5.4292e+01     7.5344      3.797      5.508    21.5434 0.0000e+00
      3.876      0.021     7.7627     88.311    104.087  96.797944     2.4014      8.145   157.0705 5.4297e+01     7.4804      3.802      5.514    21.5225 0.0000e+00
      3.877      0.025     7.7796     88.201    103.788  96.486849     2.4119      8.146   157.1373 5.4332e+01     7.4513      3.802      5.514    21.5011 0.0000e+00
      3.879      0.031     7.7902     88.067    103.246  95.916313     2.3970      8.147   157.2389 5.4203e+01     7.4562      3.801      5.513    21.4989 0.0000e+00
      3.886      0.038     7.8029     87.867    102.632  95.245236     2.3718      8.148   157.2665 5.3891e+01     7.4372      3.809      5.524    21.4991 0.0000e+00
      3.900      0.046     7.7968     87.584    102.285  94.800178     2.3819      8.148   157.3847 5.3510e+01     7.4602      3.824      5.546    21.4976 0.0000e+00
      3.916      0.052     7.7857     87.212    102.186  94.607720     2.4100      8.149   157.5498 5.3110e+01     7.5972      3.841      5.571    21.4840 0.0000e+00
      3.932      0.056     7.7834     86.717    102.134  94.508970     2.4373      8.150   157.6275 5.2737e+01     7.7618      3.857      5.594    21.4498 0.0000e+00
      3.947      0.056     7.7716     86.043    102.071  94.433379     2.4622      8.149   157.8076 5.2375e+01     7.8113      3.872      5.615    21.4036 0.0000e+00
      3.961      0.055     7.7581     85.227    101.755  94.139176     2.5030      8.149   158.3509 5.1989e+01     7.7514      3.885      5.636    21.3309 0.0000e+00
      3.975      0.053     7.7342     84.412    101.289  93.687995     2.5730      8.150   159.2073 5.1664e+01     7.7209      3.899      5.655    21.2748 0.0000e+00
      3.987      0.050     7.6955     83.674    101.154  93.496072     2.6171      8.152   159.7294 5.1424e+01     7.7501      3.910      5.671    21.2592 0.0000e+00
      3.999      0.045     7.6375     83.057    101.290  93.536636     2.6203      8.153   159.5873 5.1117e+01     7.7281      3.921      5.686    21.2489 0.0000e+00
      4.012      0.040     7.5560     82.583    101.498  93.669284     2.6366      8.153   159.4684 5.0736e+01     7.7622      3.935      5.707    21.2549 0.0000e+00
      4.024      0.036     7.4835     82.208    101.761  93.890823     2.6889      8.154   159.5826 5.0480e+01     7.9925      3.948      5.728    21.2560 0.0000e+00
      4.031      0.033     7.4226     81.921    101.855  93.988090     2.7366      8.154   159.8495 5.0388e+01     8.2237      3.954      5.735    21.2128 0.0000e+00
      4.034      0.030     7.3734     81.742    101.680  93.827227     2.7552      8.153   160.3729 5.0297e+01     8.2680      3.956      5.737    21.1607 0.0000e+00
      4.039      0.026     7.3387     81.651    101.498  93.600295     2.7730      8.153   161.1789 5.0081e+01     8.0843      3.959      5.743    21.1321 0.0000e+00
      4.048      0.022     7.3070     81.585    101.488  93.471319     2.7940      8.153   161.7644 4.9804e+01     7.7793      3.969      5.757    21.1208 0.0000e+00
      4.058      0.019     7.2782     81.469    101.634  93.476616     2.7929      8.154   161.6011 4.9626e+01     7.6207      3.982      5.775    21.1328 0.0000e+00
      4.063      0.017     7.2608     81.237    101.844  93.600518     2.7754      8.154   161.5280 4.9605e+01     7.6359      3.986      5.782    21.1471 0.0000e+00
      4.063      0.017     7.2598     80.889    101.931  93.696685     2.7412      8.153   161.6547 4.9620e+01     7.7230      3.986      5.781    21.1171 0.0000e+00
      4.063      0.017     7.2652     80.516    101.845  93.684910     2.6947      8.152   161.4127 4.9534e+01     7.8549      3.984      5.778    21.0482 0.0000e+00
      4.066      0.019     7.2692     80.216    101.732  93.649154     2.6804      8.153   161.2687 4.9345e+01     7.9664      3.985      5.780    20.9705 0.0000e+00
      4.072      0.023     7.2540     80.009    101.683  93.646248     2.6926      8.153   161.4626 4.9065e+01     8.0121      3.994      5.791    20.9297 0.0000e+00
      4.081      0.028     7.2178     79.914    101.669  93.649827     2.7172      8.155   161.6918 4.8744e+01     7.9626      4.003      5.805    20.9469 0.0000e+00
      4.090      0.033     7.1735     79.949    101.654  93.628813     2.7535      8.157   161.8892 4.8430e+01     7.8811      4.010      5.817    20.9893 0.0000e+00
      4.099      0.037     7.1426     80.085    101.635  93.583048     2.7735      8.158   162.2145 4.8099e+01     7.8461      4.019      5.830    21.0291 0.0000e+00
      4.108      0.040     7.1211     80.316    101.639  93.541873     2.7844      8.159   162.6137 4.7809e+01     7.8470      4.028      5.844    21.0469 0.0000e+00
      4.117      0.042     7.1087     80.570    101.680  93.512694     2.8594      8.160   162.9300 4.7529e+01     7.8915      4.037      5.855    21.0548 0.0000e+00
      4.128      0.043     7.1165     80.756    101.755  93.484683     2.9819      8.161   163.4571 4.7117e+01     7.9752      4.046      5.869    21.0532 0.0000e+00
      4.142      0.043     7.1279     80.891    101.847  93.457578     3.0419      8.161   164.0830 4.6667e+01     8.0386      4.062      5.892    21.0344 0.0000e+00
      4.156      0.042     7.1548     81.016    101.932  93.439340     3.0529      8.161   164.2175 4.6352e+01     8.0441      4.077      5.913    21.0162 0.0000e+00
      4.166      0.041     7.1865     81.148    101.958  93.391308     3.0481      8.161   164.2220 4.6139e+01     7.9731      4.086      5.927    20.9853 0.0000e+00
      4.173      0.041     7.2074     81.283    101.759  93.131251     3.0246      8.161   164.3965 4.5875e+01     8.0342      4.092      5.935    20.9349 0.0000e+00
      4.182      0.044     7.2278     81.408    101.483  92.712852     3.0107      8.162   164.3477 4.5578e+01     8.3385      4.101      5.946    20.8718 0.0000e+00
      4.192      0.051     7.2444     81.453    101.553  92.468172     3.0045      8.163   164.1490 4.5351e+01     8.5440      4.111      5.962    20.8238 0.0000e+00
      4.202      0.057     7.2620     81.350    101.878  92.399438     3.0089      8.164   164.0588 4.4971e+01     8.6057      4.118      5.973    20.7927 0.0000e+00
      4.219      0.060     7.2763     81.109    102.199  92.390313     2.9894      8.165   164.0312 4.4280e+01     8.7424      4.135      5.997    20.7688 0.0000e+00
      4.242      0.060     7.2990     80.732    102.462  92.421073     2.9184      8.163   164.1600 4.3531e+01     8.8993      4.161      6.036    20.7093 0.0000e+00
      4.263      0.058     7.3323     80.200    102.564  92.389307     2.8652      8.162   164.4108 4.2988e+01     8.9310      4.185      6.069    20.5320 0.0000e+00
      4.278      0.054     7.3504     79.537    102.572  92.324206     2.8546      8.163   164.5689 4.2717e+01     8.8872      4.199      6.089    20.3250 0.0000e+00
      4.286      0.048     7.3501     78.823    102.652  92.333761     2.8561      8.163   164.6084 4.2545e+01     8.8137      4.203      6.096    20.1814 0.0000e+00
      4.293      0.040     7.3317     78.164    102.755  92.377498     2.8503      8.164   164.5448 4.2245e+01     8.6565      4.208      6.104    20.0808 0.0000e+00
      4.304      0.033     7.2911     77.677    102.797  92.407559     2.8347      8.164   164.4886 4.1850e+01     8.5580      4.219      6.120    20.0238 0.0000e+00
      4.316      0.027     7.2307     77.413    102.817  92.442714     2.8328      8.164   164.5302 4.1563e+01     8.5791      4.233      6.140    20.0025 0.0000e+00
      4.324      0.023     7.1680     77.333    102.837  92.484439     2.8116      8.163   164.6184 4.1478e+01     8.6389      4.243      6.154    19.9689 0.0000e+00
      4.327      0.021     7.1079     77.395    102.837  92.530308     2.7446      8.162   164.6943 4.1495e+01     8.6669      4.245      6.156    19.9345 0.0000e+00
      4.327      0.020     7.0610     77.582    102.773  92.551977     2.6976      8.162   164.7595 4.1477e+01     8.6437      4.243      6.154    19.9376 0.0000e+00
      4.329      0.019     7.0381     77.865    102.695  92.555666     2.6918      8.162   164.9757 4.1298e+01     8.6653      4.244      6.155    19.9518 0.0000e+00
      4.335      0.019     7.0306     78.174    102.674  92.575009     2.7168      8.162   165.3301 4.0936e+01     8.7240      4.249      6.162    19.9578 0.0000e+00
      4.344      0.019     7.0346     78.463    102.674  92.595019     2.7587      8.162   165.6029 4.0561e+01     8.8064      4.260      6.179    19.9748 0.0000e+00
      4.353      0.019     7.0449     78.708    102.674  92.606741     2.7737      8.162   165.7791 4.0363e+01     8.8762      4.272      6.195    20.0241 0.0000e+00
      4.357      0.020     7.0677     78.877    102.658  92.589495     2.7807      8.162   165.9121 4.0346e+01     8.8839      4.275      6.200    20.0684 0.0000e+00
      4.357      0.020     7.0956     78.959    102.676  92.577375     2.7862      8.163   166.0920 4.0313e+01     8.9336      4.271      6.195    20.0792 0.0000e+00
      4.359      0.021     7.1204     78.962    102.739  92.587422     2.7657      8.163   166.3205 4.0127e+01     8.9646      4.272      6.196    20.0872 0.0000e+00
      4.365      0.025     7.1440     78.917    102.783  92.583644     2.7405      8.163   166.5235 3.9802e+01     8.8836      4.279      6.206    20.0952 0.0000e+00
      4.374      0.031     7.1582     78.847    102.821  92.595264     2.7313      8.163   166.7398 3.9417e+01     8.8422      4.289      6.221    20.0959 0.0000e+00
      4.384      0.039     7.1685     78.777    102.823  92.600635     2.7870      8.164   167.2145 3.9080e+01     9.0111      4.300      6.237    20.0822 0.0000e+00
      4.394      0.045     7.1708     78.737    102.796  92.584965     2.8975      8.165   168.2194 3.8745e+01     9.2856      4.308      6.249    20.0527 0.0000e+00
      4.404      0.048     7.1699     78.735    102.839  92.596695     2.9610      8.166   168.9085 3.8275e+01     9.3945      4.318      6.262    20.0305 0.0000e+00
      4.418      0.048     7.1646     78.737    102.949  92.615168     2.9721      8.166   168.6638 3.7704e+01     9.3705      4.332      6.282    20.0162 0.0000e+00
      4.434      0.046     7.1559     78.682    103.067  92.617324     2.9734      8.167   168.6173 3.7155e+01     9.3376      4.349      6.308    20.0229 0.0000e+00
      4.449      0.042     7.1508     78.576    103.233  92.686250     2.9850      8.169   169.0341 3.6750e+01     9.2705      4.366      6.331    20.0348 0.0000e+00
      4.459      0.039     7.1518     78.446    103.537  92.875781     3.0206      8.169   169.4003 3.6552e+01     9.2079      4.376      6.345    20.0269 0.0000e+00
      4.464      0.035     7.1624     78.246    103.913  93.063571     3.0467      8.169   169.7760 3.6412e+01     9.1620      4.378      6.350    19.9824 0.0000e+00
      4.469      0.034     7.1655     77.917    104.183  93.111349     3.0423      8.170   169.7915 3.6157e+01     9.0914      4.382      6.355    19.9173 0.0000e+00
      4.477      0.037     7.1586     77.485    104.452  93.198674     3.0085      8.171   169.5871 3.5762e+01     9.1046      4.389      6.366    19.8834 0.0000e+00
      4.487      0.042     7.1515     77.005    105.050  93.610149     2.9634      8.170   169.5416 3.5310e+01     9.2199      4.400      6.381    19.8631 0.0000e+00
      4.499      0.048     7.1477     76.488    105.862  94.141141     2.9538      8.169   169.4138 3.4842e+01     9.2903      4.412      6.399    19.7878 0.0000e+00
      4.512      0.051     7.1325     75.895    106.500  94.400749     2.9840      8.168   169.5042 3.4251e+01     9.3744      4.423      6.416    19.6680 0.0000e+00
      4.528      0.051     7.1008     75.175    106.866  94.394195     3.0459      8.168   170.2044 3.3562e+01     9.5874      4.440      6.439    19.5982 0.0000e+00
      4.545      0.049     7.0614     74.372    107.041  94.315990     3.1196      8.168   170.9109 3.2976e+01     9.7822      4.459      6.467    19.5651 0.0000e+00
      4.558      0.045     7.0258     73.580    107.138  94.282118     3.1511      8.168   171.2499 3.2561e+01     9.7831      4.472      6.486    19.4856 0.0000e+00
      4.568      0.040     6.9979     72.827    107.243  94.302683     3.1435      8.168   171.3773 3.2237e+01     9.7356      4.480      6.497    19.3220 0.0000e+00
      4.575      0.035     6.9554     72.136    107.340  94.310011     3.1282      8.168   171.3326 3.1963e+01     9.7879      4.487      6.507    19.1369 0.0000e+00
      4.582      0.030     6.8910     71.570    107.459  94.306986     3.1232      8.169   171.6563 3.1707e+01     9.8340      4.494      6.517    19.0289 0.0000e+00
      4.589      0.027     6.8238     71.204    107.676  94.393233     3.1418      8.170   172.6231 3.1429e+01     9.8499      4.500      6.527    18.9912 0.0000e+00
      4.595      0.027     6.7568     71.064    107.888  94.525429     3.1703      8.170   173.5581 3.1162e+01     9.9109      4.506      6.536    18.9634 0.0000e+00
      4.602      0.026     6.6946     71.089    107.960  94.568959     3.1926      8.171   174.0132 3.0909e+01     9.9909      4.513      6.546    18.9327 0.0000e+00
      4.608      0.025     6.6468     71.206    107.891  94.537720     3.2033      8.171   173.9100 3.0630e+01    10.0315      4.519      6.554    18.8790 0.0000e+00
      4.616      0.022     6.6194     71.362    107.716  94.465934     3.1998      8.170   173.6005 3.0342e+01     9.9921      4.527      6.565    18.8118 0.0000e+00
      4.624      0.019     6.6118     71.514    107.505  94.337464     3.1926      8.170   174.3153 3.0108e+01     9.9581      4.536      6.579    18.8023 0.0000e+00
      4.628      0.018     6.6177     71.640    107.387  94.257156     3.2158      8.171   175.0664 2.9972e+01    10.0647      4.540      6.585    18.7870 0.0000e+00
      4.629      0.020     6.6301     71.771    107.537  94.449475     3.2724      8.171   174.5087 2.9897e+01    10.2568      4.539      6.584    18.7898 0.0000e+00
      4.630      0.023     6.6373     71.931    107.919  94.817445     3.3110      8.170   173.9393 2.9744e+01    10.3680      4.539      6.584    18.8551 0.0000e+00
      4.634      0.025     6.6488     72.044    108.236  94.951838     3.3250      8.170   173.7747 2.9398e+01    10.3835      4.543      6.589    18.8831 0.0000e+00
      4.644      0.026     6.6615     72.055    108.414  94.865141     3.3491      8.169   173.6365 2.8943e+01    10.3766      4.553      6.604    18.8680 0.0000e+00
      4.657      0.026     6.6659     71.991    108.570  94.850673     3.3785      8.168   173.8175 2.8557e+01    10.3182      4.568      6.626    18.9044 0.0000e+00
      4.667      0.025     6.6760     71.814    108.691  94.903987     3.3809      8.168   173.8989 2.8352e+01    10.2242      4.580      6.642    18.9715 0.0000e+00
      4.671      0.025     6.7019     71.480    108.938  95.064247     3.3604      8.168   173.3294 2.8336e+01    10.1973      4.583      6.647    18.8816 0.0000e+00
      4.671      0.025     6.7209     71.078    109.446  95.388287     3.3478      8.168   173.4700 2.8351e+01    10.3003      4.579      6.642    18.7171 0.0000e+00
      4.673      0.026     6.7258     70.692    109.904  95.576273     3.3453      8.168   174.5669 2.8166e+01    10.5120      4.578      6.641    18.6595 0.0000e+00
      4.681      0.027     6.7127     70.284    110.099  95.491410     3.3464      8.168   174.7183 2.7762e+01    10.7082      4.588      6.654    18.6576 0.0000e+00
      4.694      0.027     6.6794     69.820    110.162  95.380081     3.3440      8.168   174.0967 2.7325e+01    10.7934      4.603      6.676    18.6376 0.0000e+00
      4.707      0.024     6.6439     69.347    110.093  95.311830     3.3249      8.167   173.7623 2.7023e+01    10.7570      4.618      6.697    18.5905 0.0000e+00
      4.715      0.018     6.6242     68.889    109.824  95.175286     3.3154      8.167   173.5999 2.6922e+01    10.5751      4.626      6.711    18.4905 0.0000e+00
      4.716      0.011     6.6088     68.499    109.558  95.065656     3.3212      8.168   173.5096 2.6978e+01    10.3366      4.627      6.711    18.3439 0.0000e+00
      4.712      0.005     6.5720     68.279    109.416  95.068301     3.3121      8.168   173.5314 2.7087e+01    10.1957      4.621      6.702    18.2555 0.0000e+00
      4.709      0.002     6.5276     68.284    109.286  95.080148     3.3051      8.168   173.4332 2.7113e+01    10.1703      4.616      6.695    18.2656 0.0000e+00
      4.709      0.001     6.4746     68.451    109.192  95.081789     3.3113      8.168   173.0105 2.7016e+01    10.3025      4.617      6.697    18.3266 0.0000e+00
      4.712      0.003     6.4266     68.718    109.156  95.088254     3.3113      8.168   172.8090 2.6903e+01    10.5301      4.621      6.703    18.3819 0.0000e+00
      4.715      0.006     6.3960     69.076    109.051  95.031084     3.3148      8.168   173.0615 2.6857e+01    10.6338      4.624      6.708    18.4350 0.0000e+00
      4.717      0.008     6.3907     69.452    108.894  94.963318     3.3364      8.167   173.3104 2.6845e+01    10.6340      4.626      6.710    18.5059 0.0000e+00
      4.717      0.010     6.4051     69.791    108.788  94.968993     3.3635      8.167   173.4949 2.6805e+01    10.7029      4.626      6.709    18.5441 0.0000e+00
      4.719      0.012     6.4258     70.086    108.781  95.036195     3.3764      8.168   173.6578 2.6697e+01    10.8519      4.626      6.710    18.5513 0.0000e+00
      4.722      0.015     6.4631     70.304    108.998  95.203228     3.3677      8.168   173.7311 2.6539e+01    10.9319      4.630      6.716    18.5604 0.0000e+00
      4.727      0.018     6.4963     70.433    109.519  95.461267     3.3585      8.168   173.6925 2.6376e+01    10.9192      4.636      6.724    18.5905 0.0000e+00
      4.733      0.022     6.5181     70.486    110.164  95.674000     3.3644      8.168   173.7079 2.6196e+01    10.9727      4.641      6.731    18.6504 0.0000e+00
      4.739      0.024     6.5433     70.412    110.640  95.738475     3.3726      8.168   173.8309 2.6018e+01    11.1337      4.647      6.740    18.6897 0.0000e+00
      4.745      0.024     6.5627     70.151    110.825  95.667622     3.3755      8.167   173.9747 2.5826e+01    11.2605      4.653      6.748    18.6997 0.0000e+00
      4.753      0.022     6.5844     69.704    110.784  95.580685     3.3824      8.167   174.2428 2.5573e+01    11.3100      4.660      6.759    18.6117 0.0000e+00
      4.762      0.018     6.6189     69.119    110.651  95.578200     3.3477      8.167   174.4914 2.5342e+01    11.2196      4.671      6.775    18.4123 0.0000e+00
      4.767      0.016     6.6375     68.499    110.580  95.637747     3.2557      8.166   174.4848 2.5249e+01    10.9532      4.677      6.784    18.2433 0.0000e+00
      4.768      0.015     6.6281     67.954    110.584  95.664447     3.1931      8.166   174.4218 2.5266e+01    10.7542      4.677      6.783    18.1280 0.0000e+00
      4.767      0.015     6.5884     67.532    110.644  95.710131     3.1821      8.165   174.5030 2.5241e+01    10.6915      4.675      6.778    18.0985 0.0000e+00
      4.768      0.017     6.5185     67.271    110.932  95.935540     3.1896      8.164   174.5209 2.5080e+01    10.6396      4.674      6.779    18.1850 0.0000e+00
      4.774      0.021     6.4432     67.133    111.462  96.226097     3.2001      8.164   174.4664 2.4819e+01    10.6047      4.681      6.789    18.2680 0.0000e+00
      4.782      0.026     6.3951     67.017    112.036  96.422865     3.2087      8.164   174.5315 2.4551e+01    10.5773      4.690      6.803    18.2505 0.0000e+00
      4.791      0.030     6.3547     66.902    112.577  96.595952     3.2191      8.165   174.6205 2.4322e+01    10.5133      4.699      6.816    18.2365 0.0000e+00
      4.800      0.033     6.3251     66.751    113.158  96.854754     3.1843      8.166   174.6810 2.4119e+01    10.1723      4.709      6.829    18.2713 0.0000e+00
      4.808      0.034     6.3312     66.525    113.876  97.260595     3.1046      8.167   174.6610 2.3929e+01     9.5280      4.715      6.839    18.1878 0.0000e+00
      4.816      0.036     6.3384     66.284    114.681  97.747732     3.0544      8.168   174.6370 2.3717e+01     9.1117      4.722      6.850    18.0192 0.0000e+00
      4.824      0.041     6.3471     66.109    115.333  98.098384     3.0347      8.170   174.9080 2.3475e+01     9.0322      4.731      6.861    17.8886 0.0000e+00
      4.834      0.048     6.3491     66.104    115.701  98.190474     3.0243      8.171   175.3559 2.3219e+01     9.0457      4.740      6.874    17.7882 0.0000e+00
      4.845      0.054     6.3347     66.416    115.945  98.160799     3.0624      8.171   175.5775 2.2880e+01     9.2755      4.750      6.889    17.6990 0.0000e+00
      4.861      0.057     6.3214     67.158    116.157  98.121174     3.1455      8.171   175.5229 2.2360e+01     9.7269      4.764      6.910    17.6138 0.0000e+00
      4.882      0.057     6.3126     68.303    116.297  98.092973     3.1966      8.170   175.4703 2.1779e+01    10.0278      4.787      6.943    17.5265 0.0000e+00
      4.902      0.052     6.3190     69.623    116.345  98.074217     3.2145      8.170   175.5442 2.1396e+01    10.0780      4.810      6.977    17.4323 0.0000e+00
      4.917      0.046     6.3582     70.830    116.304  98.021625     3.2786      8.170   175.6425 2.1222e+01     9.8910      4.824      6.996    17.3264 0.0000e+00
      4.924      0.041     6.4437     71.757    116.304  97.966242     3.3811      8.170   175.7117 2.1133e+01     9.5434      4.829      7.005    17.2186 0.0000e+00
      4.928      0.039     6.5715     72.340    116.433  97.913694     3.4301      8.171   175.6920 2.1055e+01     9.3592      4.832      7.009    17.1537 0.0000e+00
      4.932      0.040     6.7131     72.526    116.673  97.831594     3.4219      8.172   175.6622 2.0916e+01     9.3025      4.836      7.013    17.1371 0.0000e+00
      4.940      0.044     6.8334     72.270    117.013  97.736976     3.4394      8.172   175.6964 2.0639e+01     9.3015      4.843      7.024    17.1411 0.0000e+00
      4.955      0.047     6.9257     71.589    117.439  97.660227     3.5087      8.172   175.7611 2.0193e+01     9.4508      4.857      7.044    17.1311 0.0000e+00
      4.975      0.048     6.9927     70.565    117.873  97.603182     3.5605      8.172   175.8422 1.9715e+01     9.6038      4.879      7.077    17.0632 0.0000e+00
      4.993      0.048     7.0327     69.406    118.208  97.555894     3.5666      8.172   176.1615 1.9417e+01     9.6488      4.900      7.106    16.9359 0.0000e+00
      5.004      0.045     7.0306     68.340    118.424  97.533588     3.5660      8.172   176.6964 1.9299e+01     9.5171      4.909      7.120    16.7684 0.0000e+00
      5.009      0.039     6.9915     67.428    118.527  97.524173     3.5613      8.172   177.0614 1.9198e+01     9.2750      4.912      7.124    16.5747 0.0000e+00
      5.016      0.033     6.9124     66.703    118.538  97.505591     3.5433      8.172   177.5619 1.9017e+01     9.1470      4.917      7.131    16.3821 0.0000e+00
      5.025      0.028     6.8071     66.203    118.528  97.499823     3.5233      8.172   177.7584 1.8815e+01     9.0962      4.927      7.148    16.2409 0.0000e+00
      5.034      0.027     6.7161     65.886    118.506  97.518079     3.5105      8.172   177.2859 1.8703e+01     9.1730      4.938      7.162    16.1599 0.0000e+00
      5.040      0.029     6.6292     65.714    118.291  97.408142     3.5050      8.172   177.0112 1.8641e+01     9.4271      4.943      7.169    16.1260 0.0000e+00
      5.045      0.033     6.5558     65.664    117.978  97.125333     3.4988      8.173   177.2763 1.8559e+01     9.6064      4.947      7.176    16.1220 0.0000e+00
      5.050      0.039     6.5093     65.631    117.999  96.898978     3.4934      8.175   177.7392 1.8445e+01     9.6334      4.951      7.182    16.1224 0.0000e+00
      5.058      0.045     6.4793     65.491    118.309  96.771238     3.5469      8.175   177.8747 1.8220e+01     9.7186      4.958      7.192    16.1296 0.0000e+00
      5.072      0.051     6.4541     65.199    118.641  96.662285     3.6470      8.175   177.7106 1.7851e+01     9.9200      4.972      7.211    16.1789 0.0000e+00
      5.091      0.053     6.4500     64.736    118.978  96.599452     3.6881      8.175   177.5617 1.7432e+01    10.0186      4.993      7.240    16.2058 0.0000e+00
      5.110      0.053     6.4710     64.104    119.295  96.583907     3.6703      8.174   177.4514 1.7073e+01     9.9891      5.012      7.269    16.0769 0.0000e+00
      5.125      0.048     6.4819     63.308    119.540  96.601280     3.6315      8.174   177.3233 1.6843e+01     9.9729      5.027      7.291    15.8859 0.0000e+00
      5.137      0.040     6.4773     62.381    119.673  96.618357     3.5768      8.174   177.3038 1.6715e+01     9.9924      5.039      7.308    15.7301 0.0000e+00
      5.144      0.032     6.4497     61.409    119.688  96.599353     3.5417      8.174   177.4740 1.6645e+01    10.0201      5.046      7.318    15.5825 0.0000e+00
      5.147      0.026     6.4041     60.504    119.668  96.562409     3.5402      8.174   177.7463 1.6593e+01    10.0349      5.048      7.321    15.4631 0.0000e+00
      5.150      0.024     6.3345     59.785    119.638  96.489855     3.5419      8.174   178.0998 1.6533e+01    10.0014      5.050      7.323    15.3877 0.0000e+00
      5.155      0.027     6.2414     59.259    119.598  96.358479     3.5116      8.174   178.3928 1.6440e+01     9.8539      5.054      7.330    15.3541 0.0000e+00
      5.162      0.032     6.1430     58.874    119.642  96.246655     3.4569      8.175   178.4493 1.6288e+01     9.6519      5.062      7.342    15.3508 0.0000e+00
      5.172      0.036     6.0453     58.634    119.792  96.219523     3.4224      8.178   178.3530 1.6105e+01     9.5396      5.071      7.354    15.3461 0.0000e+00
      5.182      0.038     5.9766     58.504    120.000  96.284811     3.4186      8.179   178.3468 1.5866e+01     9.5552      5.081      7.369    15.3303 0.0000e+00
      5.196      0.036     5.9334     58.400    120.162  96.399508     3.4356      8.179   178.4605 1.5585e+01     9.7047      5.096      7.391    15.2906 0.0000e+00
      5.209      0.032     5.9009     58.303    120.149  96.460744     3.4620      8.179   178.6091 1.5408e+01     9.8772      5.110      7.412    15.2167 0.0000e+00
      5.217      0.029     5.8868     58.198    120.038  96.452541     3.4878      8.179   179.3692 1.5373e+01     9.9338      5.118      7.424    15.1520 0.0000e+00
      5.219      0.027     5.8853     58.082    119.953  96.427712     3.5143      8.179   180.6825 1.5400e+01     9.9791      5.119      7.424    15.1018 0.0000e+00
      5.220      0.027     5.8749     58.014    119.913  96.415151     3.5496      8.179   181.2375 1.5371e+01    10.1854      5.117      7.421    15.0908 0.0000e+00
      5.225      0.027     5.8595     58.008    119.962  96.427981     3.5898      8.179   181.4335 1.5204e+01    10.4476      5.121      7.429    15.1393 0.0000e+00
      5.236      0.028     5.8461     58.039    120.126  96.455527     3.6007      8.180   181.7616 1.4968e+01    10.5185      5.133      7.445    15.1818 0.0000e+00
      5.248      0.032     5.8279     58.058    120.350  96.493509     3.5980      8.182   181.6773 1.4795e+01    10.4960      5.148      7.466    15.1901 0.0000e+00
      5.257      0.038     5.8206     57.984    120.528  96.505192     3.6407      8.183   181.4462 1.4721e+01    10.6196      5.157      7.480    15.2034 0.0000e+00
      5.263      0.044     5.8203     57.760    120.622  96.469346     3.7169      8.184   181.0328 1.4645e+01    10.8182      5.160      7.484    15.2045 0.0000e+00
      5.269      0.049     5.8315     57.314    120.704  96.441818     3.7714      8.185   180.9810 1.4458e+01    10.9501      5.164      7.490    15.1479 0.0000e+00
      5.281      0.053     5.8468     56.549    120.774  96.426802     3.8079      8.186   181.7665 1.4118e+01    11.0870      5.175      7.506    15.0813 0.0000e+00
      5.301      0.056     5.8458     55.396    120.814  96.414986     3.8669      8.187   183.3890 1.3699e+01    11.5514      5.197      7.538    15.0285 0.0000e+00
      5.322      0.056     5.8326     53.928    120.860  96.426191     3.9441      8.187   184.4232 1.3371e+01    12.2607      5.222      7.575    14.9820 0.0000e+00
      5.340      0.054     5.7956     52.343    120.890  96.434965     3.9746      8.188   183.1716 1.3181e+01    12.5912      5.238      7.598    14.9431 0.0000e+00
      5.351      0.050     5.7263     50.791    120.859  96.393774     3.9691      8.188   181.7641 1.3066e+01    12.6786      5.248      7.611    14.9122 0.0000e+00
      5.358      0.045     5.6097     49.387    120.785  96.309976     4.1778      8.187   181.5155 1.2955e+01    13.6248      5.254      7.620    14.8962 0.0000e+00
      5.366      0.041     5.4525     48.264    120.751  96.249090     4.5920      8.187   181.5430 1.2791e+01    15.3554      5.260      7.630    14.8872 0.0000e+00
      5.376      0.038     5.2880     47.471    120.775  96.230328     4.8329      8.186   181.7524 1.2581e+01    16.3867      5.271      7.645    14.8820 0.0000e+00
      5.389      0.036     5.1299     47.028    120.787  96.210365     5.0179      8.185   181.9821 1.2371e+01    16.8714      5.285      7.666    14.8765 0.0000e+00
      5.401      0.034     4.9811     46.949    120.796  96.198608     6.7372      8.185   181.9966 1.2225e+01    20.6012      5.298      7.685    14.8666 0.0000e+00
      5.409      0.031     4.8692     47.144    120.832  96.215428     9.8651      8.186   181.8428 1.2142e+01    27.4257      5.306      7.696    14.8513 0.0000e+00
      5.414      0.026     4.7913     47.509    120.853  96.222801    11.5582      8.186   181.6708 1.2077e+01    31.1352      5.309      7.700    14.8337 0.0000e+00
      5.418      0.021     4.7439     47.971    120.864  96.224102    11.7443      8.186   181.5510 1.1993e+01    31.4978      5.312      7.705    14.8209 0.0000e+00
      5.423      0.017     4.7428     48.457    120.881  96.231157    12.2816      8.185   181.5125 1.1886e+01    32.6295      5.318      7.714    14.8147 0.0000e+00
      5.428      0.014     4.7661     48.891    120.904  96.244446    18.0223      8.184   181.5506 1.1806e+01    45.1608      5.324      7.720    14.8098 0.0000e+00
      5.432      0.012     4.8059     49.261    120.924  96.257486    28.5519      8.184   181.5816 1.1777e+01    68.1339      5.327      7.726    14.8059 0.0000e+00
      5.434      0.010     4.8549     49.568    120.933  96.261532    34.3742      8.184   181.6295 1.1786e+01    80.9807      5.329      7.730    14.8033 0.0000e+00
      5.435      0.008     4.9088     49.777    120.978  96.293363    35.6169      8.184   181.6995 1.1783e+01    85.3048      5.330      7.730    14.8003 0.0000e+00
      5.436      0.007     4.9526     49.887    121.018  96.324151    43.5028      8.184   181.7389 1.1743e+01   119.9731      5.331      7.732    14.7977 0.0000e+00
      5.438      0.006     4.9885     49.920    121.000  96.315579    57.8924      8.184   181.8476 1.1697e+01   183.3921      5.333      7.735    14.7968 0.0000e+00
      5.440      0.006     5.0234     49.905    120.985  96.317007    65.7774      8.184   181.9814 1.1660e+01   218.2701      5.335      7.738    14.7964 0.0000e+00
      5.442      0.006     5.0433     49.882    120.989  96.341434    66.9031      8.184   182.1529 1.1642e+01   224.9187      5.337      7.740    14.7945 0.0000e+00
      5.443      0.005     5.0544     49.850    120.978  96.356381    71.5532      8.183   182.4584 1.1637e+01   263.9855      5.338      7.742    14.7927 0.0000e+00
      5.445      0.004     5.0563     49.803    120.972  96.370474    79.9786      8.183   182.7491 1.1619e+01   335.1608      5.339      7.744    14.7948 0.0000e+00
      5.445      0.003     5.0521     49.753    120.976  96.384569    84.5933      8.182   182.9145 1.1590e+01   374.1573      5.340      7.744    14.8007 0.0000e+00
      5.446      0.003     5.0493     49.683    120.976  96.399536    85.2017      8.181   182.9100 1.1575e+01   379.0685      5.341      7.746    14.8100 0.0000e+00
      5.447      0.002     5.0459     49.603    120.966  96.424167    87.2678      8.181   182.8670 1.1572e+01   394.2341      5.342      7.747    14.8215 0.0000e+00
      5.447      0.001     5.0382     49.550    120.913  96.427852    90.9798      8.181   182.9109 1.1572e+01   421.5359      5.341      7.747    14.8294 0.0000e+00
      5.447      0.001     5.0345     49.520    120.887  96.444143    93.0038      8.181   182.9238 1.1563e+01   436.4777      5.342      7.747    14.8325 0.0000e+00
      5.447      0.001     5.0276     49.516    120.923  96.493907    93.2713      8.180   182.9364 1.1550e+01   438.3925      5.342      7.747    14.8359 0.0000e+00
      5.447      0.000     5.0142     49.560    120.928  96.520432    94.2309      8.179   182.9784 1.1549e+01   444.6194      5.342      7.748    14.8494 0.0000e+00
      5.447 1.8643e-08     5.0086     49.649    120.863  96.510320    95.9502      8.179   183.0011 1.1544e+01   455.7447      5.343      7.749    14.8730 0.0000e+00
      5.447 2.0507e-07     5.0029     49.773    120.775  96.498971    96.8887      8.180   183.0391 1.1534e+01   461.7528      5.342      7.748    14.8905 0.0000e+00
      5.447 2.0507e-07     5.0007     49.924    120.712  96.510564    97.0464      8.181   183.0069 1.1537e+01   462.5740      5.342      7.748    14.8952 0.0000e+00
      5.447 1.8643e-08     5.0053     50.086    120.662  96.523287    97.9316      8.181   182.9566 1.1536e+01   466.1180      5.342      7.748    14.9004 0.0000e+00
      5.448 1.6948e-09     5.0123     50.256    120.619  96.525578    99.5599      8.181   183.0326 1.1528e+01   472.5958      5.342      7.748    14.9191 0.0000e+00
      5.448 1.5407e-10     5.0225     50.450    120.608  96.538313   100.4539      8.181   183.0654 1.1529e+01   476.2663      5.343      7.749    14.9459 0.0000e+00
      5.448 1.4006e-11     5.0349     50.642    120.612  96.550008   100.5509      8.180   183.0093 1.1537e+01   476.9183      5.343      7.749    14.9730 0.0000e+00
      5.448 1.2709e-12     5.0498     50.786    120.604  96.539705   100.7336      8.180   183.0423 1.1543e+01   479.5573      5.343      7.749    14.9969 0.0000e+00
      5.448 8.8711e-14     5.0635     50.907    120.612  96.541019   101.0561      8.179   183.2069 1.1539e+01   484.3308      5.343      7.749    15.0110 0.0000e+00
      5.448 -2.870e-13     5.0828     51.040    120.639  96.565892   101.2211      8.178   183.2781 1.1529e+01   486.8788      5.343      7.749    15.0193 0.0000e+00
      5.448 -3.272e-12     5.1057     51.158    120.650  96.585879   101.2212      8.178   183.2150 1.1528e+01   487.0352      5.343      7.749    15.0242 0.0000e+00
      5.448 -3.600e-11     5.1179     51.228    120.626  96.591768   101.2072      8.178   183.2185 1.1545e+01   487.2115      5.343      7.749    15.0199 0.0000e+00
      5.448 -3.960e-10     5.1286     51.242    120.552  96.573482   101.1191      8.177   183.2342 1.1569e+01   489.2154      5.343      7.749    15.0155 0.0000e+00
      5.448 -4.356e-09     5.1440     51.225    120.476  96.555761   100.9804      8.177   183.3183 1.1564e+01   492.8527      5.343      7.750    15.0186 0.0000e+00
      5.448 -4.792e-08     5.1561     51.205    120.461  96.568479   100.9198      8.177   183.5482 1.1531e+01   494.8790      5.343      7.749    15.0222 0.0000e+00
      5.448 -5.271e-07     5.1630     51.192    120.501  96.600002   100.9106      8.178   183.7763 1.1522e+01   495.2006      5.344      7.750    15.0310 0.0000e+00
      5.448      0.000     5.1610     51.222    120.540  96.618686   100.8272      8.178   184.0973 1.1531e+01   496.4685      5.343      7.749    15.0505 0.0000e+00
      5.449     -0.000     5.1551     51.297    120.530  96.603446   100.6774      8.177   185.1066 1.1521e+01   498.7994      5.343      7.750    15.0723 0.0000e+00
      5.449     -0.001     5.1529     51.382    120.513  96.606641   100.5150      8.177   187.2896 1.1506e+01   499.6070      5.344      7.750    15.0835 0.0000e+00
      5.449     -0.003     5.1495     51.477    120.516  96.657339    99.5706      8.178   189.4120 1.1510e+01   493.9709      5.344      7.751    15.0805 0.0000e+00
      5.449     -0.010     5.1528     51.594    120.502  96.707350    89.3002      8.179   189.6023 1.1535e+01   430.7555      5.344      7.750    15.0733 0.0000e+00
      5.448     -0.029     5.1640     51.698    120.497  96.765902    70.4709      8.179   188.6445 1.1573e+01   314.8583      5.343      7.750    15.0672 0.0000e+00
      5.446     -0.062     5.1717     51.793    120.643  96.983503    60.0931      8.178   188.2415 1.1642e+01   251.2189      5.341      7.747    15.0714 0.0000e+00
      5.439     -0.103     5.1763     51.953    120.825  97.365508    57.8905      8.178   188.5156 1.1827e+01   240.2302      5.338      7.743    15.0962 0.0000e+00
      5.418     -0.143     5.1880     52.243    120.562  97.566342    43.8812      8.177   188.9481 1.2497e+01   181.5517      5.327      7.727    15.1253 0.0000e+00
      5.368     -0.172     5.1963     52.745    119.859  97.439313    18.3507      8.175   188.9103 1.3832e+01    74.8676      5.276      7.653    15.1467 0.0000e+00
      5.292     -0.186     5.1986     53.530    119.289  97.230354     4.4317      8.174   188.1446 1.5302e+01    16.7111      5.187      7.523    15.1719 0.0000e+00
      5.218     -0.189     5.2047     54.569    119.161  97.140419     3.1732      8.174   187.7776 1.6380e+01    11.4098      5.107      7.407    15.2519 0.0000e+00
      5.167     -0.185     5.2082     55.739    119.327  97.179298     3.0752      8.173   188.8603 1.6969e+01    11.1119      5.059      7.336    15.4519 0.0000e+00
      5.140     -0.178     5.2290     56.943    119.437  97.254787     3.0968      8.172   190.3087 1.7269e+01    11.4353      5.037      7.305    15.6813 0.0000e+00
      5.121     -0.171     5.2951     58.115    119.264  97.289394     3.1188      8.171   190.4061 1.7756e+01    11.5973      5.027      7.291    15.7912 0.0000e+00
      5.087     -0.168     5.4069     59.214    118.918  97.279740     3.1246      8.169   189.3493 1.8851e+01    11.5673      4.999      7.252    15.7760 0.0000e+00
      5.028     -0.171     5.5336     60.206    118.661  97.265700     3.1586      8.168   188.5435 2.0348e+01    11.2088      4.934      7.155    15.7007 0.0000e+00
      4.963     -0.175     5.6590     61.088    118.535  97.247179     3.2300      8.167   188.2355 2.1561e+01    10.5419      4.857      7.044    15.6737 0.0000e+00
      4.913     -0.174     5.7662     61.914    118.508  97.246824     3.2728      8.165   188.3775 2.2320e+01    10.1659      4.813      6.981    15.7641 0.0000e+00
      4.877     -0.166     5.8556     62.647    118.549  97.261449     3.2674      8.164   188.7980 2.3028e+01    10.1118      4.785      6.941    15.9193 0.0000e+00
      4.842     -0.156     5.9464     63.231    118.487  97.233042     3.1900      8.163   188.6739 2.3705e+01     9.9566      4.746      6.884    16.0012 0.0000e+00
      4.811     -0.147     6.0248     63.689    118.283  97.221591     3.0610      8.162   187.9098 2.4357e+01     9.6557      4.718      6.843    16.0192 0.0000e+00
      4.778     -0.139     6.1074     64.034    118.040  97.250491     2.9985      8.160   187.5607 2.5371e+01     9.4798      4.692      6.806    16.0381 0.0000e+00
      4.735     -0.126     6.1864     64.254    117.870  97.264550     3.0004      8.158   188.0666 2.6621e+01     9.5036      4.643      6.734    16.0132 0.0000e+00
      4.690     -0.108     6.2424     64.351    117.828  97.264480     3.0259      8.156   188.2616 2.7594e+01     9.8747      4.593      6.662    16.0000 0.0000e+00
      4.658     -0.088     6.2777     64.343    117.837  97.249679     3.0815      8.154   187.5969 2.8032e+01    10.4826      4.561      6.615    16.0773 0.0000e+00
      4.644     -0.075     6.2947     64.256    117.705  97.149189     3.1320      8.154   187.2574 2.7996e+01    10.7733      4.549      6.597    16.2080 0.0000e+00
      4.643     -0.073     6.3075     64.166    117.295  96.940487     3.1525      8.153   187.3394 2.7844e+01    10.7938      4.553      6.603    16.2771 0.0000e+00
      4.644     -0.085     6.3156     64.176    116.725  96.763017     3.1466      8.151   186.7812 2.7959e+01    10.7985      4.558      6.611    16.2785 0.0000e+00
      4.632     -0.113     6.3179     64.340    116.043  96.594859     3.0767      8.151   186.6175 2.8745e+01    11.1371      4.553      6.604    16.2559 0.0000e+00
      4.595     -0.148     6.3076     64.642    115.248  96.371568     2.9572      8.150   187.3385 3.0223e+01    11.8482      4.514      6.547    16.2465 0.0000e+00
      4.540     -0.181     6.2889     65.106    114.581  96.291223     2.8917      8.148   187.4974 3.1906e+01    12.2563      4.453      6.458    16.2891 0.0000e+00
      4.480     -0.202     6.2688     65.733    114.201  96.387714     2.8929      8.146   186.8174 3.3682e+01    12.2800      4.395      6.375    16.4282 0.0000e+00
      4.415     -0.210     6.2621     66.397    114.014  96.456887     2.9384      8.145   185.9134 3.5447e+01    12.0328      4.329      6.279    16.6198 0.0000e+00
      4.354     -0.208     6.2681     67.005    113.727  96.300527     3.0093      8.144   185.6024 3.6819e+01    11.5895      4.263      6.182    16.7918 0.0000e+00
      4.306     -0.206     6.2792     67.519    112.957  95.770080     3.0425      8.142   185.8102 3.7795e+01    11.3610      4.218      6.117    17.0215 0.0000e+00
      4.267     -0.210     6.3199     67.942    111.821  95.134556     3.0403      8.139   185.6723 3.8728e+01    11.2857      4.186      6.072    17.2382 0.0000e+00
      4.224     -0.219     6.3751     68.380    110.558  94.598891     3.0081      8.137   185.5700 3.9928e+01    10.8844      4.149      6.017    17.3189 0.0000e+00
      4.169     -0.232     6.4316     68.902    109.253  94.130445     2.9443      8.135   186.4665 4.1409e+01    10.2656      4.094      5.938    17.3328 0.0000e+00
      4.100     -0.241     6.4820     69.543    108.385  94.053151     2.8927      8.133   188.2507 4.3015e+01     9.9867      4.024      5.836    17.3471 0.0000e+00
      4.025     -0.235     6.4955     70.364    108.081  94.301597     2.8672      8.131   189.6774 4.4663e+01    10.0410      3.948      5.726    17.4949 0.0000e+00
      3.949     -0.211     6.4984     71.314    108.018  94.462441     2.8354      8.129   190.2946 4.6166e+01    10.7852      3.870      5.612    17.7719 0.0000e+00
      3.884     -0.171     6.5101     72.275    108.083  94.534585     2.7824      8.128   190.8082 4.7176e+01    12.1530      3.799      5.509    18.0628 0.0000e+00
      3.845     -0.125     6.5187     73.167    108.141  94.537533     2.7508      8.129   191.3273 4.7512e+01    12.8807      3.761      5.454    18.4098 0.0000e+00
      3.833     -0.080     6.5618     73.856    107.941  94.307102     2.7532      8.129   191.3234 4.7391e+01    12.9229      3.755      5.447    18.6854 0.0000e+00
      3.834     -0.045     6.6477     74.276    107.506  93.975581     2.7703      8.129   191.0190 4.7180e+01    13.0045      3.760      5.454    18.7525 0.0000e+00
      3.836     -0.020     6.7396     74.497    107.109  93.838157     2.7820      8.128   190.8304 4.7064e+01    13.1841      3.763      5.458    18.7281 0.0000e+00
      3.835     -0.006     6.8316     74.602    107.001  93.982111     2.7697      8.127   190.3339 4.7058e+01    13.2496      3.762      5.457    18.7169 0.0000e+00
      3.830     -0.003     6.9070     74.652    107.126  94.189256     2.7629      8.125   189.1453 4.7079e+01    13.2164      3.755      5.447    18.6599 0.0000e+00
      3.826     -0.009     6.9401     74.632    107.115  94.115679     2.7838      8.123   187.8166 4.6979e+01    13.1580      3.749      5.438    18.6651 0.0000e+00
      3.826     -0.027     6.9413     74.518    106.931  93.919626     2.8062      8.123   187.3460 4.6697e+01    13.0560      3.751      5.439    18.7959 0.0000e+00
      3.831     -0.056     6.9270     74.406    106.738  93.918630     2.8175      8.123   187.8430 4.6433e+01    13.0081      3.758      5.451    18.9407 0.0000e+00
      3.829     -0.092     6.9254     74.416    106.513  94.040244     2.8205      8.122   188.1485 4.6660e+01    12.9197      3.764      5.460    18.9958 0.0000e+00
      3.804     -0.132     6.9366     74.560    106.381  94.181476     2.7421      8.120   187.7691 4.7680e+01    12.1930      3.743      5.428    18.9218 0.0000e+00
      3.751     -0.172     6.9290     74.767    106.443  94.290301     2.5861      8.119   187.5577 4.9095e+01    10.9504      3.684      5.343    18.8663 0.0000e+00
      3.686     -0.208     6.9008     75.010    106.593  94.337967     2.4900      8.118   187.3144 5.0357e+01    10.2605      3.612      5.238    18.9580 0.0000e+00
      3.625     -0.235     6.8741     75.272    106.740  94.439502     2.4715      8.117   186.6335 5.1487e+01    10.1718      3.553      5.152    19.1552 0.0000e+00
      3.566     -0.252     6.8708     75.498    106.990  94.817918     2.4705      8.115   186.6382 5.2713e+01    10.1517      3.501      5.076    19.3050 0.0000e+00
      3.502     -0.262     6.8886     75.728    107.391  95.540878     2.4942      8.113   187.2859 5.4050e+01     9.7781      3.435      4.982    19.3161 0.0000e+00
      3.434     -0.271     6.9212     76.096    107.332  96.053858     2.5412      8.110   187.0650 5.5382e+01     9.0709      3.366      4.883    19.2335 0.0000e+00
      3.364     -0.281     6.9556     76.696    106.885  96.248255     2.5724      8.108   186.0323 5.6804e+01     8.6719      3.301      4.789    19.1945 0.0000e+00
      3.288     -0.291     6.9626     77.554    107.170  96.937531     2.5728      8.106   185.1243 5.8387e+01     8.6089      3.225      4.678    19.2794 0.0000e+00
      3.210     -0.301     6.9565     78.691    107.717  97.833228     2.4955      8.102   184.6045 5.9839e+01     8.3085      3.146      4.564    19.4357 0.0000e+00
      3.135     -0.306     6.9461     80.115    107.483  98.104929     2.3623      8.100   184.7377 6.1219e+01     7.7394      3.077      4.463    19.7270 0.0000e+00
      3.055     -0.304     6.9529     81.782    107.085  98.123126     2.3014      8.097   185.6157 6.2660e+01     7.4317      2.998      4.349    20.0773 0.0000e+00
      2.972     -0.292     7.0095     83.598    106.933  98.181069     2.3004      8.092   186.1867 6.4017e+01     7.3896      2.912      4.225    20.2222 0.0000e+00
      2.891     -0.277     7.0911     85.410    107.008  98.360244     2.2343      8.087   185.1882 6.5255e+01     7.2636      2.834      4.110    20.3662 0.0000e+00
      2.817     -0.267     7.1793     87.021    107.907  99.271283     2.1102      8.083   183.6961 6.6358e+01     7.0026      2.757      3.997    20.6659 0.0000e+00
      2.758     -0.265     7.3044     88.282    109.178 100.603788     2.0480      8.079   182.9445 6.7241e+01     6.7956      2.697      3.911    20.8502 0.0000e+00
      2.712     -0.270     7.4641     89.230    109.738 101.423215     2.0400      8.077   182.2086 6.8075e+01     6.7077      2.664      3.864    20.9071 0.0000e+00
      2.657     -0.281     7.6224     89.972    109.895 101.922877     1.9463      8.075   182.1131 6.9353e+01     6.5207      2.618      3.796    20.9663 0.0000e+00
      2.576     -0.294     7.7721     90.666    110.259 102.571601     1.7732      8.074   182.3060 7.1028e+01     6.1739      2.530      3.670    20.9803 0.0000e+00
      2.482     -0.308     7.8719     91.470    110.457 103.028744     1.6776      8.073   181.5294 7.2724e+01     5.9645      2.431      3.527    21.0333 0.0000e+00
      2.391     -0.318     7.9274     92.398    110.378 103.185362     1.6645      8.072   181.2413 7.4494e+01     5.9706      2.342      3.398    21.2013 0.0000e+00
      2.307     -0.318     7.9619     93.438    110.562 103.510665     1.6404      8.072   181.1456 7.6379e+01     5.9746      2.258      3.276    21.3806 0.0000e+00
      2.232     -0.310     7.9933     94.533    110.996 104.033691     1.6024      8.073   180.1134 7.8227e+01     5.9095      2.188      3.174    21.5126 0.0000e+00
      2.160     -0.300     8.0493     95.583    111.385 104.543661     1.5787      8.073   179.5164 8.0091e+01     5.8665      2.120      3.073    21.6349 0.0000e+00
      2.085     -0.291     8.1102     96.538    111.656 104.965668     1.5621      8.072   179.6057 8.1929e+01     5.8655      2.044      2.963    21.7553 0.0000e+00
      2.011     -0.283     8.1940     97.352    111.734 105.189083     1.5178      8.071   179.2145 8.3821e+01     5.7614      1.973      2.863    21.8124 0.0000e+00
      1.936     -0.277     8.2901     98.028    111.699 105.271508     1.4518      8.071   178.1418 8.6290e+01     5.5640      1.900      2.755    21.8482 0.0000e+00
      1.861     -0.273     8.3692     98.604    111.736 105.389414     1.4211      8.071   177.1327 8.8887e+01     5.4596      1.820      2.639    21.9197 0.0000e+00
      1.796     -0.268     8.4433     99.126    111.881 105.596096     1.4216      8.071   176.3915 9.1274e+01     5.4555      1.758      2.550    22.0022 0.0000e+00
      1.736     -0.262     8.5012     99.591    112.084 105.860529     1.3828      8.070   175.4606 9.3810e+01     5.4465      1.706      2.474    22.0732 0.0000e+00
      1.672     -0.251     8.5514     99.965    112.460 106.294658     1.3094      8.068   174.9111 9.6472e+01     5.4182      1.644      2.382    22.1215 0.0000e+00
      1.600     -0.237     8.5940    100.301    112.865 106.770289     1.2754      8.067   176.1156 9.9553e+01     5.4212      1.569      2.276    22.1583 0.0000e+00
      1.530     -0.227     8.6341    100.636    112.936 106.963450     1.2790      8.066   177.2041 1.0262e+02     5.4485      1.493      2.167    22.1833 0.0000e+00
      1.475     -0.224     8.6734    100.939    113.019 107.165880     1.2530      8.066   175.6822 1.0529e+02     5.4412      1.440      2.089    22.2181 0.0000e+00
      1.434     -0.230     8.6954    101.221    113.464 107.689838     1.1856      8.067   174.0619 1.0807e+02     5.3666      1.406      2.040    22.2540 0.0000e+00
      1.393     -0.244     8.7182    101.537    113.804 108.141066     1.1305      8.069   173.5301 1.1128e+02     5.2645      1.371      1.989    22.2846 0.0000e+00
      1.337     -0.263     8.7388    101.924    113.806 108.291896     1.1118      8.070   172.9520 1.1576e+02     5.1972      1.320      1.915    22.3516 0.0000e+00
      1.259     -0.284     8.7537    102.363    113.769 108.367555     1.1090      8.071   173.1812 1.2161e+02     5.1680      1.242      1.801    22.4146 0.0000e+00
      1.165     -0.304     8.7718    102.824    113.886 108.546601     1.0725      8.073   174.1512 1.2774e+02     5.1162      1.140      1.654    22.4418 0.0000e+00
      1.075     -0.314     8.7873    103.306    114.023 108.737520     1.0106      8.074   174.4402 1.3385e+02     5.0496      1.048      1.520    22.4998 0.0000e+00
      0.995     -0.315     8.8080    103.806    113.983 108.765674     0.9856      8.074   174.0085 1.4059e+02     5.0789      0.976      1.415    22.5831 0.0000e+00
      0.920     -0.309     8.8401    104.301    113.989 108.823441     0.9775      8.075   173.5778 1.4725e+02     5.1289      0.902      1.308    22.6276 0.0000e+00
      0.846     -0.300     8.8749    104.723    114.129 108.990296     0.9799      8.077   174.1377 1.5425e+02     5.1074      0.829      1.202    22.6508 0.0000e+00
      0.772     -0.286     8.9141    105.047    114.158 109.063820     1.0141      8.077   175.1852 1.6349e+02     5.0925      0.759      1.100    22.6731 0.0000e+00
      0.696     -0.263     8.9496    105.285    114.186 109.139367     1.0412      8.075   174.7132 1.7334e+02     5.0856      0.685      0.993    22.7095 0.0000e+00
      0.617     -0.228     8.9922    105.421    114.269 109.266997     1.0416      8.072   173.5937 1.8149e+02     5.0231      0.603      0.875    22.7353 0.0000e+00
      0.548     -0.184     9.0290    105.492    114.208 109.269772     1.0357      8.071   173.5223 1.8774e+02     5.0206      0.527      0.765    22.7367 0.0000e+00
      0.504     -0.135     9.0494    105.514    114.061 109.173013     1.0278      8.071   174.1082 1.9072e+02     5.1919      0.483      0.702    22.7640 0.0000e+00
      0.488     -0.083     9.0698    105.483    113.995 109.116042     1.0215      8.071   174.9129 1.9156e+02     5.3519      0.475      0.689    22.7872 0.0000e+00
      0.487     -0.034     9.0755    105.433    114.044 109.154062     1.0170      8.071   175.7673 1.9206e+02     5.3841      0.478      0.694    22.7986 0.0000e+00
      0.488      0.006     9.0756    105.398    114.010 109.123257     1.0244      8.071   175.4898 1.9051e+02     5.4456      0.478      0.693    22.8370 0.0000e+00
      0.494      0.034     9.0744    105.398    113.546 108.679900     1.0443      8.071   174.3973 1.8766e+02     5.5484      0.481      0.698    22.8597 0.0000e+00
      0.507      0.050     9.0701    105.396    113.022 108.123584     1.0571      8.072   174.0017 1.8271e+02     5.6021      0.495      0.718    22.8564 0.0000e+00
      0.525      0.057     9.0672    105.325    113.080 108.064132     1.0549      8.074   174.1477 1.7696e+02     5.5824      0.514      0.747    22.8483 0.0000e+00
      0.546      0.056     9.0620    105.129    113.413 108.279330     1.0506      8.076   174.0968 1.7218e+02     5.4468      0.536      0.777    22.8484 0.0000e+00
      0.567      0.049     9.0616    104.814    113.618 108.433015     1.0554      8.078   173.4731 1.6769e+02     5.2949      0.558      0.808    22.8630 0.0000e+00
      0.582      0.038     9.0672    104.478    113.705 108.521363     1.0624      8.080   172.4568 1.6480e+02     5.2486      0.574      0.834    22.8419 0.0000e+00
      0.588      0.029     9.0748    104.206    113.742 108.583417     1.0688      8.081   171.7897 1.6324e+02     5.2630      0.579      0.840    22.7725 0.0000e+00
      0.585      0.024     9.0684    104.000    113.866 108.737593     1.0661      8.082   171.6882 1.6340e+02     5.2975      0.573      0.831    22.7186 0.0000e+00
      0.581      0.023     9.0385    103.880    114.073 108.984608     1.0554      8.083   171.7456 1.6328e+02     5.3586      0.566      0.821    22.7066 0.0000e+00
      0.585      0.026     9.0054    103.910    114.303 109.277677     1.0477      8.083   171.7093 1.6213e+02     5.3874      0.569      0.826    22.7125 0.0000e+00
      0.599      0.033     8.9806    104.111    114.480 109.542932     1.0480      8.085   171.6803 1.6138e+02     5.3381      0.587      0.852    22.7260 0.0000e+00
      0.614      0.041     8.9605    104.444    114.542 109.708378     1.0340      8.087   171.7390 1.6068e+02     5.2066      0.604      0.877    22.7413 0.0000e+00
      0.625      0.047     8.9433    104.844    114.613 109.877233     0.9941      8.088   171.8158 1.6099e+02     5.0606      0.614      0.891    22.7592 0.0000e+00
      0.635      0.051     8.9399    105.210    114.701 110.056317     0.9658      8.088   172.0068 1.6170e+02     5.0084      0.622      0.902    22.7926 0.0000e+00
      0.645      0.055     8.9518    105.490    114.700 110.154370     0.9578      8.089   172.7579 1.6214e+02     5.0196      0.631      0.916    22.8364 0.0000e+00
      0.659      0.057     8.9728    105.700    114.622 110.171367     0.9648      8.090   174.0146 1.6255e+02     5.0600      0.645      0.936    22.8858 0.0000e+00
      0.675      0.057     9.0040    105.862    114.524 110.134593     0.9753      8.092   174.8978 1.6190e+02     5.1209      0.660      0.958    22.9311 0.0000e+00
      0.695      0.052     9.0306    105.978    114.456 110.091920     0.9755      8.092   175.2624 1.6076e+02     5.1409      0.680      0.987    22.9673 0.0000e+00
      0.715      0.042     9.0458    106.045    114.399 110.037534     0.9844      8.093   175.5835 1.6007e+02     5.1311      0.706      1.023    23.0130 0.0000e+00
      0.728      0.028     9.0549    106.075    114.364 109.986488     0.9838      8.096   176.0271 1.5977e+02     5.1048      0.718      1.041    23.0602 0.0000e+00
      0.730      0.014     9.0645    106.075    114.388 109.984157     0.9593      8.099   176.3236 1.5998e+02     5.0628      0.718      1.042    23.0843 0.0000e+00
      0.726      0.002     9.0741    106.066    114.429 110.009316     0.9460      8.101   176.2434 1.6010e+02     5.0325      0.713      1.034    23.0899 0.0000e+00
      0.719     -0.004     9.0784    106.048    114.455 110.035928     0.9479      8.103   176.0906 1.6010e+02     5.0114      0.703      1.020    23.0920 0.0000e+00
      0.714     -0.006     9.0832    106.006    114.459 110.051188     0.9491      8.106   176.1107 1.6036e+02     5.0131      0.699      1.013    23.0824 0.0000e+00
      0.714     -0.004     9.0847    105.982    114.459 110.066488     0.9438      8.106   176.2273 1.6018e+02     5.0524      0.699      1.014    23.0662 0.0000e+00
      0.717     -0.002     9.0846    105.975    114.476 110.093569     0.9245      8.107   176.2964 1.5974e+02     5.0771      0.703      1.020    23.0605 0.0000e+00
      0.720     -0.002     9.0851    105.944    114.503 110.123906     0.9161      8.109   176.2578 1.5916e+02     5.0726      0.707      1.025    23.0626 0.0000e+00
      0.721     -0.003     9.0770    105.895    114.550 110.178558     0.9254      8.110   176.1916 1.5881e+02     5.1006      0.708      1.027    23.0685 0.0000e+00
      0.719     -0.005     9.0737    105.848    114.586 110.244910     0.9290      8.111   176.0120 1.5922e+02     5.1426      0.705      1.023    23.0765 0.0000e+00
      0.714     -0.006     9.0755    105.836    114.580 110.289381     0.9255      8.113   175.1183 1.5893e+02     5.1360      0.700      1.015    23.0813 0.0000e+00
      0.710     -0.003     9.0707    105.867    114.583 110.334222     0.9251      8.113   174.2476 1.5864e+02     5.0889      0.696      1.009    23.0822 0.0000e+00
      0.709      0.004     9.0668    105.869    114.629 110.405045     0.9256      8.111   174.8629 1.5830e+02     5.0516      0.694      1.007    23.0822 0.0000e+00
      0.709      0.012     9.0596    105.820    114.632 110.445200     0.9223      8.109   175.8471 1.5736e+02     5.0263      0.695      1.008    23.0954 0.0000e+00
      0.712      0.016     9.0512    105.793    114.507 110.374006     0.9351      8.109   175.9947 1.5708e+02     4.9883      0.696      1.010    23.1249 0.0000e+00
      0.720      0.013     9.0551    105.800    114.351 110.244842     0.9560      8.109   175.7877 1.5553e+02     5.0013      0.703      1.019    23.1453 0.0000e+00
      0.735      0.010     9.0555    105.780    114.354 110.220880     0.9578      8.108   175.6671 1.5411e+02     5.0808      0.723      1.048    23.1492 0.0000e+00
      0.743      0.012     9.0445    105.714    114.511 110.338965     0.9404      8.108   175.7406 1.5422e+02     5.1305      0.738      1.071    23.1633 0.0000e+00
      0.733      0.019     9.0367    105.660    114.625 110.462560     0.9288      8.108   175.8163 1.5389e+02     5.1575      0.723      1.048    23.1955 0.0000e+00
      0.718      0.024     9.0378    105.658    114.609 110.505275     0.9343      8.108   175.7215 1.5434e+02     5.1685      0.697      1.010    23.2094 0.0000e+00
      0.722      0.025     9.0408    105.698    114.520 110.473426     0.9313      8.109   175.6274 1.5395e+02     5.1266      0.699      1.013    23.1893 0.0000e+00
      0.748      0.022     9.0363    105.740    114.421 110.395977     0.9099      8.111   175.6244 1.5202e+02     5.0619      0.733      1.063    23.1627 0.0000e+00
      0.775      0.020     9.0295    105.758    114.374 110.333067     0.8920      8.114   175.5997 1.5085e+02     5.0003      0.768      1.115    23.1699 0.0000e+00
      0.783      0.017     9.0234    105.778    114.423 110.349602     0.8896      8.115   175.5868 1.5082e+02     4.9624      0.777      1.126    23.2066 0.0000e+00
      0.771      0.011     9.0233    105.826    114.500 110.404797     0.8896      8.116   175.6408 1.5277e+02     4.9793      0.758      1.100    23.2342 0.0000e+00
      0.755      0.003     9.0276    105.901    114.524 110.427249     0.9003      8.117   175.6508 1.5521e+02     5.0338      0.735      1.067    23.2410 0.0000e+00
      0.750      0.000     9.0291    105.969    114.516 110.430009     0.9357      8.119   175.5348 1.5562e+02     5.0751      0.729      1.057    23.2301 0.0000e+00
      0.760      0.003     9.0333    106.006    114.511 110.438191     0.9760      8.121   175.4431 1.5529e+02     5.1023      0.745      1.080    23.2119 0.0000e+00
      0.773      0.008     9.0388    106.050    114.525 110.462510     0.9962      8.122   175.6604 1.5537e+02     5.1238      0.762      1.107    23.2028 0.0000e+00
      0.778      0.009     9.0461    106.102    114.522 110.469335     0.9889      8.123   176.3555 1.5582e+02     5.0970      0.766      1.111    23.2044 0.0000e+00
      0.777      0.000     9.0529    106.116    114.502 110.457040     0.9779      8.124   177.0501 1.5744e+02     5.0171      0.762      1.105    23.2098 0.0000e+00
      0.774     -0.017     9.0522    106.069    114.479 110.441227     0.9721      8.126   176.0571 1.5862e+02     4.9776      0.758      1.099    23.2166 0.0000e+00
      0.771     -0.042     9.0548    105.969    114.434 110.405517     0.9598      8.126   173.2978 1.5781e+02     4.9942      0.757      1.099    23.2215 0.0000e+00
      0.765     -0.077     9.0616    105.867    114.428 110.407396     0.9543      8.127   171.0480 1.5679e+02     5.0138      0.754      1.094    23.2250 0.0000e+00
      0.751     -0.122     9.0619    105.816    114.473 110.463957     0.9479      8.128   169.6765 1.5708e+02     5.0783      0.739      1.072    23.2284 0.0000e+00
      0.724     -0.172     9.0579    105.792    114.503 110.516274     0.9329      8.129   168.4162 1.5902e+02     5.1581      0.719      1.042    23.2308 0.0000e+00
      0.672     -0.223     9.0470    105.729    114.618 110.657890     0.9301      8.131   167.3396 1.6240e+02     5.1586      0.672      0.976    23.2341 0.0000e+00
      0.592     -0.280     9.0352    105.644    114.941 111.029947     0.9222      8.132   166.4675 1.6378e+02     5.0850      0.582      0.845    23.2379 0.0000e+00
      0.504     -0.335     9.0310    105.634    115.216 111.448483     0.8797      8.131   165.7869 1.5966e+02     4.9853      0.486      0.706    23.2413 0.0000e+00
      0.424     -0.370     9.0307    105.773    115.221 111.706372     0.8239      8.130   165.4779 1.5639e+02     4.9433      0.420      0.609    23.2526 0.0000e+00
      0.329     -0.368     9.0223    106.043    115.153 111.919399     0.7888      8.128   165.3981 1.6501e+02     4.9881      0.341      0.494    23.2664 0.0000e+00
      0.203     -0.328     9.0091    106.348    115.028 112.050241     0.7793      8.127   165.2527 1.9463e+02     5.0140      0.202      0.293    23.2762 0.0000e+00
      0.074     -0.267     8.9958    106.601    114.800 112.014968     0.7758      8.127   165.0107 2.3068e+02     4.9834      0.050      0.072    23.3382 0.0000e+00
     -0.004     -0.203     8.9850    106.729    114.697 112.002704     0.7719      8.129   164.4515 2.4429e+02     4.9934     -0.031     -0.044    23.4693 0.0000e+00
     -0.015     -0.152     8.9915    106.681    114.753 112.093144     0.7731      8.132   163.6533 2.4079e+02     5.0337     -0.025     -0.035    23.5947 0.0000e+00
      0.005     -0.128     9.0000    106.503    114.892 112.280571     0.7817      8.135   163.5337 2.4041e+02     5.0597      0.007      0.011    23.7072 0.0000e+00
      0.020     -0.143     9.0076    106.302    115.060 112.549327     0.7848      8.136   164.5532 2.6151e+02     5.1032      0.031      0.046    23.8023 0.0000e+00
     -0.000     -0.190     9.0162    106.077    115.073 112.731530     0.7690      8.135   165.6566 2.9826e+02     5.1502      0.023      0.033    23.8284 0.0000e+00
     -0.075     -0.246     9.0112    105.664    114.836 112.700497     0.7566      8.134   166.2913 3.1292e+02     5.1834     -0.059     -0.087    23.8296 0.0000e+00
     -0.188     -0.284     8.9862    104.766    114.399 112.429179     0.7516      8.136   166.8929 3.0155e+02     5.6065     -0.186     -0.270    23.8511 0.0000e+00
     -0.302     -0.287     8.9640    103.358    112.735 110.852482     0.7180      8.139   167.8540 2.7568e+02    10.6769     -0.304     -0.440    23.8910 0.0000e+00
     -0.394     -0.254     8.9349    101.706     96.867  95.229132     0.6577      8.142   169.3937 2.4311e+02    19.9975     -0.400     -0.580    23.9703 0.0000e+00
     -0.451     -0.195     8.8952     99.829     62.172  61.086702     0.6216      8.146   170.8827 2.2961e+02    25.0120     -0.453     -0.656    24.0718 0.0000e+00
     -0.476     -0.128     8.8137     98.216     33.602  32.988291     0.6137      8.150   171.2302 2.3051e+02    24.8836     -0.470     -0.683    24.1511 0.0000e+00
     -0.484     -0.071     8.6668     97.701     22.546  22.115455     0.4622      8.152   171.2729 2.1181e+02    18.8891     -0.476     -0.691    24.1762 0.0000e+00
     -0.485     -0.032     8.5490     98.146     17.651  17.301220     0.1390      8.154   172.6035 1.6782e+02     7.8711     -0.476     -0.690    24.1458 0.0000e+00
     -0.485     -0.011     8.3861     98.834     15.745  15.416775    -0.0566      8.157   174.4125 1.2613e+02     1.9328     -0.476     -0.690    24.1022 0.0000e+00
     -0.485     -0.002     8.2103     99.122     17.526  17.143798    -0.0633      8.159   175.8514 1.0342e+02     1.4718     -0.475     -0.689    24.0675 0.0000e+00
     -0.485      0.001     8.1868     98.379     19.870  19.419679    -0.0501      8.160   177.0099 9.1507e+01     1.2728     -0.476     -0.690    24.0344 0.0000e+00
     -0.485      0.001     8.2595     96.516     18.061  17.640680    -0.0635      8.161   177.9226 8.4929e+01     0.9605     -0.475     -0.688    23.9993 0.0000e+00
     -0.485      0.001     8.3310     94.173     11.950  11.665821    -0.0669      8.162   178.6268 8.4312e+01     0.8388     -0.474     -0.689    23.9571 0.0000e+00
     -0.484      0.001     8.3967     92.986      8.483   8.277967    -0.0583      8.163   178.8985 8.5317e+01     0.8598     -0.475     -0.690    23.9094 0.0000e+00
     -0.483 -9.990e-29     8.3362 -9.990e-29 -9.990e-29 -9.990e-29 -9.990e-29 -9.990e-29 -9.990e-29 8.1948e+01 -9.990e-29     -0.474     -0.689    23.8606 0.0000e+00
     -0.483 -9.990e-29     8.1739 -9.990e-29 -9.990e-29 -9.990e-29 -9.990e-29 -9.990e-29 -9.990e-29 7.6435e+01 -9.990e-29     -0.474     -0.688    23.8223 0.0000e+00
     -0.483 -9.990e-29     7.9320 -9.990e-29 -9.990e-29 -9.990e-29 -9.990e-29 -9.990e-29 -9.990e-29 7.3537e+01 -9.990e-29     -0.474     -0.687    23.7891 0.0000e+00
     -0.483 -9.990e-29     7.7530 -9.990e-29 -9.990e-29 -9.990e-29 -9.990e-29 -9.990e-29 -9.990e-29 7.2887e+01 -9.990e-29     -0.475     -0.688    23.7690 0.0000e+00
