* Sea-Bird SBE19plus  Data File:
* FileName = C:\R\Reservoirs\Data\DataNotYetUploadedToEDI\Raw_CTD\RawDownloads\053122_bvr01_0002.hex
* Software version 2.8.0.119
* Temperature SN = 7809
* Conductivity SN = 7809
* System UpLoad Time = Jun 07 2022 07:55:34
* <ApplicationData>
* <Seaterm232>
* <SoftwareVersion>2.8.0.119</SoftwareVersion>
* <BuildDate>07-Nov-2018</BuildDate>
* </Seaterm232>
* </ApplicationData>
* <InstrumentState>
* <HardwareData DeviceType='SBE19plus' SerialNumber='01907809'>
*
*    <Manufacturer>Sea-Bird Electronics, Inc.</Manufacturer>
*
*    <FirmwareVersion>3.1.8</FirmwareVersion>
*
*    <FirmwareDate>Mar  9 2016 16:22:29</FirmwareDate>
*
*    <CommandSetVersion>1.4</CommandSetVersion>
*
*    <PCBAssembly PCBSerialNum='120721' AssemblyNum='41054J'/>
*
*    <PCBAssembly PCBSerialNum='120715' AssemblyNum='41967A'/>
*
*    <PCBAssembly PCBSerialNum='116699' AssemblyNum='41606'/>
*
*    <PCBAssembly PCBSerialNum='120719' AssemblyNum='41059D'/>
*
*    <MfgDate>28-Apr-2017</MfgDate>
*
*    <InternalSensors>
*
*       <Sensor id='Main Temperature'>
*
*          <type>temperature0</type>
*
*          <SerialNumber>01907809</SerialNumber>
*
*       </Sensor>
*
*       <Sensor id='Main Conductivity'>
*
*          <type>conductivity-0</type>
*
*          <SerialNumber>01907809</SerialNumber>
*
*       </Sensor>
*
*       <Sensor id='Main Pressure'>
*
*          <type>strain-0</type>
*
*          <SerialNumber>10586018</SerialNumber>
*
*       </Sensor>
*
*    </InternalSensors>
*
*    <ExternalSensors>
*
*       <Sensor id='volt 0'>
*
*          <type>pH</type>
*
*          <SerialNumber>27-0363</SerialNumber>
*
*       </Sensor>
*
*       <Sensor id='volt 1'>
*
*          <type>ORP</type>
*
*          <SerialNumber>27-0363</SerialNumber>
*
*       </Sensor>
*
*       <Sensor id='volt 2'>
*
*          <type>OXY</type>
*
*          <SerialNumber>43-0434</SerialNumber>
*
*       </Sensor>
*
*       <Sensor id='volt 3'>
*
*          <type>PAR</type>
*
*          <SerialNumber>1122</SerialNumber>
*
*       </Sensor>
*
*       <Sensor id='volt 4'>
*
*          <type>ECO AFL/FL</type>
*
*          <SerialNumber>FLNTURT-2496</SerialNumber>
*
*       </Sensor>
*
*       <Sensor id='volt 5'>
*
*          <type>ECO-NTU</type>
*
*          <SerialNumber>FLNTURT-2496</SerialNumber>
*
*       </Sensor>
*
*       <Sensor id='serial'>
*
*          <type>not assigned</type>
*
*          <SerialNumber>not assigned</SerialNumber>
*
*       </Sensor>
*
*    </ExternalSensors>
*
* </HardwareData>
* <StatusData DeviceType='SBE19plus' SerialNumber='01907809'>
*
*    <DateTime>2022-06-07T04:53:54</DateTime>
*
*    <LoggingState>not logging</LoggingState>
*
*    <EventSummary numEvents='0'/>
*
*    <Power>
*
*       <vMain>12.7</vMain>
*
*       <vLith>8.3</vLith>
*
*       <iMain>63.1</iMain>
*
*       <iPump>196.1</iPump>
*
*       <iExt01>20.8</iExt01>
*
*       <iExt2345>38.8</iExt2345>
*
*    </Power>
*
*    <MemorySummary>
*
*       <Bytes>116541</Bytes>
*
*       <Samples>5067</Samples>
*
*       <SamplesFree>2855721</SamplesFree>
*
*       <SampleLength>23</SampleLength>
*
*       <Profiles>3</Profiles>
*
*    </MemorySummary>
*
* </StatusData>
* <ConfigurationData DeviceType='SBE19plus' SerialNumber='01907809'>
*
*    <ProfileMode>
*
*       <ScansToAverage>1</ScansToAverage>
*
*       <MinimumCondFreq>5</MinimumCondFreq>
*
*       <PumpDelay>40</PumpDelay>
*
*       <AutoRun>no</AutoRun>
*
*       <IgnoreSwitch>no</IgnoreSwitch>
*
*    </ProfileMode>
*
*    <Battery>
*
*       <Type>alkaline</Type>
*
*       <CutOff>7.5</CutOff>
*
*    </Battery>
*
*    <DataChannels>
*
*       <ExtVolt0>yes</ExtVolt0>
*
*       <ExtVolt1>yes</ExtVolt1>
*
*       <ExtVolt2>yes</ExtVolt2>
*
*       <ExtVolt3>yes</ExtVolt3>
*
*       <ExtVolt4>yes</ExtVolt4>
*
*       <ExtVolt5>yes</ExtVolt5>
*
*       <SBE38>no</SBE38>
*
*       <WETLABS>no</WETLABS>
*
*       <OPTODE>no</OPTODE>
*
*       <SBE63>no</SBE63>
*
*       <SeaFET>no</SeaFET>
*
*       <GTD>no</GTD>
*
*    </DataChannels>
*
*    <EchoCharacters>yes</EchoCharacters>
*
*    <OutputExecutedTag>yes</OutputExecutedTag>
*
*    <OutputFormat>raw HEX</OutputFormat>
*
* </ConfigurationData>
* <CalibrationCoefficients DeviceType='SBE19plus' SerialNumber='01907809'>
*
*    <Calibration format='TEMP1' id='Main Temperature'>
*
*       <SerialNum>01907809</SerialNum>
*
*       <CalDate>25-Sep-21</CalDate>
*
*       <TA0>1.232513e-03</TA0>
*
*       <TA1>2.763223e-04</TA1>
*
*       <TA2>-9.501887e-07</TA2>
*
*       <TA3>1.718014e-07</TA3>
*
*       <TOFFSET>0.000000e+00</TOFFSET>
*
*    </Calibration>
*
*    <Calibration format='WBCOND0' id='Main Conductivity'>
*
*       <SerialNum>01907809</SerialNum>
*
*       <CalDate>25-Sep-21</CalDate>
*
*       <G>-1.004440e+00</G>
*
*       <H>1.264604e-01</H>
*
*       <I>-7.854363e-05</I>
*
*       <J>2.210938e-05</J>
*
*       <CPCOR>-9.570000e-08</CPCOR>
*
*       <CTCOR>3.250000e-06</CTCOR>
*
*       <CSLOPE>1.000000e+00</CSLOPE>
*
*    </Calibration>
*
*    <Calibration format='STRAIN0' id='Main Pressure'>
*
*       <SerialNum>10586018</SerialNum>
*
*       <CalDate>10-Sep-21</CalDate>
*
*       <PA0>4.789196e-02</PA0>
*
*       <PA1>4.853655e-04</PA1>
*
*       <PA2>-3.689276e-12</PA2>
*
*       <PTCA0>5.254946e+05</PTCA0>
*
*       <PTCA1>1.325193e+01</PTCA1>
*
*       <PTCA2>-3.889275e-01</PTCA2>
*
*       <PTCB0>2.516687e+01</PTCB0>
*
*       <PTCB1>3.750000e-04</PTCB1>
*
*       <PTCB2>0.000000e+00</PTCB2>
*
*       <PTEMPA0>-5.401644e+01</PTEMPA0>
*
*       <PTEMPA1>5.390655e+01</PTEMPA1>
*
*       <PTEMPA2>-2.194112e-02</PTEMPA2>
*
*       <POFFSET>-1.280000e-01</POFFSET>
*
*       <PRANGE>1.600000e+02</PRANGE>
*
*    </Calibration>
*
*    <Calibration format='VOLT0' id='Volt 0'>
*
*       <OFFSET>-4.920000e-02</OFFSET>
*
*       <SLOPE>1.248122e+00</SLOPE>
*
*    </Calibration>
*
*    <Calibration format='VOLT0' id='Volt 1'>
*
*       <OFFSET>-4.784000e-02</OFFSET>
*
*       <SLOPE>1.248871e+00</SLOPE>
*
*    </Calibration>
*
*    <Calibration format='VOLT0' id='Volt 2'>
*
*       <OFFSET>-4.864632e-02</OFFSET>
*
*       <SLOPE>1.248714e+00</SLOPE>
*
*    </Calibration>
*
*    <Calibration format='VOLT0' id='Volt 3'>
*
*       <OFFSET>-4.743790e-02</OFFSET>
*
*       <SLOPE>1.248571e+00</SLOPE>
*
*    </Calibration>
*
*    <Calibration format='VOLT0' id='Volt 4'>
*
*       <OFFSET>-4.671263e-02</OFFSET>
*
*       <SLOPE>1.248951e+00</SLOPE>
*
*    </Calibration>
*
*    <Calibration format='VOLT0' id='Volt 5'>
*
*       <OFFSET>-4.871053e-02</OFFSET>
*
*       <SLOPE>1.249136e+00</SLOPE>
*
*    </Calibration>
*
*    <Calibration format='FREQ0' id='external frequency channel'>
*
*       <EXTFREQSF>1.000014e+00</EXTFREQSF>
*
*    </Calibration>
*
* </CalibrationCoefficients>
* <EventCounters DeviceType='SBE19plus' SerialNumber='01907809'>
*
*    <EventSummary numEvents='0'/>
*
* </EventCounters></InstrumentState>
* <Headers>
*
* cast   2 31 May 2022 08:14:25 samples 2313 to 3349, avg = 1, stop = mag switch
*
# nquan = 15
# nvalues = 1037                        
# units = specified
# name 0 = depFM: Depth [fresh water, m]
# name 1 = dz/dtM: Descent Rate [m/s]
# name 2 = sbeox0Mg/L: Oxygen, SBE 43 [mg/l]
# name 3 = sbeox0PS: Oxygen, SBE 43 [% saturation]
# name 4 = specc: Specific Conductance [uS/cm]
# name 5 = c0uS/cm: Conductivity [uS/cm]
# name 6 = flECO-AFL: Fluorescence, WET Labs ECO-AFL/FL [mg/m^3]
# name 7 = ph: pH
# name 8 = orp: Oxidation Reduction Potential [mV]
# name 9 = par/sat/log: PAR/Logarithmic, Satlantic
# name 10 = turbWETntu0: Turbidity, WET Labs ECO [NTU]
# name 11 = prdM: Pressure, Strain Gauge [db]
# name 12 = prdE: Pressure, Strain Gauge [psi]
# name 13 = tv290C: Temperature [ITS-90, deg C]
# name 14 = flag:  0.000e+00
# span 0 =     -0.705,      3.634       
# span 1 =     -0.302,      0.109       
# span 2 =     2.6857,     8.5676       
# span 3 =     27.250,     95.292       
# span 4 =      0.294,     28.753       
# span 5 =   0.308970,  27.026068       
# span 6 =    -1.8961,     7.2062       
# span 7 =     -2.266,      9.098       
# span 8 = -1240.7455,   340.4318       
# span 9 = 4.7478e+00, 2.5862e+03       
# span 10 =    -7.7586,    10.6005      
# span 11 =     -0.692,      3.564      
# span 12 =     -1.005,      5.170      
# span 13 =    15.1894,    27.5582      
# span 14 = 0.0000e+00, 0.0000e+00      
# interval = seconds: 0.25
# start_time = May 31 2022 08:14:25 [Instrument's time stamp, header]
# bad_flag = -9.990e-29
# <Sensors count="9" >
#   <sensor Channel="1" >
#     <!-- Count, Temperature -->
#     <TemperatureSensor SensorID="58" >
#       <SerialNumber>7809</SerialNumber>
#       <CalibrationDate>25-Sep-21</CalibrationDate>
#       <A0>1.23251324e-003</A0>
#       <A1>2.76322262e-004</A1>
#       <A2>-9.50188734e-007</A2>
#       <A3>1.71801404e-007</A3>
#       <Slope>1.00000000</Slope>
#       <Offset>0.0000</Offset>
#     </TemperatureSensor>
#   </sensor>
#   <sensor Channel="2" >
#     <!-- Frequency 0, Conductivity -->
#     <ConductivitySensor SensorID="3" >
#       <SerialNumber>7809</SerialNumber>
#       <CalibrationDate>25-Sep-21</CalibrationDate>
#       <UseG_J>1</UseG_J>
#       <!-- Cell const and series R are applicable only for wide range sensors. -->
#       <SeriesR>0.0000</SeriesR>
#       <CellConst>2000.0000</CellConst>
#       <ConductivityType>0</ConductivityType>
#       <Coefficients equation="0" >
#         <A>0.00000000e+000</A>
#         <B>0.00000000e+000</B>
#         <C>0.00000000e+000</C>
#         <D>0.00000000e+000</D>
#         <M>0.0</M>
#         <CPcor>-9.57000000e-008</CPcor>
#       </Coefficients>
#       <Coefficients equation="1" >
#         <G>-1.00443970e+000</G>
#         <H>1.26460406e-001</H>
#         <I>-7.85436262e-005</I>
#         <J>2.21093811e-005</J>
#         <CPcor>-9.57000000e-008</CPcor>
#         <CTcor>3.2500e-006</CTcor>
#         <!-- WBOTC not applicable unless ConductivityType = 1. -->
#         <WBOTC>0.00000000e+000</WBOTC>
#       </Coefficients>
#       <Slope>1.00000000</Slope>
#       <Offset>0.00000</Offset>
#     </ConductivitySensor>
#   </sensor>
#   <sensor Channel="3" >
#     <!-- Count, Pressure, Strain Gauge -->
#     <PressureSensor SensorID="46" >
#       <SerialNumber>7809</SerialNumber>
#       <CalibrationDate>10-Sep-21</CalibrationDate>
#       <PA0>4.78919585e-002</PA0>
#       <PA1>4.85365526e-004</PA1>
#       <PA2>-3.68927597e-012</PA2>
#       <PTEMPA0>-5.40164371e+001</PTEMPA0>
#       <PTEMPA1>5.39065456e+001</PTEMPA1>
#       <PTEMPA2>-2.19411190e-002</PTEMPA2>
#       <PTCA0>5.25494622e+005</PTCA0>
#       <PTCA1>1.32519328e+001</PTCA1>
#       <PTCA2>-3.88927502e-001</PTCA2>
#       <PTCB0>2.51668750e+001</PTCB0>
#       <PTCB1>3.75000000e-004</PTCB1>
#       <PTCB2>0.00000000e+000</PTCB2>
#       <Offset>0.000000</Offset>
#     </PressureSensor>
#   </sensor>
#   <sensor Channel="4" >
#     <!-- A/D voltage 0, Oxygen, SBE 43 -->
#     <OxygenSensor SensorID="38" >
#       <SerialNumber>0434</SerialNumber>
#       <CalibrationDate>25-Sep-21</CalibrationDate>
#       <Use2007Equation>1</Use2007Equation>
#       <CalibrationCoefficients equation="0" >
#         <!-- Coefficients for Owens-Millard equation. -->
#         <Boc>0.0000</Boc>
#         <Soc>0.0000e+000</Soc>
#         <offset>0.0000</offset>
#         <Pcor>0.00e+000</Pcor>
#         <Tcor>0.0000</Tcor>
#         <Tau>0.0</Tau>
#       </CalibrationCoefficients>
#       <CalibrationCoefficients equation="1" >
#         <!-- Coefficients for Sea-Bird equation - SBE calibration in 2007 and later. -->
#         <Soc>4.7287e-001</Soc>
#         <offset>-0.5046</offset>
#         <A>-3.6094e-003</A>
#         <B> 1.1544e-004</B>
#         <C>-1.3802e-006</C>
#         <D0> 2.5826e+000</D0>
#         <D1> 1.92634e-004</D1>
#         <D2>-4.64803e-002</D2>
#         <E> 3.6000e-002</E>
#         <Tau20> 0.7700</Tau20>
#         <H1>-3.3000e-002</H1>
#         <H2> 5.0000e+003</H2>
#         <H3> 1.4500e+003</H3>
#       </CalibrationCoefficients>
#     </OxygenSensor>
#   </sensor>
#   <sensor Channel="5" >
#     <!-- A/D voltage 1, PAR/Logarithmic, Satlantic -->
#     <PARLog_SatlanticSensor SensorID="76" >
#       <SerialNumber>1122</SerialNumber>
#       <CalibrationDate>08-Sep-2021</CalibrationDate>
#       <a0>9.6751e-001</a0>
#       <a1>8.0992e-001</a1>
#       <Im>1.3589e+000</Im>
#       <Multiplier>1.0000e+000</Multiplier>
#     </PARLog_SatlanticSensor>
#   </sensor>
#   <sensor Channel="6" >
#     <!-- A/D voltage 2, pH -->
#     <pH_Sensor SensorID="43" >
#       <SerialNumber>0363</SerialNumber>
#       <CalibrationDate>16-Sep-21</CalibrationDate>
#       <Slope>4.5144</Slope>
#       <Offset>2.4957</Offset>
#     </pH_Sensor>
#   </sensor>
#   <sensor Channel="7" >
#     <!-- A/D voltage 3, Oxidation Reduction Potential -->
#     <OxidationReductionPotentialSensor SensorID="41" >
#       <SerialNumber>0363</SerialNumber>
#       <CalibrationDate>16-Sep-21</CalibrationDate>
#       <B>2.499480</B>
#       <M>-0.496195</M>
#       <Offset>0.0</Offset>
#     </OxidationReductionPotentialSensor>
#   </sensor>
#   <sensor Channel="8" >
#     <!-- A/D voltage 4, Fluorometer, WET Labs ECO-AFL/FL -->
#     <FluoroWetlabECO_AFL_FL_Sensor SensorID="20" >
#       <SerialNumber>FLNTURT-2496</SerialNumber>
#       <CalibrationDate>02-Sep-2021</CalibrationDate>
#       <ScaleFactor>4.80000000e+001</ScaleFactor>
#       <!-- Dark output -->
#       <Vblank>0.0550</Vblank>
#     </FluoroWetlabECO_AFL_FL_Sensor>
#   </sensor>
#   <sensor Channel="9" >
#     <!-- A/D voltage 5, Turbidity Meter, WET Labs, ECO-NTU -->
#     <TurbidityMeter SensorID="67" >
#       <SerialNumber>FLNTURT-2496</SerialNumber>
#       <CalibrationDate>02-Sep-2021</CalibrationDate>
#       <ScaleFactor>197.000000</ScaleFactor>
#       <!-- Dark output -->
#       <DarkVoltage>0.070000</DarkVoltage>
#     </TurbidityMeter>
#   </sensor>
# </Sensors>
# datcnv_date = Jun 08 2022 10:24:31, 7.26.7.129 [datcnv_vars = 14]
# datcnv_in = C:\R\Reservoirs\Data\DataNotYetUploadedToEDI\Raw_CTD\RawDownloads\053122_bvr01_0002.hex C:\R\Reservoirs\Data\DataNotYetUploadedToEDI\Raw_CTD\SBE19plusV2_7809.xmlcon
# datcnv_skipover = 0
# datcnv_ox_hysteresis_correction = yes
# datcnv_ox_tau_correction = yes
# filter_date = Jun 08 2022 10:24:59, 7.26.7.129
# filter_in = C:\R\Reservoirs\Data\DataNotYetUploadedToEDI\Raw_CTD\RawDownloads\053122_bvr01_0002.cnv
# filter_low_pass_tc_A = 0.030
# filter_low_pass_tc_B = 0.150
# filter_low_pass_A_vars = sbeox0Mg/L prdM prdE tv290C
# filter_low_pass_B_vars = depFM dz/dtM sbeox0PS specc c0uS/cm flECO-AFL ph orp par/sat/log turbWETntu0
# alignctd_date = Jun 08 2022 10:25:22, 7.26.7.129
# alignctd_in = C:\R\Reservoirs\Data\DataNotYetUploadedToEDI\Raw_CTD\RawDownloads\053122_bvr01_0002.cnv
# alignctd_adv = dz/dtM 1.000, sbeox0PS 1.000, specc 1.000, c0uS/cm 1.000, flECO-AFL 1.000, ph 1.000, orp 1.000, turbWETntu0 1.000                                                                                                   
# file_type = ascii
*END*
     -0.704 5.2138e-49     6.9118     87.580      0.402   0.421934    -0.0533     -2.266 -1240.7455 2.1133e+02    -0.2552     -0.691     -1.001    27.5261 0.0000e+00
     -0.704 5.7352e-48     6.9099     87.580      0.422   0.443266    -0.0617     -2.266 -1240.7455 2.0585e+02    -0.2604     -0.690     -1.001    27.5265 0.0000e+00
     -0.704 6.3087e-47     6.9115     87.580      0.422   0.443506    -0.0691     -2.266 -1240.7455 2.0315e+02    -0.2769     -0.691     -1.001    27.5268 0.0000e+00
     -0.704 6.9396e-46     6.9123     87.583      0.404   0.424836    -0.0762     -2.266 -1240.7455 2.0537e+02    -0.2837     -0.690     -1.001    27.5274 0.0000e+00
     -0.704 7.6336e-45     6.9130     87.577      0.388   0.407419    -0.0727     -2.266 -1240.7455 2.1067e+02    -0.2406     -0.691     -1.002    27.5279 0.0000e+00
     -0.704 8.3969e-44     6.9126     87.577      0.402   0.422814    -0.0596     -2.266 -1240.7455 2.1525e+02    -0.1662     -0.690     -1.001    27.5282 0.0000e+00
     -0.704 9.2366e-43     6.9121     87.591      0.401   0.421077    -0.0511     -2.266 -1240.7455 2.1720e+02    -0.1357     -0.690     -1.001    27.5287 0.0000e+00
     -0.704 1.0160e-41     6.9135     87.594      0.368   0.386419    -0.0533     -2.266 -1240.7455 2.1684e+02    -0.1788     -0.691     -1.002    27.5295 0.0000e+00
     -0.704 1.1176e-40     6.9121     87.586      0.365   0.383549    -0.0532     -2.266 -1240.7455 2.0946e+02    -0.2434     -0.691     -1.002    27.5302 0.0000e+00
     -0.704 1.2294e-39     6.9111     87.594      0.368   0.386380    -0.0412     -2.266 -1240.7455 1.9365e+02    -0.2678     -0.690     -1.001    27.5309 0.0000e+00
     -0.704 1.3523e-38     6.9139     87.606      0.340   0.357350    -0.0420     -2.266 -1240.7455 1.7936e+02    -0.2693     -0.691     -1.002    27.5319 0.0000e+00
     -0.704 1.4876e-37     6.9140     87.605      0.333   0.349030    -0.0627     -2.266 -1240.7455 1.7450e+02    -0.2947     -0.690     -1.001    27.5326 0.0000e+00
     -0.705 1.6363e-36     6.9115     87.606      0.333   0.349080    -0.0662     -2.266 -1240.7455 1.7620e+02    -0.3022     -0.691     -1.002    27.5333 0.0000e+00
     -0.705 1.8000e-35     6.9128     87.605      0.341   0.357960    -0.0519     -2.266 -1240.7455 1.8570e+02    -0.2910     -0.691     -1.002    27.5337 0.0000e+00
     -0.705 1.9800e-34     6.9150     87.600      0.375   0.393098    -0.0471     -2.266 -1240.7455 2.0986e+02    -0.2967     -0.691     -1.002    27.5341 0.0000e+00
     -0.705 2.1779e-33     6.9132     87.607      0.375   0.394153    -0.0579     -2.266 -1240.7455 2.3680e+02    -0.2347     -0.691     -1.002    27.5348 0.0000e+00
     -0.705 2.3957e-32     6.9139     87.612      0.353   0.370708    -0.0662     -2.266 -1240.7455 2.4122e+02    -0.0874     -0.691     -1.002    27.5350 0.0000e+00
     -0.705 2.6353e-31     6.9145     87.605      0.345   0.362822    -0.0563     -2.266 -1240.7455 2.2686e+02     0.0152     -0.691     -1.003    27.5355 0.0000e+00
     -0.705 2.8988e-30     6.9121     87.603      0.344   0.362105    -0.0548     -2.266 -1240.7455 2.1799e+02     0.0155     -0.691     -1.003    27.5363 0.0000e+00
     -0.705 3.1887e-29     6.9140     87.604      0.345   0.362030    -0.0720     -2.266 -1240.7455 2.1381e+02    -0.0152     -0.691     -1.002    27.5369 0.0000e+00
     -0.705 3.5076e-28     6.9148     87.608      0.345   0.361919    -0.0735     -2.266 -1240.7455 2.0580e+02    -0.0152     -0.691     -1.002    27.5378 0.0000e+00
     -0.705 3.8584e-27     6.9126     87.616      0.344   0.360768    -0.0559     -2.266 -1240.7455 2.0239e+02    -0.0178     -0.691     -1.003    27.5387 0.0000e+00
     -0.705 4.2442e-26     6.9134     87.616      0.332   0.348109    -0.0511     -2.266 -1240.7455 2.0600e+02    -0.0472     -0.691     -1.002    27.5384 0.0000e+00
     -0.705 4.6686e-25     6.9133     87.611      0.320   0.335449    -0.0566     -2.266 -1240.7455 2.1068e+02    -0.0288     -0.691     -1.002    27.5375 0.0000e+00
     -0.705 5.1355e-24     6.9134     87.604      0.318   0.334299    -0.0557     -2.266 -1240.7455 2.1976e+02     0.0340     -0.691     -1.002    27.5370 0.0000e+00
     -0.705 5.6490e-23     6.9151     87.594      0.318   0.334204    -0.0577     -2.266 -1240.7455 2.7078e+02     0.0286     -0.691     -1.002    27.5371 0.0000e+00
     -0.705 6.2139e-22     6.9143     87.598      0.318   0.334304    -0.0632     -2.266 -1240.7455 3.2167e+02    -0.0250     -0.691     -1.003    27.5373 0.0000e+00
     -0.705 6.8353e-21     6.9139     87.607      0.319   0.335506    -0.0645     -2.266 -1240.7455 2.8448e+02    -0.0345     -0.692     -1.003    27.5373 0.0000e+00
     -0.705 7.5189e-20     6.9139     87.607      0.332   0.348736    -0.0649     -2.266 -1240.7455 2.2549e+02    -0.0858     -0.691     -1.002    27.5374 0.0000e+00
     -0.705 8.2707e-19     6.9118     87.612      0.350   0.367672    -0.0688     -2.266 -1240.7455 2.0833e+02    -0.2008     -0.691     -1.003    27.5380 0.0000e+00
     -0.705 9.0978e-18     6.9125     87.626      0.356   0.374567    -0.0776     -2.266 -1240.7455 2.0871e+02    -0.2643     -0.692     -1.003    27.5387 0.0000e+00
     -0.705 1.0008e-16     6.9143     87.641      0.350   0.368803    -0.0884     -2.266 -1240.7455 2.1423e+02    -0.3059     -0.691     -1.002    27.5391 0.0000e+00
     -0.704 1.1008e-15     6.9128     87.646      0.343   0.361281    -0.0826     -2.266 -1240.7455 2.1843e+02    -0.2940     -0.691     -1.002    27.5395 0.0000e+00
     -0.704 1.2109e-14     6.9134     87.637      0.330   0.346910    -0.0659     -2.266 -1240.7455 2.1908e+02    -0.2232     -0.691     -1.002    27.5398 0.0000e+00
     -0.704 1.3320e-13     6.9149     87.623      0.306   0.321643    -0.0691     -2.266 -1240.7455 2.1819e+02    -0.2357     -0.691     -1.002    27.5401 0.0000e+00
     -0.704 1.4652e-12     6.9161     87.619      0.294   0.308970    -0.0717     -2.266 -1240.7455 2.1747e+02    -0.2740     -0.691     -1.002    27.5406 0.0000e+00
     -0.704 1.6117e-11     6.9166     87.622      0.304   0.320279    -0.0554     -2.266 -1240.7455 2.1380e+02    -0.1737     -0.691     -1.002    27.5414 0.0000e+00
     -0.704 1.7729e-10     6.9157     87.614      0.315   0.331788    -0.0558     -2.266 -1240.7455 2.0224e+02     0.0204     -0.691     -1.002    27.5420 0.0000e+00
     -0.705 1.9502e-09     6.9137     87.614      0.305   0.321524    -0.0683     -2.266 -1240.7455 1.8834e+02     0.1594     -0.691     -1.003    27.5427 0.0000e+00
     -0.705 2.1452e-08     6.9133     87.625      0.306   0.322777    -0.0644     -2.266 -1240.7455 1.8460e+02     0.2090     -0.691     -1.002    27.5431 0.0000e+00
     -0.704 2.3597e-07     6.9150     87.630      0.329   0.346936    -0.0673     -2.266 -1240.7455 1.9486e+02     0.1078     -0.690     -1.001    27.5443 0.0000e+00
     -0.704      0.000     6.9127     87.633      0.342   0.360432    -0.1200     -2.266 -1240.7455 2.2740e+02    -0.9279     -0.690     -1.001    27.5445 0.0000e+00
     -0.705      0.000     6.9126     87.630      0.342   0.359363    -0.1931     -2.266 -1240.7455 4.3025e+02    -2.7837     -0.691     -1.002    27.5461 0.0000e+00
     -0.705      0.000     6.9149     87.613      0.438   0.460609    -0.2199     -2.266 -1240.7455 6.1490e+02    -3.7468     -0.691     -1.003    27.5451 0.0000e+00
     -0.705      0.003     6.9141     87.610      1.751   1.837776    -0.2198     -2.266 -1240.7455 4.5753e+02    -3.5552     -0.691     -1.002    27.5477 0.0000e+00
     -0.705      0.013     6.9146     87.645      3.794   3.969306    -0.2073     -2.262 -1240.7455 2.9146e+02    -0.8764     -0.691     -1.003    27.5441 0.0000e+00
     -0.705      0.028     6.9148     87.676      6.381   6.608037    -0.1690     -2.186 -1240.7455 3.3599e+02     4.0471     -0.690     -1.001    27.5508 0.0000e+00
     -0.703      0.043     6.9134     87.673     10.347  10.630287    -0.1309     -1.223 -1240.7455 8.5433e+02     6.7511     -0.692     -1.005    27.5406 0.0000e+00
     -0.691      0.053     6.9093     87.668     12.423  12.707011    -0.0803      1.015 -1240.7455 1.7800e+03     6.8476     -0.686     -0.996    27.5582 0.0000e+00
     -0.664      0.055     6.9250     87.680     11.370  11.581336     0.2019      3.201 -1240.7455 2.2052e+03     4.8028     -0.651     -0.945    27.4718 0.0000e+00
     -0.635      0.050     6.9895     87.696     10.856  11.016387     0.6929      4.526 -1240.7455 1.8530e+03     1.0203     -0.618     -0.897    26.9842 0.0000e+00
     -0.617      0.040     7.0577     87.708     12.309  12.462285     0.9540      5.296 -1240.7455 1.1917e+03    -1.0038     -0.598     -0.868    26.4262 0.0000e+00
     -0.613      0.028     7.0971     87.712     13.329  13.483387     0.9282      5.794 -1240.7455 7.7123e+02    -1.1558     -0.596     -0.865    26.1105 0.0000e+00
     -0.621      0.016     7.1275     87.696     13.274  13.419427     0.5143      6.156 -1240.7455 6.7720e+02    -0.7833     -0.612     -0.887    25.8908 0.0000e+00
     -0.627      0.008     7.1537     87.676     13.261  13.399123    -0.2220      6.398 -1240.7455 7.0785e+02    -0.0185     -0.617     -0.896    25.7001 0.0000e+00
     -0.625      0.006     7.1671     87.680     13.293  13.427903    -0.6089      6.571 -1240.7455 8.2772e+02     0.4062     -0.614     -0.891    25.6038 0.0000e+00
     -0.617      0.008     7.1716     87.691     13.318  13.450706    -0.6250      6.718 -1240.7455 9.2233e+02     0.4574     -0.605     -0.878    25.5773 0.0000e+00
     -0.610      0.010     7.1750     87.696     13.353  13.484806    -0.6253      6.852 -1240.7455 9.2793e+02     0.4298     -0.595     -0.864    25.5406 0.0000e+00
     -0.606      0.009     7.1751     87.701     13.393  13.523507    -0.6052      6.955 -1240.7455 9.3984e+02    -0.2694     -0.594     -0.862    25.5090 0.0000e+00
     -0.606      0.005     7.1789     87.705     13.408  13.538598    -0.5482      7.047 -1240.7455 9.6784e+02    -1.5746     -0.595     -0.863    25.4966 0.0000e+00
     -0.606      0.001     7.1810     87.708     13.411  13.540583    -0.5261      7.171 -1240.7455 9.4554e+02    -2.3018     -0.594     -0.862    25.4904 0.0000e+00
     -0.607      0.000     7.1813     87.707     13.417  13.547514    -0.5457      7.295 -1240.7455 9.4369e+02    -2.3664     -0.595     -0.863    25.4845 0.0000e+00
     -0.610      0.003     7.1829     87.700     13.615  13.749074    -0.5612      7.408 -1240.7455 1.0030e+03    -1.7409     -0.598     -0.868    25.4818 0.0000e+00
     -0.610      0.008     7.1829     87.695     15.130  15.280879    -0.5718      7.527 -1240.7455 9.5305e+02    -0.5122     -0.600     -0.869    25.4787 0.0000e+00
     -0.609      0.013     7.1840     87.700     17.326  17.498180    -0.5820      7.649 -1240.7455 7.7210e+02     0.1577     -0.597     -0.866    25.4763 0.0000e+00
     -0.605      0.017     7.1834     87.703     17.015  17.182556    -0.5768      7.770 -1240.7455 6.7283e+02     0.2105     -0.595     -0.864    25.4799 0.0000e+00
     -0.598      0.014     7.1816     87.699     13.048  13.175659    -0.4100      7.879 -1240.7455 6.8231e+02     0.0919     -0.587     -0.851    25.4877 0.0000e+00
     -0.588      0.000     7.1796     87.705      7.299   7.372069    -0.0872      7.961 -1240.7455 7.2291e+02    -0.1146     -0.575     -0.835    25.4953 0.0000e+00
     -0.579     -0.021     7.1809     87.704      3.087   3.121517     0.0969      8.013 -1240.7455 7.4543e+02    -0.2375     -0.566     -0.821    25.4917 0.0000e+00
     -0.579     -0.041     7.1836     87.692      1.711   1.737144     0.1092      8.033 -1240.7455 7.5737e+02    -0.3003     -0.560     -0.813    25.4810 0.0000e+00
     -0.598     -0.051     7.1810     87.693      2.362   2.409215     0.1028      8.026 -1240.7455 8.5835e+02    -0.2588     -0.578     -0.837    25.4836 0.0000e+00
     -0.636     -0.051     7.1827     87.688      5.681   5.803061     0.1118      8.006 -1240.7455 9.1515e+02    -0.1123     -0.626     -0.908    25.4857 0.0000e+00
     -0.669     -0.040     7.1705     87.673      7.962   8.136753     0.1182      7.985 -1240.7455 7.9581e+02    -0.0314     -0.667     -0.968    25.5846 0.0000e+00
     -0.679     -0.022     7.1396     87.668      6.359   6.499563     0.1137      7.971 -1240.7455 7.0722e+02     0.0018     -0.673     -0.976    25.7935 0.0000e+00
     -0.668     -0.002     7.1207     87.668      4.526   4.625638     0.1153      7.962 -1240.7455 7.9181e+02     0.1527     -0.658     -0.953    25.9567 0.0000e+00
     -0.648      0.015     7.1073     87.670      2.770   2.830604     0.1218      7.955 -1240.7455 8.6671e+02     0.3578     -0.633     -0.918    26.0563 0.0000e+00
     -0.634      0.021     7.0992     87.677      1.478   1.509679     0.1251      7.946 -1240.7455 8.4333e+02     0.4327     -0.617     -0.895    26.0991 0.0000e+00
     -0.630      0.016     7.0996     87.681      1.351   1.380078     0.1226      7.938 -1240.7455 8.5359e+02     0.4091     -0.618     -0.896    26.1002 0.0000e+00
     -0.633      0.004     7.1005     87.679      1.051   1.073680     0.1080      7.932 -1240.7455 8.5015e+02     0.3453     -0.619     -0.898    26.0911 0.0000e+00
     -0.638     -0.009     7.1024     87.682      0.826   0.843500     0.0650      7.924 -1240.7455 8.8321e+02     0.1058     -0.627     -0.910    26.0767 0.0000e+00
     -0.640     -0.018     7.1046     87.674      0.796   0.812535    -0.0069      7.916 -1240.7455 9.8469e+02    -0.3003     -0.629     -0.913    26.0662 0.0000e+00
     -0.642     -0.019     7.1063     87.657      0.809   0.825877    -0.0629      7.910 -1240.7455 1.0388e+03    -0.5345     -0.623     -0.904    26.0595 0.0000e+00
     -0.652     -0.015     7.1056     87.665      0.860   0.878219    -0.0779      7.905 -1240.7455 1.1100e+03    -0.5051     -0.638     -0.926    26.0554 0.0000e+00
     -0.663     -0.009     7.1073     87.690      0.981   1.002292    -0.0722      7.900 -1240.7455 1.0991e+03    -0.1500     -0.655     -0.950    26.0511 0.0000e+00
     -0.667     -0.002     7.1070     87.700      1.966   2.009542    -0.0699      7.894 -1240.7455 9.4680e+02     0.4796     -0.657     -0.953    26.0538 0.0000e+00
     -0.662      0.005     7.1014     87.702      4.288   4.383822    -0.0752      7.887 -1240.7455 8.1384e+02     0.8556     -0.651     -0.943    26.0659 0.0000e+00
     -0.653      0.014     7.1011     87.698      7.819   7.994912    -0.0693      7.880 -1240.7455 7.4224e+02     0.8446     -0.639     -0.926    26.0805 0.0000e+00
     -0.647      0.021     7.1033     87.686     11.534  11.794764    -0.0067      7.918 -1240.7452 7.0614e+02    -0.0644     -0.632     -0.917    26.0911 0.0000e+00
     -0.645      0.026     7.1019     87.693     13.238  13.534065     0.1000      8.004 -1240.7419 8.2588e+02    -1.7656     -0.634     -0.919    26.1014 0.0000e+00
     -0.640      0.029     7.1002     87.705     13.534  13.825818     0.1554      8.053 -1240.7058 1.0620e+03    -2.6782     -0.630     -0.914    26.1137 0.0000e+00
     -0.631      0.032     7.0997     87.692     15.762  16.082399     0.1719      8.071 -1240.3089 1.1070e+03    -2.7296     -0.619     -0.898    26.1240 0.0000e+00
     -0.620      0.037     7.0957     87.682     20.844  21.241824     0.2324      8.115 -1235.9432 1.0306e+03    -3.0016     -0.607     -0.882    26.1309 0.0000e+00
     -0.609      0.044     7.0975     87.694     25.202  25.647758     0.3126      8.177 -1187.9206 1.2461e+03    -3.5762     -0.596     -0.866    26.1246 0.0000e+00
     -0.600      0.049     7.1072     87.710     26.603  27.026068     0.3427      8.240  -659.6712 1.7410e+03    -3.8704     -0.589     -0.855    26.0780 0.0000e+00
     -0.590      0.052     7.1114     87.719     26.633  27.006274     0.3463      8.309   149.1820 2.1244e+03    -3.8597     -0.582     -0.845    26.0165 0.0000e+00
     -0.571      0.056     7.1166     87.719     26.478  26.802772     0.3395      8.384   340.4318 2.3039e+03    -3.7885     -0.562     -0.814    25.9677 0.0000e+00
     -0.552      0.063     7.1278     87.726     26.309  26.593710     0.1448      8.445   190.6490 2.2935e+03    -2.9751     -0.535     -0.776    25.8938 0.0000e+00
     -0.541      0.073     7.1429     87.746     26.199  26.443290    -0.2109      8.486   171.6675 2.1863e+03    -1.4719     -0.532     -0.773    25.7907 0.0000e+00
     -0.527      0.083     7.1569     87.770     26.184  26.378388    -0.3988      8.521   168.7460 2.2184e+03    -0.6089     -0.522     -0.758    25.6895 0.0000e+00
     -0.505      0.092     7.1679     87.839     26.235  26.379330    -0.3546      8.555   167.9733 2.3658e+03    -0.2273     -0.496     -0.719    25.6001 0.0000e+00
     -0.478      0.100     7.1768     88.001     26.283  26.391224     0.2327      8.581   167.1433 2.5026e+03     2.6289     -0.472     -0.684    25.5347 0.0000e+00
     -0.446      0.106     7.1873     88.225     26.308  26.395379     1.2749      8.602   164.9910 2.5679e+03     7.7594     -0.438     -0.636    25.4745 0.0000e+00
     -0.412      0.109     7.2024     88.466     26.354  26.429533     1.8351      8.617   162.9441 2.5802e+03    10.4980     -0.401     -0.582    25.3660 0.0000e+00
     -0.382      0.109     7.2196     88.731     26.417  26.487254     1.8953      8.617   162.3552 2.5862e+03    10.6005     -0.373     -0.540    25.2542 0.0000e+00
     -0.360      0.109     7.2435     89.010     26.452  26.522854     1.9284      8.607   161.2260 2.5830e+03     9.2025     -0.354     -0.512    25.1927 0.0000e+00
     -0.339      0.109     7.2693     89.304     26.463  26.543055     1.9602      8.597   161.0793 2.5668e+03     6.5421     -0.336     -0.488    25.1530 0.0000e+00
     -0.312      0.108     7.2903     89.609     26.445  26.541375     1.9717      8.588   162.1293 2.5467e+03     5.0436     -0.308     -0.446    25.1322 0.0000e+00
     -0.279      0.107     7.3139     89.883     26.393  26.502566     1.9762      8.583   163.1665 2.4893e+03     4.9188     -0.272     -0.394    25.1272 0.0000e+00
     -0.247      0.103     7.3378     90.106     26.338  26.454122     1.9643      8.593   164.2423 2.0326e+03     4.9310     -0.242     -0.350    25.1214 0.0000e+00
     -0.218      0.098     7.3582     90.287     26.348  26.462702     1.9368      8.615   165.5864 1.6152e+03     4.8837     -0.212     -0.308    25.1387 0.0000e+00
     -0.195      0.091     7.3812     90.441     26.437  26.542924     1.9267      8.640   167.6303 1.9855e+03     4.8587     -0.188     -0.273    25.1791 0.0000e+00
     -0.177      0.082     7.3994     90.563     26.504  26.600107     1.9245      8.661   169.4244 2.3803e+03     4.8677     -0.172     -0.250    25.2076 0.0000e+00
     -0.161      0.073     7.4164     90.668     26.488  26.583648     1.9438      8.678   171.5336 2.1252e+03     4.8560     -0.160     -0.231    25.2186 0.0000e+00
     -0.141      0.064     7.4305     90.804     26.431  26.534069     1.9767      8.693   172.9131 1.7983e+03     4.8545     -0.139     -0.201    25.2170 0.0000e+00
     -0.121      0.057     7.4461     90.930     26.398  26.507718     1.9731      8.704   165.7981 1.8883e+03     4.8492     -0.115     -0.167    25.1972 0.0000e+00
     -0.107      0.050     7.4617     91.009     26.405  26.518573     1.9578      8.709   156.4899 1.9913e+03     4.8598     -0.103     -0.148    25.1663 0.0000e+00
     -0.097      0.043     7.4656     91.062     26.425  26.538553     1.9668      8.709   159.9155 1.8698e+03     4.9145     -0.094     -0.137    25.1657 0.0000e+00
     -0.090      0.038     7.4766     91.108     26.448  26.559149     1.9828      8.702   168.0688 1.7264e+03     4.9640     -0.088     -0.128    25.1936 0.0000e+00
     -0.082      0.038     7.4867     91.169     26.468  26.577452     1.9844      8.685   171.5263 1.6384e+03     4.9463     -0.080     -0.116    25.2067 0.0000e+00
     -0.076      0.041     7.4904     91.255     26.462  26.569712     1.9774      8.674   172.0359 1.5653e+03     4.8716     -0.074     -0.108    25.2098 0.0000e+00
     -0.067      0.046     7.4954     91.353     26.422  26.528937     1.9816      8.674   165.1101 1.2350e+03     4.8460     -0.070     -0.102    25.2108 0.0000e+00
     -0.052      0.055     7.4983     91.453     26.357  26.464737     2.0017      8.671   151.0264 6.5136e+02     4.8765     -0.052     -0.075    25.2059 0.0000e+00
     -0.035      0.067     7.5041     91.590     26.319  26.427284     2.0204      8.656   140.3600 3.5441e+02     4.8983     -0.032     -0.046    25.2002 0.0000e+00
     -0.020      0.077     7.5122     91.805     26.352  26.456389     2.0339      8.631   135.9502 3.3638e+02     4.9053     -0.021     -0.031    25.1954 0.0000e+00
     -0.002      0.080     7.5213     92.050     26.404  26.499733     2.0481      8.609   134.0165 2.3327e+02     4.8917     -0.009     -0.012    25.1949 0.0000e+00
      0.027      0.075     7.5280     92.260     26.419  26.507665     2.0913      8.602   133.1540 1.4183e+02     4.8366      0.025      0.035    25.1993 0.0000e+00
      0.058      0.062     7.5352     92.406     26.395  26.488904     2.1733      8.614   132.7496 1.2981e+02     4.7516      0.061      0.088    25.2048 0.0000e+00
      0.078      0.046     7.5575     92.470     26.354  26.463039     2.2165      8.631   132.3100 1.4150e+02     4.6835      0.081      0.118    25.1944 0.0000e+00
      0.084      0.029     7.5826     92.476     26.329  26.448493     2.2057      8.647   131.9694 1.6424e+02     4.6629      0.089      0.128    25.1741 0.0000e+00
      0.079      0.014     7.6027     92.465     26.321  26.439805     2.1845      8.660   131.8139 1.8480e+02     4.7075      0.077      0.112    25.1523 0.0000e+00
      0.071      0.007     7.6156     92.445     26.308  26.421368     2.1604      8.669   131.7208 2.0234e+02     4.7446      0.066      0.095    25.1594 0.0000e+00
      0.068      0.009     7.6124     92.428     26.309  26.415712     2.1470      8.673   131.7043 2.2814e+02     4.7015      0.065      0.094    25.2098 0.0000e+00
      0.072      0.017     7.6082     92.448     26.340  26.434780     2.1470      8.670   131.7867 3.3927e+02     4.6641      0.069      0.101    25.2312 0.0000e+00
      0.079      0.025     7.6091     92.512     26.381  26.461758     2.1936      8.664   132.4589 5.1076e+02     4.7364      0.076      0.110    25.2211 0.0000e+00
      0.091      0.030     7.6086     92.580     26.416  26.488358     2.2857      8.659   133.0344 4.9481e+02     4.8584      0.087      0.126    25.2109 0.0000e+00
      0.105      0.030     7.6072     92.634     26.433  26.502867     2.3289      8.657   132.8089 3.0886e+02     4.9102      0.108      0.156    25.2008 0.0000e+00
      0.115      0.025     7.6115     92.679     26.438  26.510419     2.3168      8.657   132.3990 2.0309e+02     4.8837      0.117      0.170    25.1778 0.0000e+00
      0.118      0.018     7.6238     92.713     26.440  26.516285     2.3054      8.657   132.2941 1.8342e+02     4.8453      0.116      0.169    25.1426 0.0000e+00
      0.119      0.010     7.6323     92.732     26.429  26.510418     2.2909      8.655   132.4881 1.7231e+02     4.8219      0.117      0.170    25.1255 0.0000e+00
      0.119      0.001     7.6362     92.722     26.416  26.502864     2.2745      8.655   132.9373 1.7043e+02     4.7716      0.117      0.169    25.1244 0.0000e+00
      0.120     -0.006     7.6398     92.681     26.396  26.488344     2.2647      8.655   133.5950 1.7881e+02     4.6819      0.118      0.171    25.1289 0.0000e+00
      0.120     -0.011     7.6412     92.619     26.364  26.461631     2.2567      8.655   134.0740 1.9720e+02     4.6254      0.119      0.172    25.1354 0.0000e+00
      0.117     -0.016     7.6422     92.541     26.332  26.433408     2.2601      8.657   134.2550 2.1318e+02     4.6693      0.117      0.169    25.1462 0.0000e+00
      0.111     -0.020     7.6394     92.443     26.297  26.400637     2.2722      8.661   134.4067 2.1987e+02     4.7342      0.110      0.159    25.1606 0.0000e+00
      0.102     -0.019     7.6342     92.337     26.282  26.382304     2.2786      8.661   134.6174 2.1845e+02     4.7268      0.100      0.145    25.1699 0.0000e+00
      0.093     -0.014     7.6276     92.255     26.309  26.401886     2.2708      8.653   134.8244 2.0324e+02     4.6820      0.091      0.131    25.1790 0.0000e+00
      0.086     -0.009     7.6202     92.195     26.364  26.447241     2.2613      8.642   134.5849 1.9386e+02     4.7047      0.082      0.120    25.1887 0.0000e+00
      0.086     -0.004     7.6110     92.113     26.408  26.487007     2.2717      8.637   134.2170 2.0488e+02     4.8298      0.080      0.116    25.1962 0.0000e+00
      0.093     -0.000     7.6019     92.008     26.412  26.502400     2.2804      8.639   134.6783 2.1413e+02     4.8971      0.090      0.131    25.1875 0.0000e+00
      0.100      0.002     7.5969     91.929     26.395  26.506619     2.2672      8.638   136.3766 2.0193e+02     4.8704      0.103      0.149    25.1717 0.0000e+00
      0.098     -0.001     7.5976     91.904     26.408  26.538046     2.2442      8.631   147.0944 1.8234e+02     4.8143      0.099      0.143    25.1493 0.0000e+00
      0.092     -0.012     7.5941     91.903     26.411  26.565501     2.2272      8.630   165.5794 1.7152e+02     4.7309      0.087      0.127    25.1269 0.0000e+00
      0.091     -0.031     7.5785     91.843     26.328  26.521701     2.2206      8.635   167.4063 1.7919e+02     4.7165      0.087      0.127    25.1589 0.0000e+00
      0.091     -0.050     7.5643     91.676     26.215  26.452202     2.2131      8.628   152.0614 2.2876e+02     4.7090      0.094      0.136    25.2110 0.0000e+00
      0.082     -0.062     7.5587     91.456     26.158  26.422450     2.2039      8.611   143.4346 4.3040e+02     4.6398      0.088      0.127    25.2391 0.0000e+00
      0.055     -0.066     7.5574     91.260     26.142  26.415541     2.2012      8.599   149.7425 6.3041e+02     4.6309      0.058      0.084    25.2719 0.0000e+00
      0.018     -0.058     7.5424     90.970     26.100  26.368681     2.2051      8.593   157.0887 7.1050e+02     4.6695      0.013      0.018    25.3576 0.0000e+00
     -0.009     -0.036     7.5129     90.612     26.055  26.299530     2.2094      8.588   151.1222 7.4419e+02     4.6960     -0.014     -0.021    25.4630 0.0000e+00
     -0.019     -0.002     7.4828     90.641     26.085  26.276594     2.2035      8.584   143.9381 5.2781e+02     4.7127     -0.023     -0.033    25.5099 0.0000e+00
     -0.013      0.036     7.4700     91.121     26.157  26.281414     2.2080      8.583   143.2736 2.6389e+02     4.7693     -0.023     -0.032    25.5232 0.0000e+00
      0.013      0.068     7.4543     91.487     26.226  26.294324     2.2398      8.583   142.5708 1.9641e+02     4.9023      0.008      0.012    25.5227 0.0000e+00
      0.049      0.085     7.4043     91.331     26.273  26.305842     2.2637      8.584   139.6571 1.7275e+02     4.9887      0.051      0.074    25.4848 0.0000e+00
      0.082      0.086     7.4171     90.583     26.276  26.293866     2.2634      8.589   135.5766 1.5354e+02     4.9596      0.082      0.120    25.3741 0.0000e+00
      0.107      0.074     7.5061     89.365     26.261  26.276266     2.2526      8.594   135.3935 1.4321e+02     4.8577      0.108      0.156    25.2205 0.0000e+00
      0.124      0.055     7.5604     87.890     26.267  26.283181     2.2499      8.599   138.9924 1.3731e+02     4.7474      0.126      0.183    25.1089 0.0000e+00
      0.130      0.035     7.5582     86.268     26.299  26.314087     2.2632      8.601   141.2326 1.3707e+02     4.6854      0.130      0.189    25.0422 0.0000e+00
      0.130      0.020     7.4959     84.507     26.323  26.333050     2.2729      8.599   141.4859 1.4617e+02     4.6536      0.127      0.184    25.0188 0.0000e+00
      0.130      0.010     7.3866     82.814     26.317  26.322313     2.2429      8.597   141.6251 1.6913e+02     4.6369      0.127      0.185    25.0247 0.0000e+00
      0.132      0.006     7.2603     81.507     26.309  26.311016     2.1826      8.596   141.8831 2.0480e+02     4.6537      0.130      0.188    25.0274 0.0000e+00
      0.133      0.010     7.1309     80.637     26.323  26.323220     2.1520      8.595   142.0241 2.4753e+02     4.6866      0.131      0.190    25.0245 0.0000e+00
      0.133      0.015     6.9804     80.031     26.344  26.343108     2.1548      8.596   142.0400 2.6539e+02     4.6928      0.130      0.189    25.0144 0.0000e+00
      0.136      0.018     6.8272     79.461     26.364  26.361338     2.1666      8.597   141.9886 2.4555e+02     4.6600      0.131      0.191    25.0033 0.0000e+00
      0.144      0.018     6.7213     78.765     26.359  26.353480     2.1867      8.598   141.9192 2.2313e+02     4.6317      0.139      0.203    24.9957 0.0000e+00
      0.154      0.015     6.6552     77.921     26.318  26.311480     2.2072      8.599   141.8032 2.0197e+02     4.6578      0.151      0.219    24.9942 0.0000e+00
      0.163      0.011     6.6129     77.037     26.304  26.297190     2.2138      8.599   141.8760 1.7701e+02     4.7026      0.162      0.236    24.9934 0.0000e+00
      0.164      0.008     6.5714     76.222     26.313  26.307457     2.2086      8.598   142.3697 1.5927e+02     4.7632      0.164      0.239    24.9872 0.0000e+00
      0.158      0.007     6.5153     75.477     26.312  26.308853     2.2103      8.593   142.7819 1.4884e+02     4.8445      0.155      0.225    24.9825 0.0000e+00
      0.152      0.007     6.4414     74.751     26.315  26.314080     2.2181      8.585   142.9024 1.4640e+02     4.8992      0.146      0.211    24.9811 0.0000e+00
      0.154      0.008     6.3641     74.050     26.308  26.307276     2.2194      8.577   143.0519 1.5284e+02     4.9466      0.147      0.215    24.9791 0.0000e+00
      0.163      0.009     6.2977     73.469     26.292  26.289973     2.2099      8.573   143.5577 1.6670e+02     4.9399      0.159      0.232    24.9814 0.0000e+00
      0.172      0.004     6.2371     73.041     26.298  26.295003     2.2109      8.573   148.5018 1.8138e+02     4.8184      0.172      0.249    24.9881 0.0000e+00
      0.176     -0.010     6.1774     72.690     26.304  26.304711     2.2403      8.577   153.7014 1.9594e+02     4.7066      0.175      0.254    24.9943 0.0000e+00
      0.175     -0.035     6.1150     72.445     26.273  26.280606     2.2653      8.580   150.5864 2.0733e+02     4.6811      0.172      0.249    24.9937 0.0000e+00
      0.168     -0.064     6.0653     72.600     26.245  26.257086     2.2636      8.578   147.2332 2.1851e+02     4.6472      0.170      0.247    24.9895 0.0000e+00
      0.148     -0.095     6.0354     73.655     26.256  26.273846     2.2109      8.574   156.4359 2.9833e+02     4.6047      0.154      0.223    24.9869 0.0000e+00
      0.112     -0.128     6.0059     75.861     26.262  26.293121     2.1278      8.573   170.7404 4.9453e+02     4.6103      0.109      0.159    24.9900 0.0000e+00
      0.073     -0.160     5.9747     78.704     26.256  26.300023     2.0995      8.574   177.7063 7.5631e+02     4.6465      0.069      0.101    25.0137 0.0000e+00
      0.033     -0.185     5.9703     81.256     26.242  26.293940     2.1104      8.577   183.8746 1.1430e+03     4.7015      0.039      0.056    25.0192 0.0000e+00
     -0.019     -0.201     6.0428     82.968     26.224  26.282961     2.0603      8.582   190.0824 1.6045e+03     4.7281     -0.013     -0.020    25.0180 0.0000e+00
     -0.082     -0.208     6.2395     83.748     26.224  26.294060     1.9597      8.591   193.3976 1.8733e+03     4.7295     -0.082     -0.119    25.0549 0.0000e+00
     -0.145     -0.206     6.5057     83.688     26.219  26.301386     1.9095      8.597   196.5117 1.6301e+03     4.7187     -0.144     -0.210    25.0840 0.0000e+00
     -0.200     -0.190     6.7299     83.001     26.214  26.308184     1.9115      8.594   197.4500 1.3367e+03     4.6661     -0.198     -0.288    25.0918 0.0000e+00
     -0.249     -0.156     6.8686     81.965     26.211  26.312886     1.8921      8.582   196.2245 1.7075e+03     4.6393     -0.246     -0.356    25.1020 0.0000e+00
     -0.293     -0.113     6.9292     80.959     26.190  26.294869     1.8336      8.574   195.2019 2.0992e+03     4.6332     -0.291     -0.422    25.1250 0.0000e+00
     -0.324     -0.072     6.9130     80.412     26.172  26.280485     1.7943      8.573   195.4963 1.9728e+03     4.6617     -0.329     -0.479    25.1525 0.0000e+00
     -0.330     -0.037     6.8456     80.417     26.153  26.265730     1.7995      8.577   196.3423 1.8139e+03     4.7438     -0.331     -0.480    25.1778 0.0000e+00
     -0.316     -0.012     6.7501     80.712     26.129  26.243240     1.8046      8.581   196.9130 1.9702e+03     4.7380     -0.309     -0.448    25.1904 0.0000e+00
     -0.303      0.002     6.6483     80.976     26.147  26.262087     1.7897      8.585   197.2345 2.1515e+03     4.6605     -0.292     -0.425    25.1920 0.0000e+00
     -0.298      0.006     6.6006     80.968     26.188  26.303466     1.7777      8.587   197.4760 2.1503e+03     4.6265     -0.289     -0.420    25.2031 0.0000e+00
     -0.301      0.003     6.6104     80.559     26.184  26.299895     1.7842      8.583   197.3382 2.1309e+03     4.6350     -0.295     -0.427    25.2117 0.0000e+00
     -0.308     -0.000     6.6440     79.745     26.167  26.282285     1.7939      8.578   196.9457 2.1580e+03     4.6600     -0.302     -0.438    25.2130 0.0000e+00
     -0.315     -0.000     6.6729     78.622     26.166  26.280690     1.7945      8.574   196.6015 2.1825e+03     4.7232     -0.311     -0.451    25.2137 0.0000e+00
     -0.316      0.005     6.6754     77.307     26.166  26.280607     1.7917      8.574   196.1011 2.1508e+03     4.8196     -0.314     -0.454    25.2159 0.0000e+00
     -0.311      0.011     6.6420     75.899     26.167  26.281279     1.7934      8.574   195.3700 1.9803e+03     4.9033     -0.305     -0.442    25.2171 0.0000e+00
     -0.302      0.017     6.5714     74.488     26.174  26.288819     1.7981      8.574   194.7310 1.7639e+03     4.9829     -0.295     -0.428    25.2148 0.0000e+00
     -0.295      0.019     6.4758     73.165     26.194  26.308390     1.7822      8.573   194.3985 1.8108e+03     4.9966     -0.288     -0.418    25.2136 0.0000e+00
     -0.291      0.019     6.3649     72.006     26.213  26.327762     1.7517      8.571   194.1881 2.0414e+03     4.9324     -0.284     -0.412    25.2138 0.0000e+00
     -0.287      0.016     6.2466     71.039     26.218  26.332905     1.7364      8.570   193.6493 2.1699e+03     4.9242     -0.281     -0.407    25.2135 0.0000e+00
     -0.283      0.015     6.1279     70.264     26.192  26.307196     1.7392      8.569   192.7018 2.1966e+03     4.9649     -0.277     -0.402    25.2126 0.0000e+00
     -0.280      0.016     6.0161     69.637     26.156  26.270434     1.7598      8.569   191.8523 2.1988e+03     4.9472     -0.275     -0.399    25.2119 0.0000e+00
     -0.278      0.019     5.9210     69.102     26.154  26.268706     1.7862      8.571   191.3804 2.1942e+03     4.8809     -0.272     -0.395    25.2123 0.0000e+00
     -0.274      0.023     5.8404     68.647     26.171  26.286306     1.7999      8.575   191.2127 2.1905e+03     4.8457     -0.269     -0.391    25.2128 0.0000e+00
     -0.268      0.027     5.7781     68.256     26.176  26.293087     1.8010      8.576   191.2870 2.1836e+03     4.8637     -0.264     -0.382    25.2124 0.0000e+00
     -0.258      0.031     5.7296     67.921     26.170  26.287313     1.8155      8.576   191.3320 2.1733e+03     4.8937     -0.253     -0.368    25.2132 0.0000e+00
     -0.247      0.033     5.6838     67.611     26.162  26.279883     1.8507      8.576   191.1549 2.1669e+03     4.9005     -0.242     -0.352    25.2147 0.0000e+00
     -0.237      0.034     5.6482     67.310     26.149  26.266632     1.8691      8.577   191.2099 2.1652e+03     4.8773     -0.232     -0.336    25.2150 0.0000e+00
     -0.229      0.036     5.6152     67.040     26.139  26.253852     1.8718      8.578   191.6534 2.1584e+03     4.8863     -0.223     -0.324    25.2162 0.0000e+00
     -0.223      0.038     5.5882     66.780     26.140  26.252114     1.9079      8.578   192.2153 2.1428e+03     4.9421     -0.218     -0.317    25.2187 0.0000e+00
     -0.216      0.041     5.5646     66.546     26.136  26.245619     1.9639      8.576   192.7554 2.0802e+03     4.9707     -0.213     -0.309    25.2205 0.0000e+00
     -0.205      0.046     5.5367     66.432     26.134  26.238696     1.9752      8.574   193.1934 1.6517e+03     4.9589     -0.202     -0.293    25.2194 0.0000e+00
     -0.190      0.051     5.5177     66.452     26.135  26.231781     1.9608      8.573   193.5533 1.1250e+03     4.9021     -0.186     -0.270    25.2142 0.0000e+00
     -0.175      0.056     5.4966     66.514     26.137  26.225386     1.9638      8.572   193.8371 1.3203e+03     4.8306     -0.170     -0.248    25.2099 0.0000e+00
     -0.160      0.061     5.4730     66.536     26.145  26.224740     1.9877      8.571   193.5276 1.8562e+03     4.8451     -0.157     -0.228    25.2056 0.0000e+00
     -0.145      0.063     5.4645     66.491     26.151  26.223945     2.0163      8.568   185.8536 2.0650e+03     4.9757     -0.143     -0.208    25.1952 0.0000e+00
     -0.128      0.062     5.4717     66.446     26.149  26.215771     2.0268      8.561   178.2286 2.2238e+03     5.0772     -0.126     -0.182    25.1779 0.0000e+00
     -0.109      0.062     5.4811     66.632     26.129  26.189281     2.0323      8.554   184.8784 2.3407e+03     5.0822     -0.106     -0.153    25.1616 0.0000e+00
     -0.092      0.061     5.4842     67.242     26.104  26.157163     2.0571      8.549   192.7777 2.0677e+03     5.1049     -0.088     -0.128    25.1470 0.0000e+00
     -0.079      0.058     5.4822     68.251     26.098  26.144332     2.0857      8.546   193.8943 1.6690e+03     5.1460     -0.079     -0.113    25.1344 0.0000e+00
     -0.066      0.053     5.4710     69.666     26.118  26.160888     2.0865      8.546   194.2488 1.3457e+03     5.1354     -0.068     -0.097    25.1218 0.0000e+00
     -0.049      0.048     5.4788     71.538     26.127  26.167198     2.0836      8.547   193.9673 1.0153e+03     5.1475     -0.046     -0.067    25.1080 0.0000e+00
     -0.035      0.043     5.5363     73.786     26.121  26.157236     2.1082      8.550   189.8888 6.9980e+02     5.1554     -0.031     -0.046    25.0954 0.0000e+00
     -0.027      0.043     5.6200     76.186     26.131  26.167187     2.1436      8.551   178.9203 4.1469e+02     5.0596     -0.026     -0.039    25.0808 0.0000e+00
     -0.021      0.048     5.7329     78.302     26.120  26.160757     2.1533      8.547   166.7470 4.2389e+02     4.9468     -0.021     -0.030    25.0748 0.0000e+00
     -0.013      0.054     5.8926     79.712     26.100  26.142877     2.1421      8.538   160.4043 5.4374e+02     4.8845     -0.014     -0.020    25.0723 0.0000e+00
     -0.001      0.059     6.0828     80.352     26.099  26.141148     2.1656      8.531   158.1564 3.5858e+02     4.8862     -0.005     -0.008    25.0586 0.0000e+00
      0.019      0.061     6.2958     80.391     26.097  26.139857     2.2126      8.526   156.9477 1.5585e+02     4.8988      0.015      0.021    25.0559 0.0000e+00
      0.046      0.058     6.4852     80.052     26.084  26.127263     2.2197      8.524   156.2016 1.1705e+02     4.8668      0.047      0.069    25.0752 0.0000e+00
      0.066      0.051     6.5994     79.508     26.072  26.115634     2.2017      8.523   155.5020 1.1165e+02     4.8401      0.070      0.102    25.0779 0.0000e+00
      0.076      0.041     6.6479     78.864     26.077  26.126013     2.2112      8.523   154.7697 1.1988e+02     4.8152      0.076      0.110    25.0711 0.0000e+00
      0.080      0.029     6.6428     78.300     26.072  26.126002     2.2519      8.525   154.0582 1.3379e+02     4.7711      0.079      0.115    25.0810 0.0000e+00
      0.082      0.020     6.6091     78.006     26.059  26.115517     2.2853      8.528   153.5238 1.5102e+02     4.7168      0.081      0.117    25.0779 0.0000e+00
      0.082      0.016     6.5647     78.027     26.069  26.125992     2.2903      8.530   153.1278 1.6421e+02     4.6367      0.081      0.117    25.0713 0.0000e+00
      0.084      0.020     6.5035     78.371     26.068  26.125896     2.2794      8.530   152.7971 1.6947e+02     4.5885      0.082      0.119    25.0878 0.0000e+00
      0.089      0.026     6.4474     78.992     26.056  26.114363     2.2704      8.530   152.6221 1.7295e+02     4.6807      0.087      0.126    25.1027 0.0000e+00
      0.098      0.033     6.4239     79.693     26.055  26.113306     2.2638      8.530   152.5612 1.7781e+02     4.8288      0.095      0.139    25.1037 0.0000e+00
      0.109      0.039     6.4262     80.372     26.052  26.113115     2.2581      8.529   152.4051 1.8222e+02     4.8759      0.105      0.154    25.1009 0.0000e+00
      0.121      0.041     6.4519     81.085     26.044  26.112057     2.2598      8.527   150.8202 1.8057e+02     4.8404      0.118      0.170    25.1043 0.0000e+00
      0.135      0.038     6.5127     81.808     26.029  26.100523     2.2767      8.524   149.2298 1.7713e+02     4.7758      0.133      0.193    25.1097 0.0000e+00
      0.147      0.033     6.5746     82.404     26.030  26.100418     2.3125      8.522   150.2971 1.7511e+02     4.7438      0.145      0.211    25.1036 0.0000e+00
      0.154      0.027     6.6250     82.734     26.043  26.110790     2.3344      8.522   151.6791 1.7494e+02     4.7260      0.153      0.222    25.1066 0.0000e+00
      0.159      0.021     6.6830     82.740     26.033  26.099161     2.3258      8.521   152.0016 1.7834e+02     4.6640      0.157      0.227    25.1270 0.0000e+00
      0.160      0.014     6.7457     82.415     26.021  26.086581     2.3075      8.520   152.2180 1.8135e+02     4.6428      0.156      0.227    25.1346 0.0000e+00
      0.162      0.005     6.8011     81.774     26.017  26.085437     2.2890      8.520   152.2303 1.8154e+02     4.6746      0.158      0.229    25.1286 0.0000e+00
      0.165     -0.007     6.8295     80.904     26.011  26.085331     2.2686      8.522   152.2366 1.8664e+02     4.7066      0.162      0.235    25.1229 0.0000e+00
      0.168     -0.017     6.8306     79.907     26.005  26.085311     2.2521      8.522   152.6385 1.9890e+02     4.7228      0.166      0.241    25.1197 0.0000e+00
      0.164     -0.020     6.8045     78.864     26.004  26.085205     2.2726      8.519   153.3035 2.0948e+02     4.7680      0.165      0.240    25.1187 0.0000e+00
      0.150     -0.014     6.7480     77.901     26.006  26.084053     2.3254      8.513   153.7385 2.1938e+02     4.8770      0.150      0.218    25.1201 0.0000e+00
      0.131      0.001     6.6712     77.235     25.996  26.071378     2.3486      8.509   153.8542 2.1966e+02     4.9138      0.125      0.180    25.1354 0.0000e+00
      0.123      0.021     6.5852     77.007     25.982  26.058701     2.3369      8.509   153.8415 2.0682e+02     4.8710      0.111      0.161    25.1531 0.0000e+00
      0.135      0.042     6.4963     77.106     25.980  26.057539     2.3500      8.509   153.8432 1.9284e+02     4.9064      0.126      0.182    25.1540 0.0000e+00
      0.164      0.061     6.4111     77.356     25.982  26.057339     2.4077      8.510   153.7888 1.8200e+02     5.0337      0.162      0.234    25.1428 0.0000e+00
      0.194      0.072     6.3503     77.816     25.982  26.056283     2.4604      8.513   153.6133 1.7541e+02     5.1465      0.193      0.280    25.1337 0.0000e+00
      0.217      0.072     6.3360     78.644     25.972  26.044759     2.4707      8.518   153.7002 1.7071e+02     5.1436      0.215      0.311    25.1405 0.0000e+00
      0.234      0.066     6.3517     79.741     25.973  26.044759     2.4482      8.521   154.2369 1.6778e+02     5.0671      0.232      0.336    25.1482 0.0000e+00
      0.245      0.061     6.3705     80.746     25.987  26.056283     2.4062      8.522   154.7681 1.6748e+02     5.0066      0.241      0.350    25.1396 0.0000e+00
      0.252      0.059     6.4003     81.293     25.991  26.057329     2.3621      8.521   155.0468 1.6779e+02     4.9593      0.247      0.359    25.1329 0.0000e+00
      0.261      0.058     6.4716     81.227     25.991  26.057406     2.3468      8.519   155.1118 1.6434e+02     4.9387      0.253      0.366    25.1353 0.0000e+00
      0.280      0.055     6.5755     80.704     25.990  26.057206     2.3464      8.517   154.9525 1.5449e+02     4.9277      0.271      0.392    25.1329 0.0000e+00
      0.305      0.049     6.6696     79.929     25.988  26.054911     2.3743      8.519   154.7554 1.4509e+02     4.8607      0.303      0.439    25.1275 0.0000e+00
      0.325      0.038     6.7229     78.930     25.965  26.029665     2.4506      8.523   154.6209 1.4204e+02     4.7440      0.324      0.471    25.1200 0.0000e+00
      0.333      0.023     6.7099     77.729     25.943  26.005466     2.5114      8.528   154.7025 1.4260e+02     4.6445      0.331      0.480    25.1172 0.0000e+00
      0.332      0.007     6.6574     76.488     25.955  26.015837     2.5271      8.533   155.1396 1.4394e+02     4.6136      0.327      0.473    25.1251 0.0000e+00
      0.326     -0.003     6.5956     75.485     25.971  26.028305     2.5151      8.536   155.5176 1.4631e+02     4.6433      0.319      0.463    25.1248 0.0000e+00
      0.318     -0.006     6.5142     74.943     25.976  26.029448     2.5006      8.537   155.7462 1.4963e+02     4.6619      0.313      0.454    25.1172 0.0000e+00
      0.311     -0.001     6.4111     74.938     25.971  26.029654     2.5006      8.539   156.0107 1.4867e+02     4.6689      0.302      0.439    25.1122 0.0000e+00
      0.311      0.005     6.2996     75.511     25.963  26.030796     2.4987      8.540   156.1346 1.4259e+02     4.6932      0.300      0.435    25.1128 0.0000e+00
      0.320      0.011     6.2095     76.569     25.972  26.043272     2.4525      8.542   156.1257 1.3864e+02     4.6480      0.313      0.454    25.1056 0.0000e+00
      0.331      0.016     6.1673     77.815     25.986  26.053757     2.3748      8.544   156.1622 1.3683e+02     4.6002      0.327      0.474    25.0881 0.0000e+00
      0.336      0.020     6.1630     79.010     25.967  26.030795     2.3413      8.544   156.3162 1.3373e+02     4.6621      0.331      0.481    25.1003 0.0000e+00
      0.336      0.022     6.2071     80.016     25.955  26.019158     2.3475      8.542   156.5247 1.2898e+02     4.7133      0.329      0.477    25.1310 0.0000e+00
      0.336      0.019     6.3064     80.671     25.970  26.039814     2.3582      8.540   156.6189 1.2607e+02     4.6732      0.327      0.474    25.1373 0.0000e+00
      0.342      0.015     6.4173     80.962     25.948  26.027032     2.3794      8.539   156.7679 1.2748e+02     4.6215      0.334      0.483    25.1231 0.0000e+00
      0.353      0.011     6.5185     81.139     25.906  25.991395     2.3957      8.538   157.1207 1.3349e+02     4.6346      0.348      0.504    25.1137 0.0000e+00
      0.361      0.007     6.6080     81.423     25.906  25.989213     2.3976      8.537   157.3571 1.4251e+02     4.6602      0.359      0.521    25.1137 0.0000e+00
      0.359      0.003     6.6638     81.877     25.920  26.000642     2.3936      8.538   157.3039 1.4770e+02     4.6575      0.353      0.512    25.1234 0.0000e+00
      0.353      0.002     6.6731     82.564     25.922  26.002813     2.4066      8.539   157.1656 1.4686e+02     4.6706      0.344      0.498    25.1508 0.0000e+00
      0.348      0.003     6.6784     83.419     25.937  26.015469     2.4377      8.540   157.2328 1.4511e+02     4.6825      0.341      0.494    25.1660 0.0000e+00
      0.347      0.010     6.7047     84.094     25.952  26.026895     2.4533      8.541   157.3419 1.4448e+02     4.6983      0.339      0.492    25.1543 0.0000e+00
      0.350      0.021     6.7392     84.241     25.939  26.014210     2.4541      8.543   157.1941 1.4304e+02     4.7254      0.342      0.495    25.1463 0.0000e+00
      0.359      0.033     6.7947     83.843     25.913  25.988850     2.4724      8.546   156.9956 1.4223e+02     4.7709      0.350      0.508    25.1524 0.0000e+00
      0.371      0.044     6.8784     83.094     25.901  25.973785     2.5239      8.550   156.8344 1.4177e+02     4.9071      0.364      0.528    25.1476 0.0000e+00
      0.385      0.052     6.9498     82.149     25.889  25.958815     2.5696      8.553   156.4493 1.4051e+02     5.0061      0.378      0.549    25.1336 0.0000e+00
      0.400      0.058     6.9593     81.129     25.864  25.934606     2.5755      8.557   156.0391 1.3957e+02     4.9425      0.392      0.568    25.1393 0.0000e+00
      0.416      0.062     6.9179     80.231     25.865  25.934595     2.5781      8.560   156.0042 1.3913e+02     4.8547      0.408      0.592    25.1457 0.0000e+00
      0.432      0.061     6.8539     79.667     25.890  25.958678     2.6010      8.565   156.0273 1.3758e+02     4.8332      0.424      0.615    25.1331 0.0000e+00
      0.449      0.056     6.7750     79.613     25.900  25.972278     2.6186      8.571   155.8880 1.3058e+02     4.8534      0.439      0.637    25.1261 0.0000e+00
      0.468      0.046     6.6829     80.150     25.898  25.972278     2.6335      8.578   155.7826 1.2043e+02     4.8934      0.459      0.667    25.1345 0.0000e+00
      0.483      0.035     6.6030     81.225     25.887  25.958678     2.6404      8.586   155.6141 1.1523e+02     4.8390      0.479      0.694    25.1305 0.0000e+00
      0.489      0.024     6.5532     82.723     25.864  25.934594     2.6261      8.596   155.4853 1.1324e+02     4.7089      0.481      0.698    25.1197 0.0000e+00
      0.488      0.018     6.5428     84.364     25.864  25.934594     2.6194      8.609   155.7740 1.1186e+02     4.6863      0.479      0.694    25.1350 0.0000e+00
      0.486      0.019     6.5904     85.737     25.889  25.958679     2.6341      8.625   156.1796 1.1471e+02     4.7018      0.477      0.691    25.1433 0.0000e+00
      0.485      0.026     6.6814     86.522     25.905  25.972289     2.6623      8.640   156.2588 1.1793e+02     4.6574      0.473      0.687    25.1292 0.0000e+00
      0.490      0.036     6.8130     86.575     25.909  25.972393     2.6854      8.655   156.2153 1.1937e+02     4.6287      0.477      0.692    25.1280 0.0000e+00
      0.504      0.047     6.9625     85.959     25.900  25.959926     2.6891      8.669   156.0838 1.2121e+02     4.6622      0.492      0.712    25.1342 0.0000e+00
      0.525      0.055     7.0841     84.873     25.891  25.948299     2.6901      8.681   155.8743 1.2111e+02     4.7206      0.515      0.746    25.1306 0.0000e+00
      0.545      0.058     7.1554     83.514     25.902  25.958566     2.6977      8.689   155.9185 1.2120e+02     4.7191      0.537      0.778    25.1228 0.0000e+00
      0.560      0.055     7.1579     82.057     25.900  25.957309     2.7390      8.698   156.1024 1.2089e+02     4.7127      0.550      0.798    25.1154 0.0000e+00
      0.574      0.047     7.1007     80.682     25.877  25.933100     2.8149      8.708   156.0330 1.1724e+02     4.7802      0.563      0.817    25.1109 0.0000e+00
      0.585      0.039     7.0067     79.557     25.871  25.919376     2.8579      8.720   155.5951 1.1504e+02     4.8519      0.576      0.835    25.1042 0.0000e+00
      0.592      0.036     6.8905     78.727     25.882  25.918131     2.8680      8.732   155.1104 1.1440e+02     4.8960      0.581      0.843    25.0981 0.0000e+00
      0.596      0.039     6.7647     78.159     25.900  25.918021     2.8705      8.742   154.9042 1.1340e+02     4.9038      0.586      0.849    25.1054 0.0000e+00
      0.600      0.044     6.6444     77.774     25.920  25.918014     2.8628      8.752   154.8231 1.1404e+02     4.8778      0.588      0.852    25.1084 0.0000e+00
      0.610      0.048     6.5534     77.430     25.937  25.918016     2.8588      8.762   154.7325 1.1374e+02     4.8898      0.593      0.860    25.0902 0.0000e+00
      0.630      0.050     6.4890     77.051     25.949  25.918017     2.8554      8.771   154.5829 1.1115e+02     4.9459      0.617      0.895    25.0689 0.0000e+00
      0.653      0.049     6.4473     76.704     25.959  25.918008     2.8224      8.781   154.3908 1.0929e+02     4.9068      0.643      0.932    25.0345 0.0000e+00
      0.669      0.045     6.4274     76.488     25.966  25.917896     2.7664      8.792   154.3021 1.0936e+02     4.7587      0.659      0.955    24.9841 0.0000e+00
      0.677      0.038     6.4053     76.440     25.972  25.916650     2.7359      8.803   154.4569 1.0955e+02     4.6580      0.666      0.966    24.9531 0.0000e+00
      0.680      0.031     6.3736     76.541     25.965  25.902938     2.7456      8.815   154.9728 1.0770e+02     4.6461      0.666      0.967    24.9316 0.0000e+00
      0.682      0.028     6.3430     76.705     25.947  25.878844     2.8412      8.825   155.5497 1.0478e+02     4.7177      0.668      0.969    24.9141 0.0000e+00
      0.687      0.031     6.3263     76.862     25.952  25.878845     2.9936      8.832   155.5809 1.0125e+02     4.8058      0.673      0.976    24.9025 0.0000e+00
      0.695      0.035     6.3236     76.997     25.984  25.902941     3.0655      8.838   155.0059 9.7831e+01     4.8236      0.680      0.986    24.8873 0.0000e+00
      0.707      0.036     6.3369     77.018     26.011  25.916657     3.0695      8.845   154.5338 9.5987e+01     4.8302      0.692      1.003    24.8730 0.0000e+00
      0.722      0.031     6.3554     76.826     26.030  25.917907     3.1086      8.852   154.4319 9.3982e+01     4.8177      0.709      1.028    24.8611 0.0000e+00
      0.737      0.019     6.3664     76.461     26.052  25.918023     3.1804      8.858   154.2053 9.2099e+01     4.7410      0.727      1.054    24.8561 0.0000e+00
      0.742      0.003     6.3830     75.975     26.074  25.918037     3.2142      8.864   153.8589 9.2169e+01     4.6876      0.731      1.061    24.8443 0.0000e+00
      0.739     -0.017     6.3933     75.377     26.085  25.918040     3.2091      8.871   154.1153 9.2561e+01     4.7185      0.727      1.054    24.8133 0.0000e+00
      0.730     -0.035     6.3780     74.807     26.090  25.918040     3.2011      8.877   154.8958 9.2367e+01     4.7735      0.719      1.041    24.7831 0.0000e+00
      0.715     -0.045     6.3503     74.487     26.102  25.918031     3.1186      8.881   155.3799 9.2374e+01     4.7715      0.703      1.019    24.7390 0.0000e+00
      0.694     -0.043     6.3187     74.404     26.115  25.917920     2.9606      8.882   155.4950 9.2249e+01     4.6947      0.681      0.988    24.6824 0.0000e+00
      0.674     -0.030     6.2673     74.399     26.113  25.916672     2.8721      8.880   155.5998 9.1443e+01     4.6310      0.658      0.954    24.6654 0.0000e+00
      0.663     -0.011     6.2080     74.555     26.093  25.902947     2.8803      8.878   155.7868 8.9395e+01     4.6847      0.644      0.935    24.6760 0.0000e+00
      0.665      0.007     6.1857     75.059     26.060  25.878741     3.1595      8.876   155.7768 8.6198e+01     4.7972      0.648      0.940    24.6450 0.0000e+00
      0.678      0.020     6.1943     75.849     26.045  25.877534     3.6671      8.877   155.5643 8.4022e+01     4.8287      0.663      0.962    24.6002 0.0000e+00
      0.696      0.029     6.1875     76.840     26.045  25.888371     3.9329      8.882   155.5418 8.4859e+01     4.7937      0.684      0.992    24.6182 0.0000e+00
      0.711      0.036     6.1878     78.044     26.058  25.883021     3.9764      8.890   155.5043 8.8172e+01     4.8176      0.702      1.018    24.6317 0.0000e+00
      0.714      0.039     6.2350     79.318     26.098  25.876209     4.1593      8.900   155.1967 9.1758e+01     4.9474      0.704      1.021    24.6416 0.0000e+00
      0.711      0.037     6.3020     80.610     26.114  25.869307     4.4714      8.910   154.8333 9.3403e+01     5.0994      0.693      1.004    24.6704 0.0000e+00
      0.718      0.032     6.3725     82.004     26.102  25.862916     4.6293      8.922   154.6379 9.2277e+01     5.1509      0.695      1.008    24.7150 0.0000e+00
      0.741      0.029     6.4840     83.308     26.130  25.862335     4.6363      8.933   154.8138 9.1405e+01     5.1261      0.729      1.057    24.6952 0.0000e+00
      0.758      0.030     6.6124     84.239     26.208  25.862242     4.6566      8.942   155.0670 9.4640e+01     5.0739      0.753      1.094    24.5399 0.0000e+00
      0.757      0.034     6.7155     84.757     26.268  25.861665     4.6915      8.951   155.2047 9.8925e+01     4.9979      0.745      1.080    24.4889 0.0000e+00
      0.752      0.037     6.8320     85.114     26.271  25.855267     4.7169      8.958   155.4452 9.9221e+01     4.9581      0.732      1.061    24.5698 0.0000e+00
      0.757      0.038     6.9556     85.618     26.265  25.848258     4.7216      8.965   155.5666 9.8411e+01     4.9341      0.738      1.070    24.5368 0.0000e+00
      0.773      0.042     7.0628     86.128     26.275  25.840298     4.7318      8.973   155.5537 9.9686e+01     4.9810      0.758      1.099    24.3129 0.0000e+00
      0.793      0.047     7.1192     86.213     26.278  25.822378     4.8163      8.980   155.5470 1.0039e+02     5.1500      0.778      1.129    24.1656 0.0000e+00
      0.811      0.045     7.1264     85.758     26.284  25.821698     4.9354      8.988   155.4005 1.0105e+02     5.2352      0.798      1.158    24.2096 0.0000e+00
      0.824      0.030     7.1738     85.008     26.279  25.832066     4.9821      8.997   155.2445 1.0243e+02     5.1914      0.810      1.175    24.2183 0.0000e+00
      0.831      0.006     7.2437     84.231     26.239  25.821000     4.9729      9.006   155.3816 1.0326e+02     5.1672      0.815      1.181    24.1648 0.0000e+00
      0.835     -0.018     7.2589     83.516     26.217  25.814702     4.9064      9.013   155.9399 1.0654e+02     5.1130      0.823      1.194    24.1194 0.0000e+00
      0.828     -0.031     7.2137     82.862     26.223  25.819321     4.7855      9.014   156.5748 1.1345e+02     4.9803      0.820      1.189    24.0960 0.0000e+00
      0.803     -0.029     7.1365     82.365     26.223  25.813456     4.7184      9.012   156.7778 1.2081e+02     4.8946      0.790      1.145    24.1333 0.0000e+00
      0.774     -0.017     7.0593     82.112     26.212  25.807164     4.7115      9.014   156.5867 1.2502e+02     4.8965      0.753      1.092    24.2095 0.0000e+00
      0.762      0.001     6.9972     81.985     26.200  25.806632     4.7930      9.019   156.3293 1.2399e+02     5.0031      0.736      1.068    24.2450 0.0000e+00
      0.775      0.023     6.9410     81.833     26.197  25.807046     4.9632      9.025   156.1603 1.1915e+02     5.1589      0.753      1.092    24.2274 0.0000e+00
      0.804      0.045     6.8967     81.621     26.212  25.812176     5.0552      9.029   156.0921 1.1546e+02     5.2086      0.792      1.149    24.2003 0.0000e+00
      0.827      0.062     6.8805     81.429     26.214  25.805255     5.0564      9.033   156.1070 1.1655e+02     5.1951      0.818      1.185    24.2151 0.0000e+00
      0.839      0.068     6.8705     81.390     26.199  25.786723     5.0438      9.037   156.1682 1.1895e+02     5.1660      0.822      1.192    24.2501 0.0000e+00
      0.850      0.064     6.8565     81.510     26.199  25.778238     5.0367      9.042   156.1439 1.1935e+02     5.1295      0.831      1.206    24.2623 0.0000e+00
      0.867      0.059     6.8412     81.636     26.205  25.766037     5.0451      9.048   156.0718 1.1909e+02     5.1636      0.850      1.231    24.2310 0.0000e+00
      0.886      0.057     6.8218     81.576     26.225  25.765936     5.0461      9.053   156.1566 1.1853e+02     5.2029      0.870      1.262    24.2023 0.0000e+00
      0.901      0.057     6.8173     81.222     26.257  25.776980     5.0062      9.058   156.2224 1.1757e+02     5.1261      0.885      1.285    24.2167 0.0000e+00
      0.913      0.056     6.8343     80.541     26.273  25.772781     4.9458      9.062   156.0932 1.1614e+02     4.9876      0.894      1.296    24.2008 0.0000e+00
      0.926      0.052     6.8579     79.554     26.300  25.778523     4.9319      9.066   155.9715 1.1384e+02     4.9623      0.906      1.315    24.1574 0.0000e+00
      0.941      0.047     6.8598     78.357     26.328  25.782989     4.9543      9.071   155.9553 1.1171e+02     5.0255      0.924      1.341    24.1185 0.0000e+00
      0.954      0.041     6.8358     77.067     26.337  25.763364     4.9586      9.076   155.9829 1.1104e+02     5.0000      0.937      1.360    24.0807 0.0000e+00
      0.964      0.036     6.7839     75.801     26.342  25.731346     4.9751      9.081   156.0471 1.1121e+02     4.8929      0.947      1.373    24.0419 0.0000e+00
      0.972      0.030     6.7015     74.723     26.375  25.712702     5.0385      9.085   156.1297 1.1183e+02     4.7890      0.954      1.384    24.0028 0.0000e+00
      0.978      0.025     6.6026     74.057     26.465  25.728003     5.0929      9.088   156.1211 1.1300e+02     4.7352      0.959      1.391    23.9644 0.0000e+00
      0.982      0.023     6.4972     73.925     26.555  25.726112     5.1079      9.089   156.1156 1.1420e+02     4.7206      0.962      1.395    23.9099 0.0000e+00
      0.986      0.023     6.3944     74.230     26.621  25.689708     5.1118      9.091   156.3215 1.1515e+02     4.7489      0.966      1.402    23.8450 0.0000e+00
      0.992      0.026     6.3056     74.820     26.727  25.667977     5.1236      9.094   156.5450 1.1646e+02     4.8386      0.973      1.412    23.7538 0.0000e+00
      0.998      0.028     6.2611     75.688     26.865  25.653321     5.1425      9.097   156.7529 1.1751e+02     4.9169      0.978      1.419    23.6125 0.0000e+00
      1.004      0.028     6.2749     76.969     26.984  25.639046     5.1484      9.098   157.1147 1.1573e+02     4.9438      0.980      1.422    23.4375 0.0000e+00
      1.017      0.026     6.3281     78.727     27.054  25.621966     5.0778      9.098   157.4782 1.1222e+02     4.9256      0.997      1.445    23.2633 0.0000e+00
      1.029      0.025     6.4052     80.654     27.063  25.573443     4.9471      9.097   157.7920 1.0996e+02     4.9011      1.014      1.470    23.0422 0.0000e+00
      1.032      0.026     6.5139     82.222     27.099  25.559308     4.8750      9.095   157.9842 1.0843e+02     4.9211      1.013      1.470    22.7229 0.0000e+00
      1.032      0.026     6.6518     83.097     27.163  25.577758     4.8554      9.093   157.9945 1.0706e+02     4.9620      1.011      1.466    22.4600 0.0000e+00
      1.034      0.025     6.8307     83.253     27.168  25.542944     4.7519      9.092   157.9167 1.0600e+02     4.9515      1.011      1.467    22.3369 0.0000e+00
      1.043      0.023     7.0323     82.853     27.177  25.518589     4.5636      9.092   157.9034 1.0468e+02     4.8974      1.019      1.478    22.2405 0.0000e+00
      1.057      0.020     7.1911     82.081     27.220  25.536752     4.4676      9.093   158.0063 1.0372e+02     4.9216      1.037      1.505    22.1466 0.0000e+00
      1.067      0.017     7.2775     81.079     27.212  25.509002     4.4911      9.094   158.1275 1.0412e+02     5.0054      1.049      1.522    22.0769 0.0000e+00
      1.069      0.013     7.2947     80.038     27.155  25.436560     4.6223      9.094   158.5092 1.0558e+02     4.9894      1.050      1.522    21.9997 0.0000e+00
      1.065      0.012     7.2636     79.224     27.149  25.421380     4.8389      9.092   159.0072 1.0657e+02     4.8985      1.044      1.515    21.9337 0.0000e+00
      1.061      0.015     7.1965     78.736     27.185  25.452208     4.9634      9.090   159.1588 1.0659e+02     4.8625      1.039      1.506    21.9029 0.0000e+00
      1.061      0.023     7.1091     78.430     27.169  25.429022     4.9864      9.089   159.0523 1.0630e+02     4.8958      1.038      1.505    21.8680 0.0000e+00
      1.069      0.033     7.0132     78.175     27.146  25.394540     5.0006      9.089   158.9238 1.0551e+02     4.9253      1.046      1.516    21.8202 0.0000e+00
      1.084      0.043     6.9388     77.956     27.176  25.415536     5.0776      9.089   158.9820 1.0436e+02     4.9458      1.062      1.541    21.8086 0.0000e+00
      1.103      0.050     6.9039     77.809     27.188  25.429363     5.2174      9.089   159.1537 1.0406e+02     5.0078      1.083      1.571    21.8151 0.0000e+00
      1.118      0.052     6.8831     77.762     27.193  25.434974     5.3011      9.090   159.1927 1.0453e+02     5.0596      1.098      1.592    21.7957 0.0000e+00
      1.129      0.049     6.8652     77.804     27.248  25.483381     5.3238      9.091   159.1092 1.0454e+02     5.0934      1.107      1.606    21.7634 0.0000e+00
      1.140      0.044     6.8462     77.823     27.279  25.507609     5.3342      9.092   159.0043 1.0411e+02     5.1431      1.118      1.621    21.7464 0.0000e+00
      1.152      0.036     6.8307     77.695     27.252  25.474392     5.3345      9.094   158.9571 1.0346e+02     5.1481      1.130      1.638    21.7636 0.0000e+00
      1.162      0.027     6.8254     77.484     27.244  25.462022     5.3276      9.095   158.8824 1.0268e+02     5.1206      1.141      1.655    21.7661 0.0000e+00
      1.171      0.018     6.8339     77.282     27.270  25.484794     5.3257      9.096   158.8754 1.0259e+02     5.1171      1.150      1.668    21.7550 0.0000e+00
      1.174      0.011     6.8437     77.043     27.287  25.496214     5.3198      9.096   158.9593 1.0348e+02     5.0718      1.153      1.673    21.7538 0.0000e+00
      1.172      0.006     6.8304     76.699     27.268  25.473339     5.2900      9.096   158.8640 1.0476e+02     4.9829      1.150      1.669    21.7299 0.0000e+00
      1.168      0.003     6.8082     76.247     27.258  25.461719     5.2655      9.096   158.8410 1.0569e+02     4.9306      1.144      1.660    21.7203 0.0000e+00
      1.167      0.002     6.7941     75.756     27.283  25.482464     5.2640      9.096   159.0259 1.0587e+02     4.9166      1.144      1.658    21.7252 0.0000e+00
      1.169      0.003     6.7763     75.261     27.276  25.470645     5.2718      9.096   159.0343 1.0560e+02     4.9848      1.147      1.664    21.7122 0.0000e+00
      1.173      0.006     6.7487     74.731     27.254  25.445575     5.2766      9.096   158.8563 1.0507e+02     5.1070      1.150      1.668    21.6991 0.0000e+00
      1.177      0.009     6.7059     74.215     27.242  25.432841     5.2726      9.096   158.8530 1.0445e+02     5.1640      1.155      1.675    21.6984 0.0000e+00
      1.178      0.011     6.6600     73.798     27.252  25.443443     5.2726      9.093   159.0806 1.0429e+02     5.1620      1.155      1.676    21.7007 0.0000e+00
      1.179      0.011     6.6228     73.502     27.237  25.446999     5.2518      9.088   159.3708 1.0458e+02     5.1506      1.154      1.675    21.6834 0.0000e+00
      1.181      0.011     6.5744     73.454     27.082  25.349105     5.1963      9.082   159.8671 1.0466e+02     5.1635      1.157      1.680    21.6744 0.0000e+00
      1.186      0.014     6.5251     74.081     26.947  25.273936     5.1593      9.076   160.4350 1.0409e+02     5.1808      1.162      1.684    21.6730 0.0000e+00
      1.192      0.019     6.4901     75.803     26.956  25.298749     5.1458      9.071   160.6447 1.0479e+02     5.1552      1.172      1.699    21.6686 0.0000e+00
      1.192      0.026     6.4613     78.507     26.924  25.268860     5.1417      9.068   160.6813 1.0757e+02     5.1274      1.171      1.699    21.6815 0.0000e+00
      1.194      0.031     6.4285     81.527     26.874  25.229447     5.1511      9.068   160.7920 1.0758e+02     5.2206      1.163      1.689    21.7888 0.0000e+00
      1.206      0.035     6.4466     84.090     26.915  25.265870     5.1504      9.068   160.8649 1.0412e+02     5.3595      1.182      1.714    21.9304 0.0000e+00
      1.222      0.038     6.6019     85.784     26.932  25.265596     5.1421      9.069   160.8735 1.0160e+02     5.3723      1.200      1.741    21.9298 0.0000e+00
      1.234      0.041     6.8658     86.589     26.905  25.226112     5.1510      9.070   160.8108 1.0012e+02     5.3407      1.210      1.755    21.9020 0.0000e+00
      1.244      0.046     7.1519     86.604     26.918  25.232097     5.1820      9.070   160.8807 9.8701e+01     5.3531      1.222      1.771    21.9487 0.0000e+00
      1.252      0.051     7.3895     85.947     26.964  25.274571     5.2181      9.067   161.2887 9.7729e+01     5.3852      1.228      1.781    21.9464 0.0000e+00
      1.261      0.061     7.5418     84.810     26.982  25.296016     5.2212      9.061   161.6993 9.6626e+01     5.3535      1.235      1.792    21.8928 0.0000e+00
      1.273      0.071     7.6130     83.515     26.902  25.237873     5.2022      9.056   161.8874 9.4714e+01     5.2771      1.245      1.806    21.8727 0.0000e+00
      1.294      0.076     7.6121     82.386     26.777  25.141990     5.2140      9.052   162.0153 9.1854e+01     5.3502      1.262      1.832    21.8604 0.0000e+00
      1.326      0.073     7.5506     81.520     26.777  25.150775     5.2468      9.050   162.2137 8.8909e+01     5.5198      1.301      1.886    21.8589 0.0000e+00
      1.357      0.062     7.4393     80.837     26.854  25.217357     5.2581      9.050   162.3923 8.7454e+01     5.5850      1.338      1.939    21.8633 0.0000e+00
      1.375      0.045     7.3088     80.252     26.825  25.186483     5.2586      9.053   162.4544 8.7751e+01     5.5930      1.353      1.962    21.8922 0.0000e+00
      1.380      0.026     7.2002     79.749     26.791  25.157745     5.2608      9.055   162.6202 8.8856e+01     5.5142      1.355      1.965    21.9533 0.0000e+00
      1.375      0.010     7.1252     79.302     26.826  25.186784     5.2517      9.055   162.8482 9.0317e+01     5.3157      1.350      1.958    21.9712 0.0000e+00
      1.366      0.002     7.0731     78.886     26.799  25.157315     5.2319      9.055   162.8887 9.1366e+01     5.1737      1.339      1.941    21.9427 0.0000e+00
      1.361      0.004     7.0226     78.562     26.754  25.118323     5.2126      9.055   162.9373 9.0853e+01     5.1282      1.330      1.929    21.9289 0.0000e+00
      1.363      0.013     6.9757     78.362     26.796  25.158991     5.2095      9.055   163.0915 8.9601e+01     5.1420      1.334      1.937    21.9579 0.0000e+00
      1.371      0.023     6.9411     78.178     26.849  25.205376     5.2193      9.055   163.1189 8.8640e+01     5.1700      1.344      1.950    21.9416 0.0000e+00
      1.381      0.033     6.9044     77.863     26.817  25.172136     5.2236      9.055   163.0963 8.7419e+01     5.1596      1.353      1.963    21.9190 0.0000e+00
      1.392      0.039     6.8702     77.331     26.782  25.137354     5.2199      9.054   163.2482 8.5930e+01     5.1191      1.365      1.980    21.9445 0.0000e+00
      1.404      0.042     6.8579     76.594     26.810  25.165094     5.2162      9.054   163.4932 8.4745e+01     5.0886      1.377      1.997    21.9422 0.0000e+00
      1.414      0.043     6.8480     75.718     26.836  25.190652     5.2204      9.054   163.7348 8.3765e+01     5.0981      1.387      2.012    21.9322 0.0000e+00
      1.424      0.043     6.8243     74.722     26.838  25.192872     5.2292      9.054   164.0183 8.2882e+01     5.1325      1.396      2.025    21.9256 0.0000e+00
      1.435      0.043     6.7785     73.640     26.838  25.191930     5.2231      9.053   164.2543 8.2175e+01     5.1620      1.406      2.039    21.9195 0.0000e+00
      1.446      0.042     6.7082     72.550     26.824  25.179265     5.2128      9.051   164.3510 8.1415e+01     5.1479      1.418      2.057    21.9291 0.0000e+00
      1.458      0.040     6.6325     71.527     26.810  25.166487     5.2303      9.051   164.4136 8.0689e+01     5.0645      1.431      2.074    21.9329 0.0000e+00
      1.469      0.037     6.5446     70.622     26.806  25.164192     5.2669      9.050   164.4944 8.0239e+01     4.9741      1.442      2.091    21.9296 0.0000e+00
      1.478      0.034     6.4466     69.829     26.792  25.151517     5.2896      9.050   164.4680 7.9953e+01     4.9425      1.451      2.104    21.9292 0.0000e+00
      1.486      0.032     6.3495     69.136     26.778  25.139989     5.2883      9.050   164.4382 7.9678e+01     4.9220      1.457      2.114    21.9295 0.0000e+00
      1.492      0.031     6.2573     68.531     26.789  25.151561     5.3010      9.049   164.5646 7.9423e+01     4.9645      1.463      2.121    21.9294 0.0000e+00
      1.498      0.030     6.1791     67.998     26.803  25.164684     5.3512      9.047   164.7051 7.9064e+01     5.1157      1.469      2.130    21.9324 0.0000e+00
      1.506      0.029     6.1092     67.499     26.813  25.171904     5.3967      9.047   164.7615 7.8376e+01     5.2132      1.477      2.143    21.9353 0.0000e+00
      1.516      0.028     6.0491     67.021     26.819  25.175475     5.4094      9.047   164.8158 7.7579e+01     5.1863      1.487      2.157    21.9360 0.0000e+00
      1.525      0.027     5.9959     66.617     26.789  25.144477     5.4129      9.047   165.0170 7.7087e+01     5.0643      1.496      2.170    21.9407 0.0000e+00
      1.531      0.026     5.9501     66.250     26.761  25.113995     5.4317      9.047   165.3016 7.6817e+01     4.9328      1.502      2.179    21.9410 0.0000e+00
      1.535      0.026     5.9099     65.842     26.775  25.123799     5.4534      9.047   165.4177 7.6511e+01     4.9290      1.506      2.185    21.9338 0.0000e+00
      1.540      0.026     5.8628     65.427     26.793  25.136264     5.4590      9.046   165.3878 7.6257e+01     4.9497      1.509      2.190    21.9326 0.0000e+00
      1.546      0.027     5.8305     65.053     26.799  25.137946     5.4485      9.044   165.4567 7.5793e+01     4.9106      1.515      2.197    21.9274 0.0000e+00
      1.554      0.028     5.8048     64.727     26.804  25.144125     5.4433      9.043   165.5629 7.5114e+01     5.0025      1.524      2.211    21.9145 0.0000e+00
      1.563      0.030     5.7656     64.418     26.804  25.147598     5.4629      9.041   165.4668 7.4680e+01     5.2408      1.533      2.224    21.9112 0.0000e+00
      1.571      0.031     5.7292     64.095     26.772  25.116573     5.4947      9.039   165.4132 7.4215e+01     5.4009      1.541      2.235    21.9042 0.0000e+00
      1.579      0.031     5.6977     63.783     26.742  25.085880     5.5194      9.037   165.6030 7.3506e+01     5.4001      1.549      2.246    21.8898 0.0000e+00
      1.587      0.030     5.6695     63.516     26.751  25.093385     5.5197      9.034   165.6970 7.2950e+01     5.3341      1.556      2.256    21.8949 0.0000e+00
      1.594      0.030     5.6429     63.306     26.739  25.080552     5.5071      9.031   165.7759 7.2598e+01     5.3211      1.563      2.269    21.9107 0.0000e+00
      1.601      0.030     5.6131     63.144     26.720  25.057472     5.5081      9.027   166.0405 7.2088e+01     5.3788      1.570      2.278    21.9074 0.0000e+00
      1.609      0.030     5.5864     62.986     26.739  25.067832     5.5070      9.021   166.2286 7.1506e+01     5.4512      1.578      2.288    21.8938 0.0000e+00
      1.617      0.030     5.5622     62.790     26.759  25.079051     5.4778      9.013   166.3293 7.0985e+01     5.4108      1.585      2.299    21.8946 0.0000e+00
      1.625      0.030     5.5439     62.600     26.755  25.066348     5.4374      9.003   166.4837 7.0454e+01     5.2318      1.594      2.312    21.8980 0.0000e+00
      1.634      0.030     5.5323     62.484     26.740  25.040978     5.4345      8.990   166.6329 7.0174e+01     5.1318      1.603      2.325    21.8833 0.0000e+00
      1.640      0.030     5.5226     62.408     26.740  25.025800     5.4604      8.974   166.8434 7.0110e+01     5.1924      1.608      2.332    21.8693 0.0000e+00
      1.646      0.030     5.5054     62.343     26.740  25.009565     5.4836      8.957   167.1354 6.9956e+01     5.2128      1.614      2.341    21.8569 0.0000e+00
      1.654      0.029     5.4853     62.305     26.718  24.971417     5.5149      8.941   167.4108 6.9624e+01     5.1388      1.622      2.352    21.8384 0.0000e+00
      1.663      0.028     5.4811     62.328     26.710  24.944792     5.5385      8.928   167.6771 6.9158e+01     5.1181      1.630      2.365    21.8244 0.0000e+00
      1.671      0.025     5.4781     62.443     26.722  24.941117     5.5526      8.916   167.9466 6.8823e+01     5.1331      1.639      2.378    21.7888 0.0000e+00
      1.678      0.022     5.4750     62.610     26.726  24.926977     5.5698      8.906   168.1742 6.8718e+01     5.1832      1.647      2.388    21.7562 0.0000e+00
      1.683      0.018     5.4745     62.800     26.726  24.900552     5.5635      8.899   168.1917 6.8669e+01     5.2806      1.651      2.395    21.7309 0.0000e+00
      1.687      0.016     5.4778     63.015     26.722  24.875079     5.5432      8.893   168.0726 6.8705e+01     5.3533      1.654      2.400    21.6841 0.0000e+00
      1.689      0.016     5.4937     63.232     26.737  24.872460     5.5492      8.886   168.1969 6.8847e+01     5.4136      1.656      2.402    21.6631 0.0000e+00
      1.690      0.017     5.5117     63.435     26.755  24.868866     5.5606      8.879   168.9205 6.8891e+01     5.4288      1.656      2.402    21.6400 0.0000e+00
      1.693      0.019     5.5341     63.615     26.743  24.831594     5.5651      8.871   170.1109 6.8600e+01     5.3325      1.659      2.407    21.5735 0.0000e+00
      1.700      0.021     5.5598     63.805     26.738  24.802033     5.5856      8.864   171.1455 6.8130e+01     5.1714      1.667      2.418    21.5293 0.0000e+00
      1.709      0.021     5.5800     64.085     26.716  24.764920     5.6008      8.857   171.7937 6.7795e+01     5.1206      1.677      2.432    21.5165 0.0000e+00
      1.716      0.021     5.6036     64.498     26.661  24.699727     5.6077      8.849   172.0974 6.7537e+01     5.1971      1.684      2.442    21.4732 0.0000e+00
      1.720      0.021     5.6248     65.103     26.626  24.647535     5.6278      8.842   172.1513 6.7406e+01     5.1736      1.689      2.448    21.4206 0.0000e+00
      1.724      0.021     5.6427     65.927     26.568  24.577471     5.6522      8.836   172.1873 6.7415e+01     5.0760      1.691      2.452    21.3683 0.0000e+00
      1.727      0.022     5.6714     66.847     26.490  24.486327     5.6697      8.830   172.1880 6.7254e+01     5.1093      1.692      2.455    21.3390 0.0000e+00
      1.732      0.024     5.7069     67.729     26.460  24.432756     5.6724      8.821   172.1590 6.6880e+01     5.2007      1.698      2.462    21.3292 0.0000e+00
      1.740      0.027     5.7636     68.521     26.423  24.373344     5.6682      8.811   172.2680 6.6456e+01     5.2237      1.707      2.475    21.2711 0.0000e+00
      1.749      0.029     5.8458     69.279     26.344  24.274946     5.6688      8.802   172.4722 6.6102e+01     5.1837      1.715      2.487    21.2485 0.0000e+00
      1.757      0.030     5.9340     70.111     26.286  24.193620     5.6629      8.793   172.6492 6.5842e+01     5.1272      1.723      2.499    21.2274 0.0000e+00
      1.765      0.030     6.0226     70.976     26.267  24.150495     5.6634      8.784   172.7732 6.5521e+01     5.1203      1.731      2.510    21.1544 0.0000e+00
      1.772      0.029     6.0958     71.748     26.282  24.133737     5.6677      8.775   173.1122 6.5165e+01     5.1358      1.738      2.520    21.1213 0.0000e+00
      1.779      0.028     6.1625     72.447     26.300  24.117711     5.6476      8.767   173.6510 6.4829e+01     5.1096      1.744      2.530    21.0698 0.0000e+00
      1.786      0.027     6.2464     73.186     26.291  24.083428     5.6201      8.760   174.2105 6.4526e+01     5.0761      1.752      2.541    21.0100 0.0000e+00
      1.793      0.025     6.3350     74.021     26.265  24.036063     5.6106      8.754   174.9728 6.4285e+01     5.0726      1.759      2.551    20.9737 0.0000e+00
      1.800      0.024     6.4098     74.908     26.231  23.988623     5.6575      8.748   175.5549 6.3975e+01     5.1007      1.765      2.560    20.9084 0.0000e+00
      1.806      0.022     6.4764     75.774     26.201  23.953427     5.7451      8.743   175.7424 6.3741e+01     5.1430      1.771      2.568    20.8387 0.0000e+00
      1.811      0.020     6.5461     76.572     26.185  23.927368     5.7793      8.740   175.8627 6.3542e+01     5.1398      1.775      2.576    20.7946 0.0000e+00
      1.816      0.019     6.6288     77.263     26.202  23.927025     5.7637      8.737   176.0630 6.3194e+01     5.1306      1.781      2.582    20.7487 0.0000e+00
      1.820      0.018     6.7165     77.811     26.237  23.949263     5.7560      8.732   176.4427 6.2904e+01     5.1680      1.785      2.589    20.7103 0.0000e+00
      1.824      0.017     6.7943     78.165     26.238  23.942735     5.7780      8.727   177.0129 6.2630e+01     5.2514      1.789      2.594    20.7129 0.0000e+00
      1.828      0.016     6.8706     78.288     26.222  23.911460     5.8206      8.723   177.7947 6.2316e+01     5.3530      1.793      2.600    20.6897 0.0000e+00
      1.833      0.015     6.9401     78.278     26.218  23.887968     5.8383      8.719   178.5818 6.2126e+01     5.3719      1.798      2.607    20.6424 0.0000e+00
      1.837      0.014     6.9917     78.276     26.195  23.848790     5.8421      8.715   179.0441 6.1994e+01     5.3765      1.802      2.614    20.6333 0.0000e+00
      1.841      0.013     7.0271     78.311     26.178  23.817978     5.9833      8.712   179.2547 6.1857e+01     5.3748      1.805      2.619    20.6301 0.0000e+00
      1.843      0.013     7.0394     78.362     26.197  23.832264     6.2480      8.709   179.4936 6.1720e+01     5.2495      1.807      2.621    20.5936 0.0000e+00
      1.845      0.014     7.0378     78.422     26.185  23.831399     6.3874      8.705   179.8672 6.1635e+01     5.1251      1.810      2.625    20.5466 0.0000e+00
      1.848      0.015     7.0428     78.538     26.153  23.807534     6.3954      8.700   180.2437 6.1538e+01     5.1006      1.812      2.628    20.5170 0.0000e+00
      1.852      0.018     7.0522     78.841     26.148  23.797216     6.4020      8.694   180.6048 6.1203e+01     5.1240      1.815      2.633    20.4786 0.0000e+00
      1.858      0.022     7.0582     79.345     26.129  23.770007     6.4176      8.688   180.7059 6.0762e+01     5.1685      1.822      2.642    20.4645 0.0000e+00
      1.864      0.024     7.0581     79.893     26.104  23.732033     6.4182      8.683   180.4342 6.0367e+01     5.1602      1.828      2.651    20.5106 0.0000e+00
      1.871      0.025     7.0601     80.383     26.108  23.718297     6.4009      8.677   180.3304 5.9947e+01     5.0927      1.835      2.661    20.5185 0.0000e+00
      1.879      0.025     7.0883     80.758     26.139  23.730649     6.3415      8.672   180.3973 5.9534e+01     5.1032      1.843      2.672    20.4979 0.0000e+00
      1.885      0.024     7.1448     81.070     26.179  23.754619     6.2403      8.668   180.4688 5.9148e+01     5.1508      1.849      2.682    20.4897 0.0000e+00
      1.890      0.023     7.2000     81.421     26.185  23.754599     6.1851      8.664   180.5072 5.8753e+01     5.1563      1.853      2.688    20.4505 0.0000e+00
      1.895      0.023     7.2520     81.768     26.164  23.730401     6.1737      8.660   180.2592 5.8304e+01     5.1692      1.858      2.695    20.4178 0.0000e+00
      1.901      0.022     7.2897     82.123     26.155  23.715536     6.0861      8.656   179.9652 5.7811e+01     5.1705      1.864      2.704    20.3907 0.0000e+00
      1.907      0.022     7.3131     82.498     26.150  23.701607     5.9325      8.652   180.0495 5.7344e+01     5.1721      1.870      2.712    20.3551 0.0000e+00
      1.913      0.021     7.3533     82.893     26.151  23.688717     5.8556      8.648   180.4177 5.6833e+01     5.1536      1.875      2.720    20.3541 0.0000e+00
      1.919      0.020     7.3822     83.378     26.168  23.686405     5.8479      8.646   180.8039 5.6270e+01     5.0833      1.882      2.729    20.3483 0.0000e+00
      1.924      0.018     7.4145     83.763     26.176  23.673627     5.8399      8.644   181.2771 5.5776e+01     5.0394      1.887      2.737    20.3300 0.0000e+00
      1.928      0.016     7.4569     83.954     26.184  23.660946     5.8160      8.643   181.8373 5.5473e+01     5.1012      1.891      2.742    20.3218 0.0000e+00
      1.932      0.015     7.4835     84.108     26.201  23.659794     5.7845      8.641   182.4155 5.5249e+01     5.2507      1.895      2.748    20.2892 0.0000e+00
      1.935      0.014     7.5471     84.228     26.216  23.659682     5.7827      8.641   183.1051 5.4983e+01     5.3429      1.898      2.752    20.2543 0.0000e+00
      1.938      0.014     7.5943     84.373     26.231  23.659571     5.7866      8.640   183.8953 5.4782e+01     5.3276      1.900      2.755    20.2159 0.0000e+00
      1.941      0.015     7.6009     84.523     26.241  23.658430     5.7900      8.638   184.5694 5.4577e+01     5.3739      1.904      2.760    20.1734 0.0000e+00
      1.945      0.017     7.6302     84.613     26.237  23.645871     5.8241      8.636   184.9751 5.4284e+01     5.5259      1.907      2.766    20.1464 0.0000e+00
      1.950      0.018     7.6371     84.780     26.235  23.634463     5.8489      8.635   185.2724 5.4006e+01     5.5949      1.912      2.773    20.1167 0.0000e+00
      1.955      0.019     7.6539     85.076     26.257  23.647233     5.8407      8.635   185.4979 5.3786e+01     5.5598      1.917      2.780    20.0919 0.0000e+00
      1.961      0.021     7.6813     85.616     26.291  23.673516     5.8672      8.634   185.5504 5.3554e+01     5.4426      1.923      2.789    20.0750 0.0000e+00
      1.966      0.022     7.6762     86.487     26.323  23.698751     5.9437      8.632   185.6489 5.3241e+01     5.2706      1.929      2.796    20.0565 0.0000e+00
      1.971      0.024     7.7003     87.489     26.325  23.698855     5.9993      8.629   185.9145 5.2911e+01     5.2226      1.932      2.803    20.0397 0.0000e+00
      1.977      0.025     7.7242     88.466     26.299  23.674762     6.0159      8.625   186.1804 5.2633e+01     5.2046      1.938      2.810    20.0243 0.0000e+00
      1.983      0.025     7.7650     89.310     26.285  23.660946     6.0278      8.620   186.3676 5.2252e+01     5.1556      1.945      2.820    20.0163 0.0000e+00
      1.991      0.025     7.8599     89.828     26.287  23.658547     6.0516      8.615   186.3714 5.1782e+01     5.2447      1.952      2.832    20.0114 0.0000e+00
      1.999      0.024     7.9547     89.890     26.277  23.645752     6.0702      8.610   186.1409 5.1414e+01     5.3594      1.961      2.844    20.0032 0.0000e+00
      2.005      0.022     8.0434     89.349     26.270  23.632973     6.0773      8.606   185.8184 5.1114e+01     5.3799      1.966      2.853    20.0066 0.0000e+00
      2.010      0.019     8.1309     88.198     26.277  23.630782     6.0881      8.602   185.4832 5.0888e+01     5.2879      1.971      2.859    20.0074 0.0000e+00
      2.014      0.015     8.1807     86.928     26.276  23.619252     6.1006      8.599   185.1851 5.0767e+01     5.1360      1.976      2.866    19.9967 0.0000e+00
      2.017      0.011     8.1913     85.981     26.288  23.620292     6.1119      8.596   185.0538 5.0607e+01     5.1142      1.978      2.869    19.9896 0.0000e+00
      2.019      0.009     8.1544     85.411     26.322  23.643346     6.1257      8.594   185.1861 5.0404e+01     5.1607      1.981      2.873    19.9785 0.0000e+00
      2.021      0.009     8.0263     85.171     26.329  23.644489     6.1256      8.593   185.7520 5.0281e+01     5.1518      1.983      2.876    19.9591 0.0000e+00
      2.023      0.009     7.8972     85.133     26.322  23.634111     6.0777      8.591   186.5614 5.0215e+01     5.2110      1.983      2.877    19.9390 0.0000e+00
      2.024      0.010     7.8192     85.174     26.337  23.644604     5.9956      8.590   186.8853 5.0096e+01     5.3649      1.984      2.878    19.9201 0.0000e+00
      2.026      0.012     7.7673     85.301     26.337  23.644614     5.9481      8.588   186.7421 4.9904e+01     5.4413      1.987      2.881    19.9053 0.0000e+00
      2.029      0.015     7.7531     85.467     26.324  23.634226     5.9536      8.585   186.7240 4.9664e+01     5.4177      1.989      2.885    19.8947 0.0000e+00
      2.034      0.018     7.7566     85.538     26.336  23.645749     6.0038      8.583   186.8376 4.9330e+01     5.3185      1.994      2.892    19.8869 0.0000e+00
      2.040      0.020     7.7580     85.519     26.350  23.657184     6.0801      8.580   186.9974 4.8934e+01     5.1985      2.000      2.901    19.8835 0.0000e+00
      2.047      0.020     7.7693     85.404     26.339  23.645748     6.1279      8.577   187.1934 4.8636e+01     5.1961      2.008      2.911    19.8840 0.0000e+00
      2.052      0.020     7.7940     85.130     26.328  23.634226     6.1405      8.575   187.3145 4.8443e+01     5.2213      2.013      2.919    19.8863 0.0000e+00
      2.056      0.019     7.7961     84.826     26.341  23.644615     6.1491      8.573   187.3434 4.8238e+01     5.1623      2.017      2.925    19.8879 0.0000e+00
      2.061      0.018     7.7931     84.613     26.343  23.644606     6.1652      8.570   187.3694 4.8003e+01     5.0971      2.021      2.932    19.8871 0.0000e+00
      2.065      0.018     7.7913     84.448     26.335  23.634123     6.1855      8.568   187.6296 4.7743e+01     5.1164      2.025      2.938    19.8840 0.0000e+00
      2.069      0.018     7.7581     84.294     26.355  23.644598     6.2111      8.567   188.0805 4.7444e+01     5.1902      2.029      2.943    19.8809 0.0000e+00
      2.074      0.017     7.7250     84.109     26.366  23.644504     6.3672      8.565   188.3478 4.7165e+01     5.2041      2.034      2.950    19.8789 0.0000e+00
      2.079      0.016     7.7114     83.876     26.363  23.632973     6.6567      8.561   188.4523 4.6933e+01     5.1479      2.038      2.958    19.8759 0.0000e+00
      2.084      0.015     7.6964     83.730     26.370  23.631917     6.8321      8.560   188.4831 4.6727e+01     5.1253      2.044      2.965    19.8700 0.0000e+00
      2.088      0.014     7.6861     83.748     26.376  23.631728     6.8735      8.560   188.3765 4.6517e+01     5.1697      2.048      2.971    19.8551 0.0000e+00
      2.090      0.013     7.6761     83.803     26.376  23.630683     6.9655      8.559   188.3681 4.6304e+01     5.1384      2.050      2.973    19.8338 0.0000e+00
      2.092      0.013     7.6503     83.806     26.359  23.619263     7.1207      8.557   188.8108 4.6119e+01     4.9852      2.052      2.975    19.8154 0.0000e+00
      2.095      0.014     7.6339     83.808     26.356  23.620406     7.2018      8.555   189.6861 4.5860e+01     4.8896      2.054      2.979    19.8017 0.0000e+00
      2.099      0.015     7.6454     83.859     26.385  23.644509     7.2062      8.553   190.3466 4.5476e+01     4.9050      2.058      2.985    19.7919 0.0000e+00
      2.103      0.018     7.6543     83.889     26.405  23.657202     7.1984      8.552   190.6025 4.5097e+01     4.9324      2.062      2.991    19.7883 0.0000e+00
      2.108      0.020     7.6497     83.786     26.400  23.647127     7.0825      8.550   190.8874 4.4752e+01     4.9812      2.067      2.998    19.7968 0.0000e+00
      2.114      0.020     7.6457     83.558     26.407  23.649432     6.8695      8.548   191.3821 4.4422e+01     5.0854      2.073      3.007    19.8089 0.0000e+00
      2.119      0.020     7.6530     83.291     26.449  23.685057     6.7546      8.545   191.9371 4.4096e+01     5.1673      2.078      3.014    19.8062 0.0000e+00
      2.125      0.019     7.6644     83.079     26.464  23.697628     6.7418      8.543   192.3505 4.3800e+01     5.1848      2.084      3.022    19.7921 0.0000e+00
      2.130      0.018     7.6548     82.982     26.438  23.674679     6.6726      8.541   192.5945 4.3531e+01     5.1608      2.090      3.031    19.7797 0.0000e+00
      2.134      0.017     7.6324     82.974     26.420  23.661071     6.5419      8.539   192.7360 4.3280e+01     5.1164      2.093      3.036    19.7728 0.0000e+00
      2.138      0.015     7.6051     82.961     26.413  23.659842     6.4765      8.537   192.8567 4.3098e+01     5.1263      2.097      3.042    19.7695 0.0000e+00
      2.142      0.015     7.5838     82.906     26.406  23.659832     6.4813      8.535   193.0215 4.2905e+01     5.1781      2.101      3.047    19.7664 0.0000e+00
      2.145      0.016     7.5756     82.868     26.399  23.660953     6.5419      8.535   193.2668 4.2657e+01     5.1616      2.104      3.051    19.7661 0.0000e+00
      2.148      0.018     7.5784     82.873     26.408  23.673407     6.6600      8.533   193.4991 4.2422e+01     5.0976      2.107      3.056    19.7724 0.0000e+00
      2.153      0.021     7.5778     82.885     26.419  23.683674     6.7361      8.530   193.6786 4.2162e+01     5.0538      2.110      3.061    19.7825 0.0000e+00
      2.158      0.023     7.5668     82.893     26.395  23.658334     6.7628      8.528   193.8033 4.1802e+01     5.0764      2.115      3.067    19.7951 0.0000e+00
      2.165      0.023     7.5603     82.949     26.360  23.620520     6.8662      8.525   193.8881 4.1334e+01     5.0973      2.123      3.079    19.8101 0.0000e+00
      2.174      0.022     7.5612     83.104     26.354  23.606704     7.0456      8.523   194.0160 4.0844e+01     4.9996      2.132      3.093    19.8209 0.0000e+00
      2.181      0.020     7.5631     83.344     26.376  23.618019     7.1424      8.521   194.2312 4.0479e+01     4.8851      2.140      3.104    19.8225 0.0000e+00
      2.186      0.016     7.5623     83.591     26.398  23.630561     7.1464      8.518   194.5976 4.0296e+01     4.8737      2.145      3.110    19.8143 0.0000e+00
      2.188      0.012     7.5679     83.736     26.407  23.631598     7.0680      8.515   195.0891 4.0201e+01     4.9302      2.146      3.112    19.7978 0.0000e+00
      2.189      0.008     7.5847     83.725     26.410  23.630550     6.9110      8.514   195.6138 4.0052e+01     4.9534      2.146      3.113    19.7818 0.0000e+00
      2.190      0.006     7.6120     83.634     26.397  23.617885     6.8134      8.511   196.0378 3.9856e+01     4.9154      2.147      3.114    19.7678 0.0000e+00
      2.191      0.004     7.6400     83.539     26.382  23.605211     6.7953      8.508   196.3453 3.9666e+01     4.8810      2.149      3.116    19.7522 0.0000e+00
      2.193      0.004     7.6596     83.441     26.377  23.604058     6.8007      8.506   196.6636 3.9477e+01     4.9127      2.151      3.120    19.7392 0.0000e+00
      2.195      0.004     7.6545     83.323     26.372  23.603953     6.7870      8.503   197.0465 3.9359e+01     4.9922      2.153      3.122    19.7314 0.0000e+00
      2.195      0.005     7.6438     83.198     26.366  23.603943     6.7285      8.501   197.4473 3.9338e+01     5.0224      2.153      3.122    19.7294 0.0000e+00
      2.195      0.007     7.6361     83.121     26.361  23.603941     6.6847      8.498   197.8095 3.9278e+01     5.0383      2.152      3.121    19.7309 0.0000e+00
      2.195      0.011     7.6260     83.057     26.356  23.603941     6.6902      8.493   198.2432 3.9117e+01     5.0818      2.151      3.120    19.7372 0.0000e+00
      2.196      0.018     7.6153     82.963     26.356  23.603941     6.8032      8.486   198.5608 3.8914e+01     5.1039      2.153      3.122    19.7464 0.0000e+00
      2.201      0.026     7.5974     82.915     26.360  23.603952     6.9942      8.479   198.5522 3.8616e+01     5.1007      2.158      3.128    19.7554 0.0000e+00
      2.209      0.033     7.5912     82.965     26.365  23.604067     7.0852      8.472   198.7412 3.8089e+01     5.0778      2.166      3.141    19.7677 0.0000e+00
      2.221      0.039     7.5875     83.077     26.372  23.605324     7.0872      8.467   199.3842 3.7438e+01     5.1006      2.177      3.158    19.7776 0.0000e+00
      2.234      0.044     7.5741     83.249     26.393  23.619142     7.1097      8.461   200.1315 3.6910e+01     5.1712      2.191      3.177    19.7762 0.0000e+00
      2.246      0.046     7.5681     83.484     26.428  23.644377     7.1416      8.455   200.8931 3.6470e+01     5.1793      2.203      3.196    19.7694 0.0000e+00
      2.257      0.045     7.5779     83.727     26.449  23.656949     7.1488      8.448   201.5383 3.5964e+01     5.0965      2.212      3.209    19.7604 0.0000e+00
      2.269      0.043     7.5887     83.921     26.441  23.644390     7.1375      8.440   201.9096 3.5489e+01     5.0575      2.225      3.227    19.7503 0.0000e+00
      2.282      0.041     7.6041     84.054     26.419  23.619271     7.0550      8.435   202.1127 3.5224e+01     5.0838      2.239      3.248    19.7423 0.0000e+00
      2.292      0.040     7.6314     84.139     26.411  23.606711     6.9092      8.431   202.1868 3.5140e+01     5.0388      2.248      3.261    19.7296 0.0000e+00
      2.299      0.037     7.6563     84.146     26.430  23.619272     6.8316      8.426   202.2046 3.5070e+01     4.9583      2.254      3.270    19.7179 0.0000e+00
      2.308      0.032     7.6769     84.052     26.461  23.644394     6.8158      8.421   202.3274 3.4845e+01     4.9304      2.263      3.282    19.7084 0.0000e+00
      2.318      0.027     7.6884     83.887     26.477  23.656964     6.7932      8.417   202.6390 3.4535e+01     4.9409      2.275      3.299    19.6968 0.0000e+00
      2.327      0.022     7.7000     83.667     26.466  23.644507     6.6402      8.413   202.9605 3.4341e+01     4.9475      2.283      3.312    19.6853 0.0000e+00
      2.332      0.016     7.7041     83.447     26.442  23.620520     6.3645      8.409   203.2028 3.4280e+01     4.9430      2.287      3.319    19.6757 0.0000e+00
      2.333      0.010     7.6923     83.265     26.444  23.620426     6.2152      8.404   203.5042 3.4283e+01     4.9204      2.289      3.320    19.6729 0.0000e+00
      2.333      0.005     7.6796     83.043     26.471  23.643366     6.2000      8.399   203.7649 3.4240e+01     4.9128      2.288      3.318    19.6703 0.0000e+00
      2.332      0.003     7.6574     82.693     26.472  23.644405     6.3132      8.393   203.9463 3.4151e+01     4.8848      2.288      3.318    19.6653 0.0000e+00
      2.331      0.005     7.6353     82.190     26.460  23.632977     6.5524      8.385   204.1482 3.4052e+01     4.7531      2.286      3.316    19.6584 0.0000e+00
      2.331      0.008     7.6241     81.591     26.459  23.631939     6.6863      8.376   204.3996 3.3841e+01     4.6177      2.285      3.314    19.6539 0.0000e+00
      2.334      0.011     7.6064     81.028     26.459  23.631853     6.6926      8.369   204.7488 3.3520e+01     4.5802      2.288      3.318    19.6546 0.0000e+00
      2.339      0.012     7.5752     80.606     26.457  23.631940     6.6122      8.363   205.1872 3.3127e+01     4.6422      2.293      3.325    19.6541 0.0000e+00
      2.345      0.011     7.5279     80.341     26.454  23.632986     6.4548      8.358   205.4841 3.2730e+01     4.7180      2.299      3.335    19.6543 0.0000e+00
      2.350      0.009     7.4676     80.247     26.463  23.644506     6.3628      8.355   205.4989 3.2486e+01     4.7112      2.306      3.344    19.6536 0.0000e+00
      2.352      0.005     7.4124     80.345     26.461  23.644496     6.3651      8.353   205.5388 3.2454e+01     4.6618      2.308      3.348    19.6510 0.0000e+00
      2.351      0.001     7.3742     80.625     26.446  23.632859     6.5655      8.350   205.7933 3.2541e+01     4.6679      2.305      3.344    19.6543 0.0000e+00
      2.348      0.000     7.3478     81.013     26.445  23.630556     6.9462      8.348   206.0823 3.2637e+01     4.7509      2.303      3.340    19.6640 0.0000e+00
      2.345      0.003     7.3373     81.399     26.435  23.616644     7.1562      8.348   206.2799 3.2690e+01     4.8107      2.299      3.335    19.6702 0.0000e+00
      2.344      0.010     7.3460     81.725     26.415  23.591391     7.1654      8.345   206.4622 3.2659e+01     4.7768      2.298      3.333    19.6745 0.0000e+00
      2.347      0.019     7.3729     81.987     26.408  23.578707     7.1407      8.340   206.6510 3.2490e+01     4.7511      2.301      3.337    19.6773 0.0000e+00
      2.354      0.027     7.4141     82.192     26.428  23.590022     7.1154      8.335   206.7552 3.2162e+01     4.8407      2.307      3.347    19.6746 0.0000e+00
      2.364      0.033     7.4519     82.354     26.448  23.601451     7.1101      8.331   206.8619 3.1732e+01     4.9378      2.318      3.362    19.6661 0.0000e+00
      2.377      0.037     7.4839     82.474     26.442  23.590140     7.1012      8.328   206.9951 3.1322e+01     4.9351      2.332      3.382    19.6512 0.0000e+00
      2.389      0.038     7.5093     82.494     26.436  23.579989     7.0658      8.325   207.0750 3.1034e+01     4.9099      2.344      3.400    19.6380 0.0000e+00
      2.399      0.036     7.5297     82.307     26.471  23.605452     6.8485      8.323   207.1399 3.0762e+01     4.9065      2.352      3.412    19.6257 0.0000e+00
      2.407      0.033     7.5461     81.928     26.523  23.644515     6.4631      8.323   207.2635 3.0433e+01     4.8945      2.360      3.422    19.6113 0.0000e+00
      2.415      0.033     7.5598     81.518     26.562  23.672056     6.2599      8.322   207.4507 3.0104e+01     4.9015      2.368      3.434    19.6012 0.0000e+00
      2.422      0.036     7.5688     81.163     26.586  23.684940     6.2386      8.318   207.5972 2.9776e+01     4.9216      2.376      3.445    19.5943 0.0000e+00
      2.427      0.043     7.5530     80.814     26.583  23.673534     6.1892      8.313   207.8300 2.9457e+01     4.8655      2.381      3.453    19.5843 0.0000e+00
      2.436      0.050     7.5126     80.441     26.579  23.660882     6.1205      8.306   208.1996 2.8984e+01     4.7698      2.385      3.459    19.5696 0.0000e+00
      2.451      0.054     7.4737     80.083     26.587  23.658703     6.0903      8.299   208.5383 2.8197e+01     4.7204      2.400      3.480    19.5536 0.0000e+00
      2.472      0.052     7.4475     79.778     26.582  23.647173     6.0820      8.294   208.9146 2.7314e+01     4.6779      2.424      3.515    19.5392 0.0000e+00
      2.493      0.044     7.4186     79.469     26.589  23.648212     6.0289      8.291   209.3080 2.6602e+01     4.6318      2.446      3.548    19.5243 0.0000e+00
      2.509      0.032     7.3851     79.056     26.620  23.671257     5.9389      8.287   209.5946 2.6296e+01     4.6410      2.465      3.576    19.5069 0.0000e+00
      2.514      0.018     7.3530     78.554     26.625  23.672305     5.8926      8.284   209.7996 2.6501e+01     4.6870      2.470      3.583    19.4880 0.0000e+00
      2.508      0.008     7.3282     78.045     26.612  23.660877     5.8851      8.283   209.8930 2.6875e+01     4.6755      2.460      3.569    19.4742 0.0000e+00
      2.500      0.003     7.3076     77.566     26.607  23.659838     5.8492      8.279   209.8638 2.7031e+01     4.6388      2.450      3.553    19.4648 0.0000e+00
      2.495      0.004     7.2690     77.094     26.603  23.659743     5.8001      8.276   209.7907 2.6905e+01     4.6529      2.445      3.546    19.4549 0.0000e+00
      2.498      0.009     7.2202     76.597     26.603  23.659734     5.7902      8.274   209.7835 2.6546e+01     4.6756      2.447      3.549    19.4480 0.0000e+00
      2.507      0.017     7.1728     76.115     26.606  23.659734     5.8043      8.270   209.8621 2.6116e+01     4.7091      2.458      3.566    19.4481 0.0000e+00
      2.517      0.024     7.1283     75.743     26.610  23.659735     5.8542      8.266   209.9681 2.5877e+01     4.7155      2.470      3.582    19.4558 0.0000e+00
      2.522      0.030     7.0860     75.526     26.612  23.659746     5.9360      8.262   210.0319 2.5773e+01     4.6501      2.474      3.588    19.4656 0.0000e+00
      2.527      0.033     7.0384     75.429     26.612  23.659861     5.9860      8.260   210.0318 2.5553e+01     4.6016      2.478      3.593    19.4654 0.0000e+00
      2.535      0.034     6.9916     75.444     26.615  23.661117     6.0180      8.256   210.1382 2.5205e+01     4.6067      2.485      3.605    19.4572 0.0000e+00
      2.546      0.037     6.9556     75.578     26.635  23.674934     6.0306      8.251   210.3717 2.4835e+01     4.6445      2.496      3.620    19.4511 0.0000e+00
      2.557      0.038     6.9394     75.771     26.670  23.700170     6.0386      8.247   210.5312 2.4477e+01     4.6821      2.507      3.637    19.4466 0.0000e+00
      2.568      0.037     6.9305     75.973     26.691  23.712741     6.0816      8.244   210.6051 2.4103e+01     4.6866      2.518      3.653    19.4474 0.0000e+00
      2.578      0.032     6.9296     76.168     26.681  23.700171     6.1177      8.241   210.7486 2.3756e+01     4.6984      2.529      3.669    19.4488 0.0000e+00
      2.588      0.026     6.9467     76.278     26.655  23.674936     6.1254      8.238   210.9753 2.3564e+01     4.7225      2.540      3.685    19.4415 0.0000e+00
      2.594      0.019     6.9683     76.246     26.640  23.661120     6.0839      8.236   211.1958 2.3519e+01     4.7041      2.546      3.692    19.4287 0.0000e+00
      2.596      0.014     6.9867     76.095     26.638  23.659875     5.9989      8.233   211.3503 2.3538e+01     4.6807      2.546      3.693    19.4160 0.0000e+00
      2.596      0.009     7.0103     75.810     26.638  23.659874     5.9549      8.230   211.4658 2.3558e+01     4.6784      2.545      3.691    19.4066 0.0000e+00
      2.597      0.008     7.0241     75.432     26.640  23.661110     5.9503      8.228   211.6459 2.3516e+01     4.6434      2.546      3.693    19.4027 0.0000e+00
      2.598      0.011     7.0169     75.091     26.657  23.674822     5.8514      8.226   211.8078 2.3434e+01     4.5984      2.548      3.695    19.4032 0.0000e+00
      2.600      0.016     7.0062     74.872     26.686  23.698916     5.6586      8.222   211.9603 2.3350e+01     4.6124      2.549      3.697    19.4048 0.0000e+00
      2.603      0.020     6.9785     74.767     26.689  23.698926     5.5504      8.218   212.2854 2.3126e+01     4.6768      2.551      3.700    19.4061 0.0000e+00
      2.610      0.023     6.9376     74.706     26.664  23.674939     5.5415      8.214   212.6416 2.2718e+01     4.7280      2.559      3.710    19.4056 0.0000e+00
      2.621      0.023     6.9043     74.657     26.652  23.662379     5.4769      8.210   212.9113 2.2363e+01     4.6505      2.572      3.729    19.4027 0.0000e+00
      2.630      0.022     6.8845     74.652     26.666  23.673818     5.3429      8.207   213.0508 2.2161e+01     4.4569      2.580      3.743    19.3987 0.0000e+00
      2.635      0.019     6.8795     74.730     26.681  23.686488     5.2775      8.203   213.1242 2.2056e+01     4.3685      2.584      3.749    19.3939 0.0000e+00
      2.638      0.016     6.8751     74.845     26.684  23.688830     5.2867      8.201   213.3680 2.2031e+01     4.4350      2.589      3.754    19.3889 0.0000e+00
      2.639      0.015     6.8700     74.905     26.700  23.702132     5.3296      8.198   213.6757 2.2010e+01     4.5443      2.588      3.753    19.3863 0.0000e+00
      2.640      0.018     6.8670     74.915     26.723  23.720577     5.3953      8.194   213.8325 2.1924e+01     4.6313      2.587      3.753    19.3855 0.0000e+00
      2.643      0.023     6.8760     74.927     26.800  23.785095     5.4242      8.189   213.8875 2.1809e+01     4.6663      2.592      3.759    19.3848 0.0000e+00
      2.649      0.032     6.8918     74.898     26.951  23.911843     5.4288      8.184   214.1686 2.1631e+01     4.6944      2.598      3.766    19.3840 0.0000e+00
      2.658      0.042     6.8966     74.720     27.047  23.985593     5.4341      8.178   214.6501 2.1290e+01     4.7322      2.605      3.778    19.3821 0.0000e+00
      2.672      0.050     6.8946     74.393     27.055  23.979669     5.4055      8.171   214.9773 2.0874e+01     4.7134      2.621      3.801    19.3784 0.0000e+00
      2.687      0.055     6.8978     74.019     27.057  23.966949     5.3492      8.164   215.1999 2.0479e+01     4.6719      2.636      3.823    19.3729 0.0000e+00
      2.704      0.053     6.9031     73.690     27.070  23.958522     5.3196      8.159   215.5340 1.9981e+01     4.6751      2.649      3.843    19.3606 0.0000e+00
      2.724      0.045     6.8891     73.413     27.073  23.941132     5.3132      8.156   215.9205 1.9466e+01     4.6836      2.672      3.876    19.3375 0.0000e+00
      2.740      0.033     6.8580     73.099     27.092  23.946782     5.2225      8.154   216.1730 1.9219e+01     4.6041      2.691      3.904    19.3132 0.0000e+00
      2.746      0.021     6.8233     72.671     27.112  23.963448     5.0387      8.152   216.4360 1.9217e+01     4.4645      2.695      3.908    19.2903 0.0000e+00
      2.745      0.011     6.7980     72.158     27.093  23.952509     4.9298      8.149   216.8630 1.9336e+01     4.4310      2.693      3.905    19.2486 0.0000e+00
      2.740      0.004     6.7828     71.651     27.073  23.941280     4.9133      8.145   217.2064 1.9452e+01     4.4720      2.686      3.896    19.2029 0.0000e+00
      2.737      0.002     6.7602     71.228     27.083  23.954434     4.8556      8.142   217.3189 1.9426e+01     4.4479      2.681      3.889    19.1822 0.0000e+00
      2.737      0.007     6.7186     70.934     27.114  23.984812     4.7562      8.137   217.4479 1.9313e+01     4.3792      2.684      3.893    19.1839 0.0000e+00
      2.739      0.016     6.6654     70.792     27.119  23.991717     4.7022      8.132   217.6483 1.9192e+01     4.3584      2.686      3.896    19.2006 0.0000e+00
      2.743      0.025     6.6142     70.807     27.101  23.974537     4.6860      8.128   217.7626 1.9031e+01     4.4017      2.689      3.899    19.2157 0.0000e+00
      2.751      0.030     6.5727     70.913     27.105  23.967217     4.5935      8.126   217.8826 1.8758e+01     4.4584      2.695      3.908    19.2214 0.0000e+00
      2.764      0.030     6.5450     71.030     27.122  23.966570     4.4154      8.123   217.9814 1.8379e+01     4.4631      2.708      3.929    19.2252 0.0000e+00
      2.779      0.029     6.5299     71.176     27.135  23.966699     4.3057      8.119   218.0117 1.8132e+01     4.4244      2.728      3.957    19.2310 0.0000e+00
      2.787      0.028     6.5327     71.325     27.142  23.968763     4.3076      8.117   218.1626 1.8157e+01     4.4001      2.737      3.970    19.2352 0.0000e+00
      2.787      0.026     6.5508     71.300     27.171  23.991513     4.4216      8.114   218.4288 1.8199e+01     4.4082      2.732      3.963    19.2132 0.0000e+00
      2.788      0.025     6.5640     70.966     27.248  24.051640     4.6030      8.110   218.7349 1.8070e+01     4.4550      2.731      3.962    19.1718 0.0000e+00
      2.793      0.027     6.5794     70.391     27.355  24.125367     4.6858      8.106   219.1112 1.7838e+01     4.4540      2.738      3.971    19.1521 0.0000e+00
      2.803      0.032     6.6015     69.781     27.465  24.185794     4.6821      8.102   219.4507 1.7555e+01     4.3955      2.748      3.985    19.1510 0.0000e+00
      2.814      0.034     6.6059     69.313     27.544  24.211841     4.6912      8.099   219.6560 1.7292e+01     4.4303      2.759      4.002    19.1455 0.0000e+00
      2.826      0.031     6.5733     69.023     27.553  24.186733     4.7126      8.096   219.9580 1.7029e+01     4.4646      2.770      4.017    19.1364 0.0000e+00
      2.839      0.024     6.5157     68.816     27.506  24.135680     4.7163      8.092   220.4357 1.6770e+01     4.4001      2.784      4.037    19.1058 0.0000e+00
      2.847      0.015     6.4627     68.576     27.452  24.101552     4.6938      8.088   220.7861 1.6746e+01     4.3685      2.797      4.056    19.0309 0.0000e+00
      2.845      0.006     6.4295     68.190     27.415  24.090983     4.6658      8.082   221.1835 1.6945e+01     4.3902      2.792      4.049    18.9392 0.0000e+00
      2.839      0.000     6.4172     67.634     27.369  24.071299     4.5527      8.077   221.7983 1.7073e+01     4.4576      2.782      4.034    18.8707 0.0000e+00
      2.835     -0.002     6.4021     66.947     27.329  24.053707     4.3505      8.072   222.2832 1.7056e+01     4.5002      2.779      4.031    18.8529 0.0000e+00
      2.835      0.002     6.3809     66.183     27.328  24.068431     4.2262      8.065   222.6584 1.7034e+01     4.4614      2.779      4.031    18.8880 0.0000e+00
      2.836      0.012     6.3396     65.508     27.378  24.122584     4.1898      8.058   222.9795 1.7064e+01     4.4322      2.781      4.033    18.9352 0.0000e+00
      2.838      0.022     6.2797     65.065     27.474  24.201487     4.1517      8.053   223.0680 1.7007e+01     4.4546      2.781      4.034    18.9716 0.0000e+00
      2.844      0.029     6.2141     64.905     27.579  24.261932     4.1071      8.047   223.1258 1.6779e+01     4.4933      2.786      4.041    19.0036 0.0000e+00
      2.856      0.033     6.1309     65.030     27.655  24.283003     4.0912      8.041   223.3344 1.6461e+01     4.4897      2.800      4.061    19.0315 0.0000e+00
      2.870      0.034     6.0605     65.365     27.681  24.266069     4.0933      8.034   223.6108 1.6177e+01     4.4449      2.816      4.084    19.0593 0.0000e+00
      2.881      0.034     6.0185     65.745     27.690  24.247249     4.1498      8.029   223.8867 1.6022e+01     4.4308      2.829      4.101    19.0605 0.0000e+00
      2.888      0.031     6.0107     65.965     27.713  24.245554     4.2660      8.026   224.0882 1.5939e+01     4.4903      2.833      4.109    18.9940 0.0000e+00
      2.893      0.026     6.0380     65.897     27.740  24.245545     4.3161      8.024   224.1550 1.5827e+01     4.5153      2.837      4.114    18.8902 0.0000e+00
      2.898      0.018     6.0833     65.492     27.772  24.247114     4.3064      8.021   224.0924 1.5648e+01     4.4589      2.841      4.121    18.8153 0.0000e+00
      2.906      0.012     6.1320     64.756     27.816  24.264483     4.3069      8.018   224.1055 1.5455e+01     4.4242      2.850      4.133    18.7766 0.0000e+00
      2.911      0.010     6.1602     63.820     27.829  24.265394     4.2894      8.014   224.3132 1.5410e+01     4.4365      2.857      4.144    18.7424 0.0000e+00
      2.909      0.011     6.1598     62.830     27.763  24.194753     4.2443      8.010   224.5383 1.5537e+01     4.4712      2.855      4.142    18.6998 0.0000e+00
      2.904      0.013     6.1308     61.825     27.698  24.107475     4.2110      8.006   224.6766 1.5588e+01     4.4678      2.845      4.127    18.6474 0.0000e+00
      2.904      0.017     6.0619     60.865     27.662  24.033963     4.2035      8.002   224.8676 1.5419e+01     4.4303      2.844      4.125    18.6009 0.0000e+00
      2.913      0.022     5.9682     60.030     27.612  23.939610     4.2365      7.998   225.2125 1.5191e+01     4.4948      2.857      4.143    18.5925 0.0000e+00
      2.923      0.028     5.8783     59.344     27.582  23.853848     4.3020      7.994   225.5771 1.4986e+01     4.6339      2.867      4.158    18.5862 0.0000e+00
      2.933      0.033     5.7895     58.804     27.612  23.820798     4.3296      7.991   225.9210 1.4797e+01     4.6779      2.876      4.171    18.5194 0.0000e+00
      2.942      0.034     5.7043     58.319     27.703  23.856807     4.2952      7.989   226.3584 1.4617e+01     4.6503      2.886      4.186    18.4382 0.0000e+00
      2.951      0.031     5.6376     57.820     27.788  23.908926     4.0932      7.984   226.8217 1.4406e+01     4.6753      2.893      4.196    18.3577 0.0000e+00
      2.959      0.025     5.5835     57.347     27.836  23.943949     3.7520      7.980   227.1351 1.4201e+01     4.7408      2.901      4.208    18.2375 0.0000e+00
      2.967      0.016     5.5513     56.850     27.853  23.963389     3.5657      7.976   227.3083 1.4030e+01     4.7252      2.911      4.221    18.1177 0.0000e+00
      2.973      0.006     5.5193     56.274     27.819  23.953854     3.5473      7.972   227.4536 1.3924e+01     4.6573      2.917      4.230    18.0382 0.0000e+00
      2.974     -0.006     5.4689     55.658     27.793  23.955434     3.5550      7.969   227.5160 1.3947e+01     4.6041      2.918      4.233    18.0061 0.0000e+00
      2.970     -0.021     5.4299     55.079     27.804  23.982524     3.5664      7.965   227.5456 1.4067e+01     4.5252      2.914      4.226    17.9997 0.0000e+00
      2.962     -0.032     5.3850     54.629     27.841  24.027921     3.5693      7.961   227.8117 1.4191e+01     4.4887      2.904      4.212    18.0016 0.0000e+00
      2.952     -0.036     5.3234     54.389     27.857  24.060723     3.5731      7.954   228.1514 1.4385e+01     4.5047      2.896      4.200    18.0433 0.0000e+00
      2.937     -0.031     5.2570     54.399     27.829  24.062275     3.6624      7.948   228.2978 1.4761e+01     4.4793      2.883      4.181    18.1002 0.0000e+00
      2.918     -0.017     5.1955     54.641     27.859  24.110092     3.8420      7.942   228.6353 1.5072e+01     4.4559      2.859      4.147    18.1283 0.0000e+00
      2.909      0.003     5.1494     55.043     27.935  24.195277     3.9553      7.935   229.3066 1.4994e+01     4.4601      2.845      4.126    18.1413 0.0000e+00
      2.915      0.026     5.1210     55.498     27.923  24.205008     3.9658      7.927   229.9620 1.4671e+01     4.4272      2.856      4.143    18.1753 0.0000e+00
      2.931      0.047     5.1173     55.943     27.790  24.101028     3.9115      7.921   230.5371 1.4287e+01     4.4003      2.872      4.166    18.2328 0.0000e+00
      2.952      0.063     5.1379     56.356     27.634  23.952083     3.4905      7.916   231.0120 1.3833e+01     4.5786      2.893      4.195    18.2692 0.0000e+00
      2.977      0.071     5.1780     56.696     27.582  23.861732     2.7539      7.913   231.4870 1.3444e+01     4.9431      2.921      4.238    18.2970 0.0000e+00
      2.997      0.071     5.2175     56.926     27.628  23.832412     2.3709      7.910   232.1513 1.3180e+01     5.1526      2.941      4.265    18.3427 0.0000e+00
      3.013      0.067     5.2555     57.048     27.738  23.850981     2.3309      7.905   232.8486 1.2956e+01     5.1648      2.955      4.285    18.3749 0.0000e+00
      3.028      0.062     5.2986     57.068     27.941  23.959399     2.1863      7.900   233.3789 1.2758e+01     5.2268      2.970      4.307    18.3561 0.0000e+00
      3.042      0.055     5.3414     56.948     28.126  24.065839     1.9468      7.895   233.6592 1.2571e+01     5.3562      2.984      4.327    18.2691 0.0000e+00
      3.056      0.048     5.3784     56.672     28.164  24.060497     1.8229      7.890   233.8279 1.2382e+01     5.3967      2.998      4.347    18.1294 0.0000e+00
      3.070      0.042     5.4041     56.171     28.138  24.021507     1.8124      7.886   234.0425 1.2214e+01     5.3750      3.011      4.368    17.9821 0.0000e+00
      3.082      0.034     5.4232     55.381     28.152  24.038025     1.7775      7.883   234.1886 1.2099e+01     5.3671      3.023      4.386    17.8610 0.0000e+00
      3.088      0.027     5.4208     54.426     28.179  24.070103     1.7099      7.879   234.3048 1.2041e+01     5.3705      3.029      4.393    17.7718 0.0000e+00
      3.092      0.022     5.4040     53.411     28.209  24.092495     1.6774      7.875   234.5010 1.1994e+01     5.4150      3.032      4.397    17.6967 0.0000e+00
      3.095      0.018     5.3678     52.371     28.257  24.118630     1.6843      7.871   234.5816 1.1926e+01     5.4279      3.035      4.402    17.6619 0.0000e+00
      3.097      0.016     5.2800     51.387     28.298  24.132583     1.7517      7.866   234.5053 1.1852e+01     5.3549      3.037      4.404    17.6882 0.0000e+00
      3.101      0.016     5.1835     50.557     28.325  24.134420     1.8841      7.862   234.5251 1.1751e+01     5.3186      3.040      4.409    17.7143 0.0000e+00
      3.107      0.016     5.0885     49.930     28.355  24.140813     1.9707      7.858   234.6477 1.1599e+01     5.3643      3.046      4.418    17.7079 0.0000e+00
      3.112      0.017     4.9882     49.481     28.375  24.146481     1.9835      7.855   234.6981 1.1450e+01     5.3948      3.054      4.429    17.6770 0.0000e+00
      3.117      0.018     4.8959     49.150     28.370  24.139569     1.9464      7.852   234.7906 1.1348e+01     5.3808      3.058      4.435    17.6362 0.0000e+00
      3.119      0.016     4.8175     48.868     28.346  24.120609     1.8795      7.849   235.0766 1.1255e+01     5.3650      3.059      4.436    17.5961 0.0000e+00
      3.122      0.013     4.7641     48.628     28.321  24.107364     1.8493      7.845   235.3166 1.1077e+01     5.3747      3.059      4.437    17.5604 0.0000e+00
      3.129      0.013     4.7236     48.426     28.298  24.106180     1.8564      7.841   235.3698 1.0877e+01     5.3965      3.070      4.452    17.5396 0.0000e+00
      3.134      0.015     4.6967     48.241     28.273  24.106317     1.8493      7.837   235.4613 1.0830e+01     5.3890      3.079      4.465    17.5384 0.0000e+00
      3.133      0.018     4.6683     48.118     28.264  24.109048     1.7789      7.833   235.7350 1.0838e+01     5.3528      3.071      4.454    17.5412 0.0000e+00
      3.133      0.022     4.6443     48.108     28.237  24.075841     1.6709      7.829   235.9258 1.0694e+01     5.3687      3.068      4.449    17.5458 0.0000e+00
      3.141      0.025     4.6243     48.193     28.211  24.021679     1.6260      7.826   235.8757 1.0452e+01     5.4443      3.080      4.467    17.5868 0.0000e+00
      3.151      0.028     4.5982     48.335     28.266  24.024514     1.6266      7.823   235.9035 1.0260e+01     5.4469      3.090      4.482    17.6359 0.0000e+00
      3.162      0.032     4.5830     48.519     28.334  24.046684     1.5376      7.819   236.1765 1.0116e+01     5.3664      3.100      4.496    17.6556 0.0000e+00
      3.173      0.032     4.5838     48.688     28.349  24.036192     1.3737      7.814   236.5092 1.0045e+01     5.3587      3.115      4.518    17.6441 0.0000e+00
      3.178      0.027     4.6011     48.753     28.350  24.024377     1.2917      7.809   236.8282 1.0023e+01     5.4564      3.118      4.521    17.5774 0.0000e+00
      3.183      0.021     4.6216     48.665     28.362  24.030566     1.2878      7.803   237.1092 9.8966e+00     5.5224      3.118      4.522    17.4857 0.0000e+00
      3.193      0.017     4.6486     48.430     28.376  24.047642     1.2767      7.796   237.2387 9.8185e+00     5.4740      3.135      4.547    17.4188 0.0000e+00
      3.195      0.015     4.6714     48.092     28.359  24.040718     1.2575      7.788   237.3608 9.9244e+00     5.3837      3.138      4.552    17.3847 0.0000e+00
      3.191      0.014     4.6816     47.710     28.322  24.010233     1.2550      7.782   237.5538 9.9332e+00     5.3871      3.124      4.531    17.3619 0.0000e+00
      3.193      0.012     4.6744     47.359     28.310  23.995929     1.2713      7.778   237.6789 9.7720e+00     5.4468      3.129      4.539    17.3504 0.0000e+00
      3.201      0.010     4.6473     47.083     28.314  23.994510     1.3053      7.774   237.8405 9.6303e+00     5.4219      3.141      4.556    17.3686 0.0000e+00
      3.208      0.014     4.6125     46.890     28.314  23.993073     1.3576      7.767   238.0460 9.5714e+00     5.3929      3.147      4.563    17.3887 0.0000e+00
      3.209      0.019     4.5720     46.783     28.298  23.978558     1.3965      7.760   238.0990 9.5947e+00     5.4385      3.150      4.568    17.3873 0.0000e+00
      3.207      0.022     4.5384     46.741     28.265  23.945758     1.4005      7.755   238.0500 9.5667e+00     5.4613      3.142      4.558    17.3766 0.0000e+00
      3.211      0.023     4.5129     46.715     28.242  23.913355     1.3317      7.751   237.9695 9.3647e+00     5.3611      3.144      4.561    17.3666 0.0000e+00
      3.224      0.025     4.4942     46.680     28.252  23.903635     1.2052      7.747   237.9865 9.1227e+00     5.1839      3.163      4.589    17.3625 0.0000e+00
      3.236      0.030     4.4846     46.690     28.257  23.891586     1.1442      7.743   238.1702 8.9614e+00     5.1285      3.176      4.607    17.3664 0.0000e+00
      3.241      0.034     4.4819     46.704     28.207  23.831016     1.1518      7.738   238.2972 8.8204e+00     5.1699      3.179      4.610    17.3635 0.0000e+00
      3.246      0.037     4.4855     46.646     28.135  23.741638     1.1475      7.733   238.4902 8.6304e+00     5.1369      3.182      4.615    17.3359 0.0000e+00
      3.254      0.038     4.4803     46.579     28.132  23.698129     1.0920      7.729   238.7819 8.3991e+00     4.9696      3.189      4.626    17.2981 0.0000e+00
      3.265      0.041     4.4851     46.500     28.250  23.748511     1.0051      7.725   238.8130 8.1651e+00     4.7521      3.202      4.644    17.2693 0.0000e+00
      3.278      0.046     4.4968     46.371     28.429  23.843754     0.9707      7.722   238.7798 7.9261e+00     4.6589      3.215      4.662    17.2451 0.0000e+00
      3.291      0.049     4.4867     46.209     28.567  23.899030     0.9841      7.717   238.8967 7.6785e+00     4.6633      3.227      4.681    17.1992 0.0000e+00
      3.304      0.049     4.4909     45.993     28.643  23.909778     0.9757      7.712   238.8507 7.4262e+00     4.5655      3.239      4.700    17.1169 0.0000e+00
      3.318      0.048     4.4937     45.722     28.686  23.910257     0.9361      7.708   238.6535 7.1321e+00     4.3653      3.253      4.718    17.0329 0.0000e+00
      3.332      0.047     4.4864     45.401     28.705  23.904772     0.9131      7.705   238.4919 6.8557e+00     4.2573      3.269      4.741    16.9396 0.0000e+00
      3.343      0.046     4.4855     44.985     28.652  23.843442     0.9218      7.702   238.3593 6.7098e+00     4.2165      3.281      4.758    16.8202 0.0000e+00
      3.351      0.045     4.4722     44.415     28.561  23.739070     0.9666      7.698   238.3405 6.6436e+00     4.2127      3.285      4.766    16.7218 0.0000e+00
      3.361      0.043     4.4513     43.710     28.515  23.656779     1.0390      7.695   238.4369 6.5608e+00     4.2806      3.294      4.778    16.6623 0.0000e+00
      3.375      0.041     4.4241     42.945     28.443  23.545519     1.0730      7.690   238.5775 6.4686e+00     4.3546      3.310      4.800    16.6324 0.0000e+00
      3.387      0.040     4.3892     42.159     28.349  23.407761     1.0783      7.687   238.7510 6.3683e+00     4.4235      3.323      4.820    16.6107 0.0000e+00
      3.397      0.039     4.3367     41.377     28.341  23.321923     1.0618      7.685   238.8999 6.2559e+00     4.4301      3.331      4.831    16.5670 0.0000e+00
      3.405      0.038     4.2711     40.608     28.380  23.268043     1.0063      7.682   239.0005 6.1707e+00     4.3671      3.339      4.843    16.4800 0.0000e+00
      3.414      0.037     4.2053     39.870     28.383  23.199795     0.9726      7.679   239.1071 6.1168e+00     4.3444      3.349      4.856    16.3868 0.0000e+00
      3.422      0.038     4.1338     39.160     28.358  23.130387     0.9713      7.674   239.2425 6.0772e+00     4.3945      3.354      4.865    16.2992 0.0000e+00
      3.431      0.040     4.0707     38.443     28.320  23.062505     0.9741      7.670   239.4330 6.0435e+00     4.3576      3.364      4.879    16.1490 0.0000e+00
      3.441      0.042     4.0090     37.733     28.294  23.012712     0.9736      7.667   239.6043 6.0053e+00     4.1379      3.375      4.895    15.9749 0.0000e+00
      3.452      0.043     3.9455     37.038     28.347  23.035291     0.9643      7.663   239.7639 5.9509e+00     3.9591      3.384      4.909    15.8510 0.0000e+00
      3.466      0.045     3.8855     36.337     28.415  23.081988     0.9614      7.658   239.9870 5.8943e+00     3.9380      3.399      4.929    15.7721 0.0000e+00
      3.479      0.045     3.8166     35.650     28.399  23.070339     0.9722      7.654   240.1500 5.8591e+00     3.9509      3.413      4.949    15.7112 0.0000e+00
      3.489      0.045     3.7503     35.022     28.339  23.021190     1.0031      7.651   240.2719 5.8038e+00     3.9440      3.420      4.961    15.6576 0.0000e+00
      3.499      0.043     3.6861     34.491     28.328  22.994707     1.0440      7.648   240.3426 5.7173e+00     3.9230      3.431      4.976    15.6211 0.0000e+00
      3.510      0.039     3.6164     34.084     28.378  23.003602     1.0674      7.645   240.3162 5.6369e+00     3.9018      3.442      4.992    15.6035 0.0000e+00
      3.522      0.035     3.5452     33.815     28.408  23.001957     1.0854      7.643   240.2981 5.5605e+00     3.9268      3.454      5.009    15.6143 0.0000e+00
      3.533      0.033     3.4805     33.679     28.388  22.974780     1.0960      7.641   240.2955 5.5069e+00     3.9177      3.466      5.027    15.6291 0.0000e+00
      3.539      0.034     3.4292     33.608     28.332  22.928490     1.0879      7.638   241.3175 5.4992e+00     3.7917      3.472      5.037    15.5936 0.0000e+00
      3.542      0.035     3.3936     33.492     28.291  22.885880     1.0865      7.636   242.5871 5.4998e+00     3.7015      3.474      5.039    15.5230 0.0000e+00
      3.547      0.035     3.3703     33.293     28.346  22.903167     1.0868      7.634   241.8809 5.4551e+00     3.7150      3.475      5.040    15.4681 0.0000e+00
      3.559      0.034     3.3596     33.022     28.439  22.947354     1.0092      7.632   240.7807 5.3637e+00     3.7161      3.487      5.057    15.4542 0.0000e+00
      3.576      0.033     3.3579     32.682     28.494  22.976503     0.8642      7.627   240.9861 5.2835e+00     3.6807      3.510      5.090    15.4670 0.0000e+00
      3.588      0.030     3.3472     32.317     28.520  23.002089     0.7979      7.622   241.3524 5.2515e+00     3.6969      3.522      5.108    15.4577 0.0000e+00
      3.592      0.025     3.3300     31.950     28.503  23.003243     0.8153      7.618   240.7360 5.2379e+00     3.7415      3.522      5.109    15.4002 0.0000e+00
      3.593      0.019     3.3094     31.568     28.463  22.990474     0.8327      7.614   239.5552 5.2154e+00     3.6729      3.524      5.111    15.3296 0.0000e+00
      3.596      0.016     3.2745     31.221     28.414  22.974466     0.8417      7.611   238.6050 5.2005e+00     3.5163      3.526      5.115    15.3001 0.0000e+00
      3.599      0.017     3.2356     30.995     28.348  22.936462     0.8417      7.609   238.1093 5.2018e+00     3.4542      3.529      5.120    15.3160 0.0000e+00
      3.601      0.020     3.1993     30.916     28.334  22.911221     0.8490      7.605   237.9508 5.1947e+00     3.4686      3.532      5.122    15.3462 0.0000e+00
      3.606      0.021     3.1563     30.960     28.398  22.922747     0.8551      7.600   237.8068 5.1256e+00     3.4853      3.534      5.125    15.3778 0.0000e+00
      3.616      0.021     3.1144     31.071     28.474  22.949034     0.8320      7.595   237.6586 5.0223e+00     3.4850      3.546      5.142    15.4258 0.0000e+00
      3.626      0.019     3.0879     31.165     28.519  22.975526     0.8031      7.591   237.6216 4.9828e+00     3.4318      3.560      5.162    15.4747 0.0000e+00
      3.631      0.016     3.0829     31.140     28.525  22.989560     0.7894      7.587   237.6175 4.9863e+00     3.4219      3.562      5.167    15.4484 0.0000e+00
      3.632      0.011     3.0960     30.926     28.510  22.991988     0.7903      7.582   237.5226 4.9822e+00     3.4684      3.562      5.166    15.3481 0.0000e+00
      3.632      0.006     3.1144     30.529     28.509  23.004889     0.7968      7.578   237.4208 4.9747e+00     3.4804      3.563      5.167    15.2746 0.0000e+00
      3.632      0.002     3.1293     30.040     28.514  23.018828     0.7936      7.574   237.4191 4.9664e+00     3.4651      3.562      5.167    15.2660 0.0000e+00
      3.633      0.001     3.1269     29.555     28.525  23.033798     0.7848      7.571   237.4164 4.9575e+00     3.4540      3.563      5.167    15.2902 0.0000e+00
      3.633      0.001     3.1048     29.119     28.552  23.059148     0.7908      7.567   237.3011 4.9451e+00     3.4489      3.563      5.168    15.3179 0.0000e+00
      3.633      0.000     3.0584     28.776     28.567  23.071840     0.8075      7.564   237.1438 4.9166e+00     3.4379      3.563      5.168    15.3460 0.0000e+00
      3.633 1.8693e-08     3.0043     28.557     28.549  23.060519     0.8039      7.560   237.0634 4.8800e+00     3.4231      3.563      5.168    15.3639 0.0000e+00
      3.633 2.0562e-07     2.9555     28.496     28.524  23.049007     0.7885      7.556   237.0172 4.8674e+00     3.4410      3.563      5.168    15.3695 0.0000e+00
      3.633 2.0562e-07     2.9082     28.596     28.524  23.059405     0.7964      7.552   236.9301 4.8757e+00     3.4839      3.563      5.168    15.3802 0.0000e+00
      3.633 1.8693e-08     2.8741     28.797     28.513  23.059508     0.8249      7.548   237.0419 4.8763e+00     3.5310      3.563      5.168    15.3771 0.0000e+00
      3.633 1.6994e-09     2.8504     29.037     28.494  23.050271     0.8495      7.544   237.2499 4.8486e+00     3.6009      3.563      5.168    15.3770 0.0000e+00
      3.633 1.5449e-10     2.8423     29.272     28.520  23.074466     0.8520      7.540   237.2093 4.8136e+00     3.6801      3.563      5.168    15.3989 0.0000e+00
      3.634 1.4044e-11     2.8539     29.455     28.545  23.098566     0.8471      7.538   237.0671 4.8014e+00     3.7371      3.563      5.168    15.4191 0.0000e+00
      3.634 1.2764e-12     2.8758     29.597     28.524  23.088176     0.8570      7.535   237.0796 4.7955e+00     3.7438      3.563      5.168    15.4359 0.0000e+00
      3.634 1.1247e-13     2.8989     29.738     28.506  23.075597     0.8636      7.532   237.1878 4.7809e+00     3.6924      3.564      5.169    15.4454 0.0000e+00
      3.634 -2.906e-14     2.9262     29.877     28.512  23.073218     0.8517      7.528   237.2564 4.7656e+00     3.6629      3.563      5.168    15.4475 0.0000e+00
      3.634 -4.348e-13     2.9427     30.007     28.512  23.059404     0.8468      7.525   237.3933 4.7590e+00     3.6940      3.564      5.168    15.4546 0.0000e+00
      3.634 -4.793e-12     2.9534     30.115     28.498  23.035294     0.8544      7.522   237.5514 4.7628e+00     3.6925      3.563      5.169    15.4702 0.0000e+00
      3.634 -5.273e-11     2.9684     30.190     28.512  23.035180     0.8683      7.519   237.7064 4.7668e+00     3.6454      3.564      5.168    15.4794 0.0000e+00
      3.634 -5.800e-10     2.9823     30.210     28.554  23.058016     0.8986      7.516   237.9765 4.7667e+00     3.5683      3.563      5.169    15.4639 0.0000e+00
      3.634 -6.380e-09     2.9987     30.160     28.570  23.057904     0.9123      7.514   238.1500 4.7646e+00     3.4773      3.564      5.168    15.4333 0.0000e+00
      3.634 -7.018e-08     3.0109     30.090     28.564  23.033805     0.9095      7.511   238.1698 4.7570e+00     3.5019      3.564      5.169    15.4091 0.0000e+00
      3.634 -7.720e-07     3.0201     30.044     28.575  23.020105     0.9310      7.508   238.2153 4.7566e+00     3.6268      3.564      5.169    15.3915 0.0000e+00
      3.634     -0.000     3.0252     30.008     28.594  23.018975     0.9561      7.505   238.3564 4.7653e+00     3.7225      3.563      5.168    15.3744 0.0000e+00
      3.634     -0.000     3.0184     29.953     28.604  23.020122     0.9629      7.502   238.5858 4.7615e+00     3.7716      3.564      5.169    15.3537 0.0000e+00
      3.634     -0.001     3.0114     29.815     28.628  23.033969     0.9636      7.498   239.3537 4.7478e+00     3.7766      3.563      5.168    15.3199 0.0000e+00
      3.634     -0.006     3.0119     29.575     28.672  23.059651     0.9564      7.496   241.0154 4.7495e+00     3.7491      3.563      5.168    15.2715 0.0000e+00
      3.634     -0.019     3.0098     29.266     28.702  23.077135     0.9425      7.495   242.7596 4.7626e+00     3.7115      3.564      5.170    15.2387 0.0000e+00
      3.634     -0.038     3.0088     28.902     28.739  23.118613     0.9281      7.493   243.9237 4.7799e+00     3.6641      3.563      5.169    15.2346 0.0000e+00
      3.630     -0.054     2.9955     28.483     28.753  23.180930     0.9238      7.490   244.6798 4.8910e+00     3.6885      3.564      5.168    15.2307 0.0000e+00
      3.613     -0.061     2.9705     28.028     28.666  23.196946     0.9577      7.487   245.1908 5.1735e+00     3.9038      3.552      5.152    15.2091 0.0000e+00
      3.578     -0.059     2.9408     27.598     28.552  23.185622     1.0048      7.483   245.3702 5.4977e+00     4.2176      3.509      5.090    15.1894 0.0000e+00
      3.543     -0.048     2.9043     27.282     28.470  23.170867     1.0190      7.478   245.3003 5.6778e+00     4.4088      3.464      5.025    15.1895 0.0000e+00
      3.530     -0.032     2.8568     27.250     28.412  23.145350     1.0214      7.474   245.3773 5.6941e+00     4.4383      3.453      5.008    15.2750 0.0000e+00
      3.537     -0.012     2.7967     27.680     28.406  23.130615     1.0507      7.471   245.6128 5.6399e+00     4.3700      3.466      5.027    15.4678 0.0000e+00
      3.550      0.003     2.7429     28.582     28.425  23.119436     1.0898      7.468   245.8252 5.5944e+00     4.2656      3.484      5.053    15.6215 0.0000e+00
      3.559      0.002     2.7005     29.793     28.470  23.136886     1.0945      7.467   246.0526 5.5500e+00     4.2016      3.491      5.064    15.7055 0.0000e+00
      3.564     -0.020     2.6857     31.078     28.560  23.214833     1.0833      7.466   246.1250 5.5025e+00     4.2105      3.496      5.070    15.7518 0.0000e+00
      3.564     -0.056     2.7306     32.213     28.629  23.301433     1.0869      7.463   246.0125 5.5406e+00     4.2370      3.500      5.076    15.7220 0.0000e+00
      3.552     -0.093     2.8304     33.078     28.641  23.360144     1.1128      7.460   245.8964 5.7486e+00     4.3168      3.491      5.063    15.6569 0.0000e+00
      3.517     -0.126     2.9618     33.671     28.644  23.417788     1.1629      7.457   245.6671 6.1028e+00     4.4927      3.456      5.012    15.6169 0.0000e+00
      3.465     -0.154     3.0986     34.006     28.667  23.491478     1.2019      7.453   245.2192 6.5003e+00     4.6210      3.398      4.929    15.6185 0.0000e+00
      3.410     -0.175     3.2114     34.134     28.677  23.554085     1.2095      7.450   244.6972 6.8436e+00     4.6727      3.337      4.841    15.6798 0.0000e+00
      3.365     -0.183     3.2894     34.216     28.669  23.604470     1.2145      7.447   244.2606 7.1559e+00     4.6391      3.297      4.783    15.7750 0.0000e+00
      3.324     -0.174     3.3409     34.400     28.660  23.657134     1.2210      7.442   243.8976 7.5612e+00     4.4884      3.265      4.735    15.8731 0.0000e+00
      3.274     -0.154     3.3672     34.742     28.623  23.683929     1.2130      7.437   243.5781 8.0465e+00     4.3540      3.213      4.660    15.9724 0.0000e+00
      3.224     -0.128     3.3655     35.260     28.548  23.675016     1.2174      7.433   243.3229 8.4445e+00     4.3461      3.156      4.577    16.0600 0.0000e+00
      3.189     -0.099     3.3611     35.943     28.490  23.676173     1.3153      7.430   243.2206 8.6306e+00     4.3925      3.119      4.524    16.1593 0.0000e+00
      3.172     -0.067     3.3702     36.735     28.468  23.697986     1.4806      7.427   243.4601 8.6786e+00     4.4026      3.107      4.506    16.2717 0.0000e+00
      3.166     -0.033     3.3959     37.552     28.425  23.685311     1.5597      7.425   243.8092 8.7173e+00     4.3996      3.105      4.504    16.3727 0.0000e+00
      3.165     -0.006     3.4402     38.354     28.382  23.649687     1.5649      7.422   243.8275 8.7130e+00     4.4257      3.103      4.501    16.4634 0.0000e+00
      3.170      0.007     3.5018     39.108     28.399  23.647509     1.7259      7.419   243.6817 8.6170e+00     4.5811      3.106      4.504    16.5536 0.0000e+00
      3.181      0.004     3.5777     39.793     28.431  23.658949     2.0339      7.418   243.6804 8.4891e+00     4.8094      3.118      4.522    16.6292 0.0000e+00
      3.193     -0.012     3.6542     40.443     28.441  23.661245     2.1933      7.417   243.8119 8.4159e+00     4.8970      3.135      4.548    16.6744 0.0000e+00
      3.195     -0.037     3.7331     41.067     28.455  23.675269     2.2214      7.415   244.0680 8.4464e+00     4.8885      3.139      4.552    16.6739 0.0000e+00
      3.182     -0.062     3.8126     41.576     28.475  23.701768     2.4316      7.414   244.3678 8.6155e+00     4.8435      3.125      4.532    16.6277 0.0000e+00
      3.157     -0.082     3.8791     41.930     28.485  23.728155     2.8127      7.411   244.5111 8.9721e+00     4.7291      3.102      4.498    16.5950 0.0000e+00
      3.119     -0.088     3.9417     42.195     28.475  23.740837     3.0163      7.409   244.5096 9.4243e+00     4.6328      3.061      4.440    16.5887 0.0000e+00
      3.079     -0.079     4.0069     42.373     28.435  23.728388     3.0209      7.408   244.6077 9.7291e+00     4.6023      3.013      4.370    16.5929 0.0000e+00
      3.054     -0.059     4.0583     42.457     28.387  23.704408     3.0265      7.405   244.9236 9.8142e+00     4.5986      2.987      4.332    16.6117 0.0000e+00
      3.047     -0.032     4.0834     42.486     28.372  23.704418     3.1924      7.403   245.3178 9.7677e+00     4.5537      2.983      4.327    16.6426 0.0000e+00
      3.052     -0.007     4.1077     42.465     28.387  23.728511     3.4953      7.401   245.6743 9.6179e+00     4.4693      2.991      4.338    16.6860 0.0000e+00
      3.063      0.010     4.1235     42.453     28.387  23.742231     3.6509      7.399   245.9641 9.4339e+00     4.4323      3.003      4.356    16.7230 0.0000e+00
      3.073      0.010     4.1245     42.504     28.372  23.743580     3.6417      7.398   246.1546 9.3394e+00     4.4482      3.014      4.372    16.7507 0.0000e+00
      3.079     -0.006     4.1288     42.595     28.360  23.744846     3.5174      7.398   246.2571 9.3369e+00     4.5247      3.020      4.381    16.7727 0.0000e+00
      3.081     -0.032     4.1216     42.740     28.364  23.757545     3.2962      7.397   246.3434 9.3585e+00     4.6400      3.023      4.385    16.7893 0.0000e+00
      3.076     -0.062     4.1147     42.961     28.368  23.770385     3.1651      7.397   246.5093 9.5000e+00     4.6800      3.024      4.385    16.8155 0.0000e+00
      3.053     -0.089     4.1208     43.196     28.360  23.773355     3.1393      7.397   246.6281 9.8168e+00     4.6666      3.000      4.350    16.8429 0.0000e+00
      3.016     -0.111     4.1271     43.416     28.374  23.793472     3.1091      7.398   246.4899 1.0202e+01     4.6837      2.956      4.287    16.8603 0.0000e+00
      2.976     -0.125     4.1367     43.643     28.396  23.823505     3.0494      7.398   246.2146 1.0633e+01     4.7164      2.917      4.231    16.8755 0.0000e+00
      2.939     -0.129     4.1614     43.863     28.374  23.819628     3.0003      7.397   245.8811 1.1046e+01     4.7202      2.882      4.180    16.8927 0.0000e+00
      2.903     -0.129     4.1839     44.062     28.347  23.809989     2.9804      7.397   245.6410 1.1387e+01     4.6949      2.846      4.128    16.9107 0.0000e+00
      2.873     -0.130     4.2010     44.234     28.352  23.833726     3.0512      7.397   245.7200 1.1664e+01     4.6836      2.813      4.081    16.9213 0.0000e+00
      2.850     -0.135     4.2240     44.389     28.330  23.853157     3.2147      7.398   245.8897 1.1912e+01     4.6869      2.794      4.053    16.9404 0.0000e+00
      2.824     -0.139     4.2417     44.557     28.251  23.854847     3.3097      7.398   245.9732 1.2313e+01     4.6661      2.777      4.028    16.9739 0.0000e+00
      2.783     -0.138     4.2600     44.746     28.142  23.854242     3.3261      7.398   246.1263 1.2984e+01     4.6371      2.735      3.967    16.9907 0.0000e+00
      2.732     -0.130     4.2743     44.948     28.028  23.845970     3.4291      7.396   246.4500 1.3776e+01     4.5757      2.677      3.882    17.0141 0.0000e+00
      2.685     -0.122     4.2823     45.225     27.908  23.818318     3.6226      7.395   246.7896 1.4415e+01     4.5046      2.626      3.808    17.0754 0.0000e+00
      2.656     -0.116     4.2877     45.689     27.772  23.773491     3.7272      7.396   246.9622 1.4725e+01     4.4941      2.597      3.768    17.1938 0.0000e+00
      2.646     -0.112     4.2899     46.398     27.663  23.747674     3.7286      7.398   246.9028 1.4868e+01     4.4837      2.594      3.763    17.3838 0.0000e+00
      2.636     -0.113     4.2932     47.386     27.618  23.759756     3.7309      7.400   246.7596 1.5264e+01     4.4122      2.593      3.760    17.5509 0.0000e+00
      2.611     -0.120     4.3029     48.610     27.623  23.792891     3.8211      7.403   246.6940 1.6017e+01     4.3807      2.568      3.724    17.6624 0.0000e+00
      2.569     -0.131     4.3354     49.971     27.655  23.831474     3.9869      7.406   246.6254 1.6929e+01     4.4448      2.522      3.657    17.7995 0.0000e+00
      2.521     -0.142     4.3883     51.507     27.670  23.846033     4.0797      7.408   246.5331 1.7854e+01     4.4702      2.471      3.585    17.9329 0.0000e+00
      2.476     -0.151     4.4741     53.186     27.663  23.842164     4.0939      7.411   246.5239 1.8587e+01     4.4479      2.425      3.517    18.0210 0.0000e+00
      2.441     -0.154     4.5929     54.752     27.666  23.848082     4.2014      7.414   246.6008 1.9117e+01     4.4494      2.390      3.466    18.0763 0.0000e+00
      2.413     -0.150     4.7153     56.051     27.671  23.854212     4.4304      7.418   246.7740 1.9761e+01     4.4542      2.368      3.435    18.0893 0.0000e+00
      2.378     -0.141     4.8585     57.053     27.666  23.852910     4.5817      7.420   246.9832 2.0711e+01     4.4372      2.339      3.393    18.0813 0.0000e+00
      2.333     -0.129     5.0321     57.729     27.621  23.832338     4.6232      7.422   247.0652 2.1777e+01     4.4150      2.289      3.319    18.0869 0.0000e+00
      2.288     -0.121     5.1818     58.100     27.527  23.795625     4.8658      7.425   247.2487 2.2588e+01     4.4933      2.236      3.243    18.1015 0.0000e+00
      2.258     -0.118     5.3037     58.238     27.451  23.789316     5.3186      7.429   247.5672 2.2888e+01     4.6317      2.205      3.199    18.0988 0.0000e+00
      2.245     -0.121     5.4022     58.262     27.434  23.819518     5.5695      7.433   247.6477 2.2962e+01     4.6881      2.202      3.193    18.0939 0.0000e+00
      2.231     -0.127     5.4608     58.278     27.447  23.843985     5.6030      7.437   247.5336 2.3474e+01     4.6970      2.196      3.184    18.1199 0.0000e+00
      2.201     -0.135     5.4856     58.377     27.439  23.831660     5.5736      7.442   247.4786 2.4570e+01     4.6366      2.164      3.139    18.2026 0.0000e+00
      2.154     -0.145     5.4781     58.678     27.403  23.797244     5.5056      7.446   247.4990 2.6027e+01     4.5734      2.116      3.069    18.3378 0.0000e+00
      2.099     -0.154     5.4661     59.249     27.409  23.808099     5.4873      7.450   247.5215 2.7480e+01     4.6159      2.057      2.983    18.4353 0.0000e+00
      2.050     -0.159     5.4646     59.987     27.433  23.836167     5.5110      7.454   247.4928 2.8407e+01     4.6381      2.002      2.905    18.4455 0.0000e+00
      2.016     -0.154     5.4721     60.707     27.404  23.819760     5.6838      7.459   247.5818 2.8889e+01     4.6021      1.974      2.864    18.4184 0.0000e+00
      1.989     -0.141     5.4974     61.287     27.367  23.799854     6.0126      7.463   247.9091 2.9622e+01     4.5906      1.956      2.836    18.4097 0.0000e+00
      1.953     -0.124     5.5538     61.666     27.333  23.785627     6.1990      7.465   248.1811 3.0836e+01     4.6362      1.919      2.782    18.4251 0.0000e+00
      1.911     -0.110     5.6293     61.827     27.300  23.774509     6.2314      7.468   248.2890 3.2001e+01     4.7093      1.870      2.713    18.4399 0.0000e+00
      1.879     -0.103     5.6980     61.799     27.297  23.792194     6.2464      7.473   248.2668 3.2556e+01     4.7230      1.835      2.662    18.4541 0.0000e+00
      1.864     -0.095     5.7522     61.674     27.295  23.809359     6.2630      7.477   248.1710 3.2721e+01     4.6991      1.826      2.650    18.4767 0.0000e+00
      1.853     -0.083     5.7846     61.609     27.259  23.791949     6.3067      7.481   248.1633 3.3267e+01     4.7278      1.824      2.646    18.5056 0.0000e+00
      1.831     -0.068     5.7951     61.750     27.224  23.771836     6.3423      7.484   248.1734 3.4188e+01     4.7622      1.798      2.608    18.5373 0.0000e+00
      1.802     -0.056     5.7855     62.111     27.189  23.756301     6.3608      7.488   248.2078 3.4874e+01     4.7736      1.761      2.556    18.5754 0.0000e+00
      1.784     -0.048     5.7631     62.567     27.132  23.730896     6.4882      7.491   248.3208 3.5119e+01     4.7981      1.744      2.530    18.6161 0.0000e+00
      1.778     -0.039     5.7485     62.996     27.074  23.718183     6.7176      7.493   248.3354 3.4962e+01     4.8185      1.743      2.528    18.6393 0.0000e+00
      1.778     -0.028     5.7590     63.362     27.035  23.729385     6.8456      7.497   248.1263 3.4713e+01     4.8497      1.744      2.529    18.6540 0.0000e+00
      1.776     -0.018     5.7960     63.666     27.005  23.739654     6.8537      7.501   248.0295 3.4696e+01     4.9018      1.743      2.527    18.6763 0.0000e+00
      1.771     -0.012     5.8387     63.929     26.951  23.715652     6.7239      7.503   248.3697 3.4677e+01     4.9025      1.738      2.520    18.7163 0.0000e+00
      1.764     -0.007     5.8693     64.196     26.913  23.692699     6.4829      7.505   248.7122 3.4575e+01     4.8920      1.730      2.509    18.7939 0.0000e+00
      1.759     -0.005     5.8929     64.556     26.938  23.715649     6.3544      7.507   248.5566 3.4577e+01     4.9119      1.723      2.499    18.8867 0.0000e+00
      1.759     -0.007     5.9109     65.070     26.975  23.739639     6.3433      7.511   248.1233 3.4612e+01     4.9043      1.722      2.497    18.9614 0.0000e+00
      1.766     -0.014     5.9304     65.728     26.974  23.729251     6.2910      7.516   247.8612 3.4582e+01     4.8338      1.731      2.508    18.9996 0.0000e+00
      1.772     -0.023     5.9492     66.529     26.965  23.716785     6.1800      7.520   247.7966 3.4547e+01     4.7074      1.743      2.528    19.0177 0.0000e+00
      1.767     -0.032     5.9784     67.418     26.963  23.715652     6.1159      7.524   247.8577 3.4965e+01     4.6409      1.741      2.525    19.0239 0.0000e+00
      1.747     -0.044     6.0323     68.296     26.961  23.715558     6.1155      7.528   248.0843 3.5929e+01     4.6780      1.713      2.486    18.9989 0.0000e+00
      1.724     -0.062     6.0934     69.107     26.962  23.715652     6.1165      7.532   248.4713 3.6632e+01     4.6776      1.685      2.443    18.9763 0.0000e+00
      1.711     -0.079     6.1714     69.802     26.965  23.716785     6.0952      7.536   248.9239 3.6932e+01     4.6029      1.676      2.430    18.9697 0.0000e+00
      1.701     -0.089     6.2581     70.331     26.980  23.729251     6.0658      7.539   249.3407 3.7630e+01     4.5950      1.674      2.428    18.9716 0.0000e+00
      1.678     -0.093     6.3388     70.656     26.993  23.739631     6.0613      7.541   249.8105 3.9091e+01     4.6496      1.652      2.396    18.9801 0.0000e+00
      1.641     -0.094     6.4168     70.756     26.966  23.715539     6.0813      7.544   250.2166 4.0855e+01     4.7169      1.609      2.333    18.9770 0.0000e+00
      1.604     -0.097     6.4838     70.641     26.935  23.691455     6.1755      7.546   250.2071 4.2398e+01     4.7937      1.567      2.272    18.9702 0.0000e+00
      1.581     -0.100     6.5334     70.357     26.939  23.701938     6.3425      7.550   249.7807 4.3660e+01     4.8260      1.547      2.244    18.9727 0.0000e+00
      1.566     -0.100     6.5650     69.967     26.946  23.715543     6.4444      7.554   249.2780 4.4917e+01     4.8693      1.536      2.230    18.9713 0.0000e+00
      1.548     -0.104     6.5746     69.544     26.954  23.729226     6.4583      7.558   248.0865 4.6587e+01     4.9411      1.521      2.207    18.9657 0.0000e+00
      1.523     -0.116     6.5612     69.125     26.963  23.740632     6.3610      7.560   246.0426 4.8830e+01     4.9763      1.497      2.170    18.9715 0.0000e+00
      1.491     -0.134     6.5315     68.741     26.944  23.726708     6.1748      7.562   244.8712 5.1214e+01     4.9536      1.462      2.121    18.9858 0.0000e+00
      1.455     -0.145     6.4898     68.452     26.891  23.687628     6.0796      7.562   244.9365 5.3754e+01     4.9057      1.429      2.073    19.0023 0.0000e+00
      1.411     -0.140     6.4483     68.393     26.826  23.648364     6.0838      7.560   245.2838 5.7039e+01     4.9435      1.389      2.014    19.0153 0.0000e+00
      1.358     -0.117     6.4081     68.674     26.780  23.632229     6.1843      7.557   245.6280 6.0331e+01     5.0350      1.329      1.928    19.0202 0.0000e+00
      1.313     -0.079     6.3704     69.157     26.740  23.619333     6.3632      7.554   245.9141 6.2075e+01     5.0563      1.277      1.852    19.0226 0.0000e+00
      1.293     -0.034     6.3390     69.599     26.715  23.619214     6.4484      7.550   246.1631 6.2003e+01     5.0294      1.258      1.825    19.0298 0.0000e+00
      1.299      0.009     6.3206     69.942     26.709  23.630817     6.4413      7.549   246.4020 6.0756e+01     5.0519      1.269      1.839    19.0674 0.0000e+00
      1.324      0.034     6.3463     70.205     26.704  23.632901     6.4173      7.552   246.5646 5.9134e+01     5.0539      1.296      1.879    19.1214 0.0000e+00
      1.358      0.033     6.3982     70.395     26.719  23.644423     6.3749      7.557   246.4951 5.8004e+01     4.9523      1.333      1.933    19.1611 0.0000e+00
      1.386      0.005     6.4324     70.592     26.720  23.643375     6.3369      7.562   246.2500 5.7710e+01     4.8821      1.366      1.982    19.2033 0.0000e+00
      1.392     -0.040     6.4574     70.925     26.685  23.620227     6.3238      7.567   245.3211 5.8492e+01     4.8885      1.376      1.995    19.2422 0.0000e+00
      1.368     -0.088     6.4825     71.482     26.660  23.618042     6.3338      7.572   242.5771 6.0519e+01     4.8927      1.350      1.957    19.2520 0.0000e+00
      1.321     -0.123     6.4977     72.276     26.627  23.616989     6.2742      7.577   238.7121 6.3522e+01     4.9330      1.298      1.883    19.2405 0.0000e+00
      1.266     -0.134     6.5121     73.240     26.586  23.607539     6.1360      7.585   235.7588 6.7159e+01     5.0345      1.241      1.799    19.2335 0.0000e+00
      1.214     -0.120     6.5383     74.232     26.588  23.630561     6.0605      7.601   234.1440 7.0318e+01     5.0952      1.186      1.720    19.2442 0.0000e+00
      1.176     -0.086     6.5840     75.080     26.583  23.641881     6.0608      7.626   232.9530 7.1896e+01     5.1199      1.143      1.658    19.2855 0.0000e+00
      1.161     -0.046     6.6516     75.720     26.540  23.617684     6.1316      7.659   231.8562 7.2307e+01     5.1620      1.131      1.640    19.3454 0.0000e+00
      1.168     -0.010     6.7372     76.197     26.500  23.591505     6.2416      7.694   231.0352 7.1844e+01     5.1613      1.143      1.657    19.3978 0.0000e+00
      1.186      0.015     6.8312     76.619     26.479  23.578859     6.2757      7.726   230.0815 7.0834e+01     5.1112      1.163      1.686    19.4369 0.0000e+00
      1.202      0.028     6.9062     77.029     26.489  23.591524     6.2687      7.755   228.4980 7.0119e+01     5.1027      1.182      1.716    19.4652 0.0000e+00
      1.210      0.029     6.9602     77.387     26.510  23.617908     6.2330      7.780   226.8607 6.9670e+01     5.0924      1.189      1.724    19.4904 0.0000e+00
      1.211      0.022     6.9965     77.747     26.526  23.644388     6.1355      7.801   225.5148 6.9464e+01     5.0207      1.187      1.721    19.5118 0.0000e+00
      1.213      0.010     7.0311     78.196     26.521  23.658212     6.0626      7.821   224.1842 6.9348e+01     4.9529      1.190      1.726    19.5193 0.0000e+00
      1.217     -0.006     7.0738     78.740     26.492  23.658322     6.0427      7.843   223.1622 6.9081e+01     4.8877      1.194      1.732    19.5231 0.0000e+00
      1.221     -0.025     7.1003     79.327     26.454  23.645758     6.0122      7.867   222.2776 6.9404e+01     4.8128      1.197      1.737    19.5388 0.0000e+00
      1.220     -0.047     7.1267     79.847     26.433  23.633083     5.9514      7.891   221.3184 7.0752e+01     4.7306      1.200      1.741    19.5585 0.0000e+00
      1.206     -0.069     7.1645     80.210     26.435  23.631820     5.8986      7.913   220.5128 7.2704e+01     4.6798      1.189      1.725    19.5910 0.0000e+00
      1.177     -0.084     7.2063     80.474     26.435  23.630478     5.8819      7.934   219.5914 7.4844e+01     4.6777      1.156      1.677    19.6509 0.0000e+00
      1.142     -0.090     7.2570     80.771     26.416  23.616861     5.9242      7.953   218.3514 7.7116e+01     4.7382      1.119      1.623    19.7003 0.0000e+00
      1.109     -0.086     7.3085     81.150     26.386  23.593930     6.0112      7.967   217.3080 7.8691e+01     4.8650      1.084      1.573    19.7070 0.0000e+00
      1.084     -0.076     7.3410     81.586     26.397  23.606718     6.0671      7.980   216.8705 7.8824e+01     4.9130      1.057      1.532    19.6915 0.0000e+00
      1.072     -0.063     7.3600     82.021     26.435  23.644731     6.0676      7.994   216.0735 7.8394e+01     4.8736      1.049      1.521    19.6843 0.0000e+00
      1.067     -0.054     7.3847     82.400     26.459  23.673307     6.0333      8.008   213.9524 7.7894e+01     4.8672      1.048      1.520    19.6963 0.0000e+00
      1.060     -0.053     7.4186     82.705     26.476  23.698749     5.8448      8.022   211.6157 7.7883e+01     4.9728      1.041      1.509    19.7085 0.0000e+00
      1.050     -0.062     7.4603     82.923     26.461  23.698870     5.5270      8.036   210.4486 7.9564e+01     5.1260      1.032      1.495    19.7092 0.0000e+00
      1.034     -0.079     7.5018     83.042     26.418  23.674786     5.3538      8.054   209.8214 8.2053e+01     5.1472      1.017      1.475    19.7147 0.0000e+00
      1.012     -0.098     7.5344     83.090     26.391  23.661074     5.3241      8.075   209.0228 8.4013e+01     5.0930      0.994      1.442    19.7285 0.0000e+00
      0.983     -0.111     7.5590     83.109     26.386  23.659839     5.3419      8.099   208.3643 8.6441e+01     5.1191      0.967      1.402    19.7482 0.0000e+00
      0.948     -0.115     7.5767     83.144     26.381  23.659849     5.4034      8.128   207.7105 8.9325e+01     5.1901      0.932      1.352    19.7755 0.0000e+00
      0.908     -0.107     7.5809     83.267     26.372  23.661199     5.4354      8.156   207.1399 9.1421e+01     5.1998      0.890      1.290    19.8063 0.0000e+00
      0.871     -0.090     7.5805     83.531     26.374  23.676178     5.4294      8.183   206.7141 9.2548e+01     5.1682      0.850      1.232    19.8280 0.0000e+00
      0.847     -0.071     7.5814     83.930     26.403  23.714238     5.4390      8.210   205.6600 9.2394e+01     5.1497      0.824      1.195    19.8312 0.0000e+00
      0.839     -0.055     7.5808     84.384     26.419  23.741152     5.4765      8.238   204.0308 9.2213e+01     5.1475      0.818      1.187    19.8332 0.0000e+00
      0.842     -0.046     7.5876     84.826     26.410  23.748113     5.5075      8.268   202.8468 9.2905e+01     5.1757      0.826      1.199    19.8522 0.0000e+00
      0.842     -0.045     7.6069     85.263     26.443  23.798433     5.5057      8.297   202.5293 9.3472e+01     5.1823      0.829      1.203    19.8810 0.0000e+00
      0.832     -0.046     7.6431     85.661     26.533  23.905970     5.4883      8.325   202.6012 9.5037e+01     5.1591      0.821      1.191    19.9047 0.0000e+00
      0.810     -0.045     7.6853     85.990     26.633  24.034387     5.4883      8.354   202.5976 9.7180e+01     5.1688      0.797      1.156    19.9229 0.0000e+00
      0.783     -0.037     7.7181     86.299     26.701  24.147050     5.4985      8.384   202.4856 9.7719e+01     5.1280      0.763      1.107    19.9522 0.0000e+00
      0.765     -0.022     7.7541     86.628     26.758  24.254250     5.5026      8.414   202.3650 9.6863e+01     5.0415      0.744      1.079    19.9908 0.0000e+00
      0.763     -0.003     7.7860     86.968     26.834  24.379977     5.6377      8.443   202.2578 9.4383e+01     5.0805      0.742      1.076    20.0345 0.0000e+00
      0.776      0.012     7.8010     87.269     26.860  24.463161     5.9176      8.468   201.8788 9.0812e+01     5.2566      0.759      1.100    20.1076 0.0000e+00
      0.795      0.017     7.8124     87.540     26.833  24.499593     6.0893      8.490   201.1379 8.8090e+01     5.3950      0.783      1.138    20.2110 0.0000e+00
      0.807      0.005     7.8248     87.813     26.777  24.503681     6.1157      8.510   200.4412 8.6548e+01     5.3876      0.794      1.152    20.3178 0.0000e+00
      0.811     -0.022     7.8432     88.061     26.677  24.449292     6.1032      8.529   199.9075 8.6286e+01     5.3387      0.798      1.157    20.4199 0.0000e+00
      0.806     -0.059     7.8525     88.307     26.553  24.349036     6.0717      8.545   199.5893 8.7779e+01     5.3159      0.797      1.156    20.5305 0.0000e+00
      0.785     -0.099     7.8551     88.651     26.443  24.242148     6.0430      8.559   199.5188 9.0317e+01     5.2833      0.775      1.124    20.6510 0.0000e+00
      0.750     -0.134     7.8664     89.176     26.384  24.170913     6.0311      8.572   199.3999 9.2743e+01     5.2510      0.739      1.070    20.7601 0.0000e+00
      0.705     -0.159     7.8752     89.854     26.359  24.121455     6.0112      8.583   199.1841 9.4721e+01     5.1986      0.695      1.007    20.8377 0.0000e+00
      0.655     -0.168     7.8901     90.610     26.356  24.087745     5.8268      8.593   198.9746 9.6618e+01     5.1275      0.644      0.934    20.8609 0.0000e+00
      0.601     -0.156     7.9204     91.461     26.378  24.080159     5.5087      8.599   198.6726 9.9936e+01     5.1091      0.589      0.854    20.8401 0.0000e+00
      0.549     -0.129     7.9734     92.358     26.411  24.093066     5.3444      8.600   198.3730 1.0447e+02     5.1466      0.533      0.773    20.8048 0.0000e+00
      0.511     -0.095     8.0478     93.179     26.448  24.117036     5.3130      8.600   198.1050 1.0736e+02     5.1713      0.491      0.712    20.7562 0.0000e+00
      0.497     -0.060     8.1215     93.883     26.455  24.116471     5.1965      8.603   197.6688 1.0796e+02     5.1685      0.480      0.697    20.6909 0.0000e+00
      0.502     -0.029     8.2091     94.417     26.429  24.086219     5.0081      8.608   197.4016 1.0699e+02     5.1470      0.492      0.714    20.6321 0.0000e+00
      0.511     -0.003     8.3018     94.745     26.415  24.068126     4.9164      8.616   197.6277 1.0498e+02     5.1165      0.504      0.730    20.6022 0.0000e+00
      0.514      0.016     8.3758     94.940     26.436  24.087830     4.9372      8.624   197.9934 1.0314e+02     5.1408      0.507      0.736    20.5864 0.0000e+00
      0.511      0.024     8.4445     95.131     26.475  24.134320     5.0346      8.633   198.1239 1.0161e+02     5.2024      0.500      0.726    20.5761 0.0000e+00
      0.512      0.025     8.4954     95.292     26.515  24.186630     5.1777      8.643   197.9144 1.0169e+02     5.2814      0.495      0.718    20.5651 0.0000e+00
      0.526      0.025     8.5264     95.283     26.529  24.213327     5.2536      8.653   197.6978 1.0476e+02     5.3779      0.514      0.746    20.5471 0.0000e+00
      0.542      0.023     8.5370     95.098     26.504  24.203636     5.2616      8.661   197.8279 1.0652e+02     5.4128      0.537      0.780    20.5441 0.0000e+00
      0.550      0.015     8.5508     94.873     26.481  24.196227     5.1819      8.668   198.1100 1.0503e+02     5.2592      0.542      0.785    20.5710 0.0000e+00
      0.552     -0.005     8.5676     94.712     26.463  24.187142     5.0226      8.677   198.3552 1.0528e+02     4.9890      0.540      0.783    20.6055 0.0000e+00
      0.552     -0.032     8.5614     94.611     26.435  24.157177     4.9343      8.685   198.2973 1.0731e+02     4.8794      0.544      0.790    20.6307 0.0000e+00
      0.546     -0.057     8.5363     94.574     26.436  24.150788     4.9293      8.692   197.8409 1.0854e+02     4.9238      0.543      0.788    20.6530 0.0000e+00
      0.525     -0.078     8.5049     94.592     26.464  24.173256     4.9204      8.697   197.3108 1.0868e+02     4.9452      0.520      0.752    20.6852 0.0000e+00
      0.492     -0.097     8.4912     94.615     26.464  24.175334     4.7779      8.703   196.7067 1.0696e+02     4.9672      0.481      0.698    20.7048 0.0000e+00
      0.458     -0.115     8.4825     94.573     26.459  24.175920     4.5211      8.710   196.0430 1.0405e+02     5.0532      0.446      0.647    20.6890 0.0000e+00
      0.430     -0.129     8.4833     94.384     26.458  24.180353     4.3785      8.717   195.4800 1.0108e+02     5.1312      0.421      0.609    20.6679 0.0000e+00
      0.402     -0.137     8.4880     94.032     26.436  24.165562     4.3351      8.724   195.0629 1.0030e+02     5.1597      0.398      0.577    20.6616 0.0000e+00
      0.367     -0.141     8.4903     93.564     26.450  24.187209     3.9885      8.729   194.8716 1.0228e+02     5.0557      0.364      0.527    20.6686 0.0000e+00
      0.324     -0.142     8.4883     93.039     26.503  24.251974     3.3424      8.732   194.7161 1.0544e+02     4.7961      0.316      0.458    20.6821 0.0000e+00
      0.281     -0.135     8.4697     92.454     26.543  24.314909     2.9979      8.730   194.6443 1.1008e+02     4.6512      0.273      0.396    20.6913 0.0000e+00
      0.242     -0.120     8.4354     91.768     26.508  24.314429     2.9782      8.725   194.8638 1.1644e+02     4.7038      0.236      0.342    20.6997 0.0000e+00
      0.208     -0.102     8.3876     90.996     26.400  24.246229     2.9542      8.719   195.3922 1.2402e+02     4.7835      0.201      0.290    20.7150 0.0000e+00
      0.185     -0.093     8.3370     90.251     26.376  24.250842     2.9152      8.712   196.4729 1.3084e+02     4.8285      0.176      0.255    20.7419 0.0000e+00
      0.176     -0.097     8.2786     89.669     26.415  24.306869     2.8988      8.706   198.0358 1.3534e+02     4.8392      0.170      0.246    20.7912 0.0000e+00
      0.174     -0.107     8.2061     89.309     26.375  24.289920     2.8971      8.699   200.0924 1.4615e+02     4.8789      0.176      0.256    20.8605 0.0000e+00
      0.155     -0.116     8.1234     89.129     26.352  24.299444     2.8200      8.689   211.0144 2.3136e+02     4.9327      0.167      0.243    20.9179 0.0000e+00
      0.105     -0.119     8.0439     89.039     26.373  24.358689     2.6567      8.682   230.3733 2.9952e+02     4.9082      0.109      0.158    20.9710 0.0000e+00
      0.043     -0.114     7.9832     88.931     26.334  24.372552     2.5552      8.680   233.0849 2.1723e+02     4.8905      0.031      0.046    21.0114 0.0000e+00
      0.001     -0.101     7.9511     88.682     26.295  24.403757     2.5494      8.680   218.2473 1.3989e+02     4.9236     -0.010     -0.014    21.0268 0.0000e+00
     -0.014     -0.080     7.9272     88.212     26.298  24.482570     2.5613      8.678   218.2325 1.2847e+02     4.9324     -0.018     -0.027    21.0960 0.0000e+00
     -0.013     -0.056     7.9104     87.575     26.223  24.501702     2.5573      8.674   234.8854 1.1577e+02     4.8949     -0.012     -0.019    21.1741 0.0000e+00
     -0.011     -0.046     7.8926     86.870     26.046  24.445067     2.5433      8.672   244.5063 1.1331e+02     4.8454     -0.006     -0.009    21.2518 0.0000e+00
     -0.016     -0.059     7.8522     86.100     25.981  24.495090     2.5408      8.671   245.4210 1.2146e+02     4.8809     -0.012     -0.018    21.3964 0.0000e+00
     -0.029     -0.091     7.7870     85.300     26.002  24.599676     2.5527      8.671   245.2573 1.3927e+02     4.9479     -0.026     -0.038    21.5371 0.0000e+00
     -0.050     -0.131     7.7017     84.683     25.837  24.505589     2.5047      8.671   242.3551 1.8958e+02     4.9384     -0.045     -0.065    21.6953 0.0000e+00
     -0.088     -0.178     7.6099     84.553     25.661  24.371589     2.3842      8.667   235.7125 2.4389e+02     4.9365     -0.079     -0.114    21.9140 0.0000e+00
     -0.146     -0.230     7.5067     85.076     25.692  24.373809     2.3109      8.655   225.3408 2.7454e+02     4.9593     -0.140     -0.205    22.1628 0.0000e+00
     -0.213     -0.277     7.4073     86.136     25.735  24.342273     2.2178      8.638   214.5200 5.9746e+02     4.9749     -0.211     -0.307    22.3181 0.0000e+00
     -0.283     -0.302     7.3291     87.476     25.752  24.243685     1.1503      8.628   212.8594 1.1627e+03     5.0908     -0.267     -0.386    22.4147 0.0000e+00
     -0.377     -0.301     7.2926     88.999     25.914  24.195631    -0.8249      8.626   216.9641 1.3266e+03     5.2678     -0.358     -0.520    22.5516 0.0000e+00
     -0.489     -0.279     7.3551     90.674     26.181  24.204596    -1.8961      8.626   216.9141 1.0443e+03     5.3383     -0.487     -0.707    22.4543 0.0000e+00
     -0.581     -0.244     7.4834     92.219     26.414  24.224997    -1.8066      8.627   217.3298 7.8531e+02     5.3289     -0.590     -0.855    22.2890 0.0000e+00
     -0.627     -0.197     7.6189     93.004     25.884  23.618157     0.1832      8.631   225.9487 7.4754e+02     4.9149     -0.628     -0.911    22.1610 0.0000e+00
     -0.646     -0.141     7.8171     92.309     20.692  18.831714     3.8176      8.634   242.1400 8.5779e+02     4.0894     -0.624     -0.906    21.7135 0.0000e+00
     -0.669     -0.089     8.0564     89.893     11.631  10.569640     5.7905      8.638   260.4646 8.1910e+02     3.6486     -0.658     -0.953    21.1732 0.0000e+00
     -0.689     -0.052     8.2739     86.254      6.548   5.943823     5.8756      8.643   255.5563 4.7724e+02     3.4113     -0.685     -0.992    20.8040 0.0000e+00
     -0.696     -0.032     8.4092     82.210      5.677   5.150459     4.8634      8.647   178.8358 2.2670e+02     0.6063     -0.683     -0.989    20.5767 0.0000e+00
     -0.697     -0.019     8.3785     78.325      4.986   4.522783     2.9823      8.655    55.6588 1.9515e+02    -4.6131     -0.684     -0.992    20.4562 0.0000e+00
     -0.697     -0.009     8.1487     75.001      4.328   3.926216     1.9498      8.665   -19.2352 1.8653e+02    -7.5001     -0.683     -0.991    20.3922 0.0000e+00
     -0.696     -0.004     7.7977     73.536      4.077   3.698845     1.8603      8.670   -33.8263 1.8115e+02    -7.7586     -0.684     -0.991    20.3637 0.0000e+00
     -0.696 -9.990e-29     7.4094 -9.990e-29 -9.990e-29 -9.990e-29 -9.990e-29 -9.990e-29 -9.990e-29 1.7082e+02 -9.990e-29     -0.683     -0.990    20.3544 0.0000e+00
     -0.696 -9.990e-29     7.0664 -9.990e-29 -9.990e-29 -9.990e-29 -9.990e-29 -9.990e-29 -9.990e-29 1.5964e+02 -9.990e-29     -0.683     -0.990    20.3548 0.0000e+00
     -0.696 -9.990e-29     6.7201 -9.990e-29 -9.990e-29 -9.990e-29 -9.990e-29 -9.990e-29 -9.990e-29 1.5511e+02 -9.990e-29     -0.683     -0.991    20.3558 0.0000e+00
     -0.696 -9.990e-29     6.5110 -9.990e-29 -9.990e-29 -9.990e-29 -9.990e-29 -9.990e-29 -9.990e-29 1.5473e+02 -9.990e-29     -0.683     -0.990    20.3573 0.0000e+00
