* Sea-Bird SBE19plus  Data File:
* FileName = C:\R\Reservoirs\Data\DataNotYetUploadedToEDI\Raw_CTD\RawDownloads\061024_bvr50_S7809_0003.hex
* Software version 2.8.0.119
* Temperature SN = 7809
* Conductivity SN = 7809
* System UpLoad Time = Jun 11 2024 14:38:53
* <ApplicationData>
* <Seaterm232>
* <SoftwareVersion>2.8.0.119</SoftwareVersion>
* <BuildDate>07-Nov-2018</BuildDate>
* </Seaterm232>
* </ApplicationData>
* <InstrumentState>
* <HardwareData DeviceType='SBE19plus' SerialNumber='01907809'>
*
*    <Manufacturer>Sea-Bird Electronics, Inc.</Manufacturer>
*
*    <FirmwareVersion>3.1.8</FirmwareVersion>
*
*    <FirmwareDate>Mar  9 2016 16:22:29</FirmwareDate>
*
*    <CommandSetVersion>1.4</CommandSetVersion>
*
*    <PCBAssembly PCBSerialNum='120721' AssemblyNum='41054J'/>
*
*    <PCBAssembly PCBSerialNum='120715' AssemblyNum='41967A'/>
*
*    <PCBAssembly PCBSerialNum='116699' AssemblyNum='41606'/>
*
*    <PCBAssembly PCBSerialNum='120719' AssemblyNum='41059D'/>
*
*    <MfgDate>28-Apr-2017</MfgDate>
*
*    <InternalSensors>
*
*       <Sensor id='Main Temperature'>
*
*          <type>temperature0</type>
*
*          <SerialNumber>01907809</SerialNumber>
*
*       </Sensor>
*
*       <Sensor id='Main Conductivity'>
*
*          <type>conductivity-0</type>
*
*          <SerialNumber>01907809</SerialNumber>
*
*       </Sensor>
*
*       <Sensor id='Main Pressure'>
*
*          <type>strain-0</type>
*
*          <SerialNumber>10586018</SerialNumber>
*
*       </Sensor>
*
*    </InternalSensors>
*
*    <ExternalSensors>
*
*       <Sensor id='volt 0'>
*
*          <type>pH</type>
*
*          <SerialNumber>27-0363</SerialNumber>
*
*       </Sensor>
*
*       <Sensor id='volt 1'>
*
*          <type>ORP</type>
*
*          <SerialNumber>27-0363</SerialNumber>
*
*       </Sensor>
*
*       <Sensor id='volt 2'>
*
*          <type>OXY</type>
*
*          <SerialNumber>43-0434</SerialNumber>
*
*       </Sensor>
*
*       <Sensor id='volt 3'>
*
*          <type>PAR</type>
*
*          <SerialNumber>1122</SerialNumber>
*
*       </Sensor>
*
*       <Sensor id='volt 4'>
*
*          <type>ECO AFL/FL</type>
*
*          <SerialNumber>FLNTURT-2496</SerialNumber>
*
*       </Sensor>
*
*       <Sensor id='volt 5'>
*
*          <type>ECO-NTU</type>
*
*          <SerialNumber>FLNTURT-2496</SerialNumber>
*
*       </Sensor>
*
*       <Sensor id='serial'>
*
*          <type>not assigned</type>
*
*          <SerialNumber>not assigned</SerialNumber>
*
*       </Sensor>
*
*    </ExternalSensors>
*
* </HardwareData>
* <StatusData DeviceType='SBE19plus' SerialNumber='01907809'>
*
*    <DateTime>2024-06-11T14:36:37</DateTime>
*
*    <LoggingState>not logging</LoggingState>
*
*    <EventSummary numEvents='0'/>
*
*    <Power>
*
*       <vMain>12.7</vMain>
*
*       <vLith>8.3</vLith>
*
*       <iMain>63.1</iMain>
*
*       <iPump>59.5</iPump>
*
*       <iExt01>20.3</iExt01>
*
*       <iExt2345>38.5</iExt2345>
*
*    </Power>
*
*    <MemorySummary>
*
*       <Bytes>154813</Bytes>
*
*       <Samples>6731</Samples>
*
*       <SamplesFree>2854057</SamplesFree>
*
*       <SampleLength>23</SampleLength>
*
*       <Profiles>6</Profiles>
*
*    </MemorySummary>
*
* </StatusData>
* <ConfigurationData DeviceType='SBE19plus' SerialNumber='01907809'>
*
*    <ProfileMode>
*
*       <ScansToAverage>1</ScansToAverage>
*
*       <MinimumCondFreq>0</MinimumCondFreq>
*
*       <PumpDelay>45</PumpDelay>
*
*       <AutoRun>no</AutoRun>
*
*       <IgnoreSwitch>no</IgnoreSwitch>
*
*    </ProfileMode>
*
*    <Battery>
*
*       <Type>alkaline</Type>
*
*       <CutOff>7.5</CutOff>
*
*    </Battery>
*
*    <DataChannels>
*
*       <ExtVolt0>yes</ExtVolt0>
*
*       <ExtVolt1>yes</ExtVolt1>
*
*       <ExtVolt2>yes</ExtVolt2>
*
*       <ExtVolt3>yes</ExtVolt3>
*
*       <ExtVolt4>yes</ExtVolt4>
*
*       <ExtVolt5>yes</ExtVolt5>
*
*       <SBE38>no</SBE38>
*
*       <WETLABS>no</WETLABS>
*
*       <OPTODE>no</OPTODE>
*
*       <SBE63>no</SBE63>
*
*       <SeaFET>no</SeaFET>
*
*       <GTD>no</GTD>
*
*    </DataChannels>
*
*    <EchoCharacters>yes</EchoCharacters>
*
*    <OutputExecutedTag>yes</OutputExecutedTag>
*
*    <OutputFormat>raw HEX</OutputFormat>
*
* </ConfigurationData>
* <CalibrationCoefficients DeviceType='SBE19plus' SerialNumber='01907809'>
*
*    <Calibration format='TEMP1' id='Main Temperature'>
*
*       <SerialNum>01907809</SerialNum>
*
*       <CalDate>31-Jan-23</CalDate>
*
*       <TA0>1.218232e-03</TA0>
*
*       <TA1>2.815090e-04</TA1>
*
*       <TA2>-1.578887e-06</TA2>
*
*       <TA3>1.972343e-07</TA3>
*
*       <TOFFSET>0.000000e+00</TOFFSET>
*
*    </Calibration>
*
*    <Calibration format='WBCOND0' id='Main Conductivity'>
*
*       <SerialNum>01907809</SerialNum>
*
*       <CalDate>31-Jan-23</CalDate>
*
*       <G>-1.005652e+00</G>
*
*       <H>1.267963e-01</H>
*
*       <I>-1.561708e-04</I>
*
*       <J>2.645944e-05</J>
*
*       <CPCOR>-9.570000e-08</CPCOR>
*
*       <CTCOR>3.250000e-06</CTCOR>
*
*       <CSLOPE>1.000000e+00</CSLOPE>
*
*    </Calibration>
*
*    <Calibration format='STRAIN0' id='Main Pressure'>
*
*       <SerialNum>10586018</SerialNum>
*
*       <CalDate>20-Jan-23</CalDate>
*
*       <PA0>4.416439e-02</PA0>
*
*       <PA1>4.850502e-04</PA1>
*
*       <PA2>-3.090426e-12</PA2>
*
*       <PTCA0>5.254757e+05</PTCA0>
*
*       <PTCA1>1.050255e+01</PTCA1>
*
*       <PTCA2>-2.922435e-01</PTCA2>
*
*       <PTCB0>2.516687e+01</PTCB0>
*
*       <PTCB1>3.750000e-04</PTCB1>
*
*       <PTCB2>0.000000e+00</PTCB2>
*
*       <PTEMPA0>-5.470820e+01</PTEMPA0>
*
*       <PTEMPA1>5.485421e+01</PTEMPA1>
*
*       <PTEMPA2>-3.446578e-01</PTEMPA2>
*
*       <POFFSET>8.500000e-01</POFFSET>
*
*       <PRANGE>1.600000e+02</PRANGE>
*
*    </Calibration>
*
*    <Calibration format='VOLT0' id='Volt 0'>
*
*       <OFFSET>-4.920000e-02</OFFSET>
*
*       <SLOPE>1.248122e+00</SLOPE>
*
*    </Calibration>
*
*    <Calibration format='VOLT0' id='Volt 1'>
*
*       <OFFSET>-4.784000e-02</OFFSET>
*
*       <SLOPE>1.248871e+00</SLOPE>
*
*    </Calibration>
*
*    <Calibration format='VOLT0' id='Volt 2'>
*
*       <OFFSET>-4.864632e-02</OFFSET>
*
*       <SLOPE>1.248714e+00</SLOPE>
*
*    </Calibration>
*
*    <Calibration format='VOLT0' id='Volt 3'>
*
*       <OFFSET>-4.743790e-02</OFFSET>
*
*       <SLOPE>1.248571e+00</SLOPE>
*
*    </Calibration>
*
*    <Calibration format='VOLT0' id='Volt 4'>
*
*       <OFFSET>-4.671263e-02</OFFSET>
*
*       <SLOPE>1.248951e+00</SLOPE>
*
*    </Calibration>
*
*    <Calibration format='VOLT0' id='Volt 5'>
*
*       <OFFSET>-4.871053e-02</OFFSET>
*
*       <SLOPE>1.249136e+00</SLOPE>
*
*    </Calibration>
*
*    <Calibration format='FREQ0' id='external frequency channel'>
*
*       <EXTFREQSF>1.000014e+00</EXTFREQSF>
*
*    </Calibration>
*
* </CalibrationCoefficients>
* <EventCounters DeviceType='SBE19plus' SerialNumber='01907809'>
*
*    <EventSummary numEvents='0'/>
*
* </EventCounters></InstrumentState>
* <Headers>
*
* cast   3 10 Jun 2024 13:09:16 samples 3438 to 4090, avg = 1, stop = mag switch
*
# nquan = 15
# nvalues = 653                         
# units = specified
# name 0 = depFM: Depth [fresh water, m]
# name 1 = dz/dtM: Descent Rate [m/s]
# name 2 = sbeox0Mg/L: Oxygen, SBE 43 [mg/l]
# name 3 = sbeox0PS: Oxygen, SBE 43 [% saturation]
# name 4 = specc: Specific Conductance [uS/cm]
# name 5 = c0uS/cm: Conductivity [uS/cm]
# name 6 = flECO-AFL: Fluorescence, WET Labs ECO-AFL/FL [mg/m^3]
# name 7 = ph: pH
# name 8 = orp: Oxidation Reduction Potential [mV]
# name 9 = par/sat/log: PAR/Logarithmic, Satlantic
# name 10 = turbWETntu0: Turbidity, WET Labs ECO [NTU]
# name 11 = prdM: Pressure, Strain Gauge [db]
# name 12 = prdE: Pressure, Strain Gauge [psi]
# name 13 = tv290C: Temperature [ITS-90, deg C]
# name 14 = flag:  0.000e+00
# span 0 =     -0.727,      2.043       
# span 1 =     -0.262,      0.110       
# span 2 =     4.0682,    10.4591       
# span 3 =     47.110,    122.996       
# span 4 =      0.718,     45.550       
# span 5 =   0.620212,  42.813955       
# span 6 =    -0.1413,    35.1154       
# span 7 =      7.819,      9.085       
# span 8 = -1240.7455,  1239.4891       
# span 9 = 6.7129e+01, 2.5696e+03       
# span 10 =     0.7129,   147.4798      
# span 11 =     -0.713,      2.004      
# span 12 =     -1.035,      2.906      
# span 13 =    18.1716,    24.2704      
# span 14 = 0.0000e+00, 0.0000e+00      
# interval = seconds: 0.25
# start_time = Jun 10 2024 13:09:16 [Instrument's time stamp, header]
# bad_flag = -9.990e-29
# <Sensors count="9" >
#   <sensor Channel="1" >
#     <!-- Count, Temperature -->
#     <TemperatureSensor SensorID="58" >
#       <SerialNumber>7809</SerialNumber>
#       <CalibrationDate>31-Jan-23</CalibrationDate>
#       <A0>1.21823180e-003</A0>
#       <A1>2.81508993e-004</A1>
#       <A2>-1.57888696e-006</A2>
#       <A3>1.97234302e-007</A3>
#       <Slope>1.00000000</Slope>
#       <Offset>0.0000</Offset>
#     </TemperatureSensor>
#   </sensor>
#   <sensor Channel="2" >
#     <!-- Frequency 0, Conductivity -->
#     <ConductivitySensor SensorID="3" >
#       <SerialNumber>7809</SerialNumber>
#       <CalibrationDate>31-Jan-23</CalibrationDate>
#       <UseG_J>1</UseG_J>
#       <!-- Cell const and series R are applicable only for wide range sensors. -->
#       <SeriesR>0.0000</SeriesR>
#       <CellConst>2000.0000</CellConst>
#       <ConductivityType>0</ConductivityType>
#       <Coefficients equation="0" >
#         <A>0.00000000e+000</A>
#         <B>0.00000000e+000</B>
#         <C>0.00000000e+000</C>
#         <D>0.00000000e+000</D>
#         <M>0.0</M>
#         <CPcor>-9.57000000e-008</CPcor>
#       </Coefficients>
#       <Coefficients equation="1" >
#         <G>-1.00565232e+000</G>
#         <H>1.26796307e-001</H>
#         <I>-1.56170788e-004</I>
#         <J>2.64594368e-005</J>
#         <CPcor>-9.57000000e-008</CPcor>
#         <CTcor>3.2500e-006</CTcor>
#         <!-- WBOTC not applicable unless ConductivityType = 1. -->
#         <WBOTC>0.00000000e+000</WBOTC>
#       </Coefficients>
#       <Slope>1.00000000</Slope>
#       <Offset>0.00000</Offset>
#     </ConductivitySensor>
#   </sensor>
#   <sensor Channel="3" >
#     <!-- Count, Pressure, Strain Gauge -->
#     <PressureSensor SensorID="46" >
#       <SerialNumber>7809</SerialNumber>
#       <CalibrationDate>20-Jan-23</CalibrationDate>
#       <PA0>4.41643944e-002</PA0>
#       <PA1>4.85050239e-004</PA1>
#       <PA2>-3.09042623e-012</PA2>
#       <PTEMPA0>-5.47081996e+001</PTEMPA0>
#       <PTEMPA1>5.48542136e+001</PTEMPA1>
#       <PTEMPA2>-3.44657813e-001</PTEMPA2>
#       <PTCA0>5.25475731e+005</PTCA0>
#       <PTCA1>1.05025484e+001</PTCA1>
#       <PTCA2>-2.92243463e-001</PTCA2>
#       <PTCB0>2.51668750e+001</PTCB0>
#       <PTCB1>3.75000000e-004</PTCB1>
#       <PTCB2>0.00000000e+000</PTCB2>
#       <Offset>0.000000</Offset>
#     </PressureSensor>
#   </sensor>
#   <sensor Channel="4" >
#     <!-- A/D voltage 0, Oxygen, SBE 43 -->
#     <OxygenSensor SensorID="38" >
#       <SerialNumber>0434</SerialNumber>
#       <CalibrationDate>18-Feb-23</CalibrationDate>
#       <Use2007Equation>1</Use2007Equation>
#       <CalibrationCoefficients equation="0" >
#         <!-- Coefficients for Owens-Millard equation. -->
#         <Boc>0.0000</Boc>
#         <Soc>0.0000e+000</Soc>
#         <offset>0.0000</offset>
#         <Pcor>0.00e+000</Pcor>
#         <Tcor>0.0000</Tcor>
#         <Tau>0.0</Tau>
#       </CalibrationCoefficients>
#       <CalibrationCoefficients equation="1" >
#         <!-- Coefficients for Sea-Bird equation - SBE calibration in 2007 and later. -->
#         <Soc>5.1878e-001</Soc>
#         <offset>-0.5046</offset>
#         <A>-4.2788e-003</A>
#         <B> 1.5372e-004</B>
#         <C>-2.1853e-006</C>
#         <D0> 2.5826e+000</D0>
#         <D1> 1.92634e-004</D1>
#         <D2>-4.64803e-002</D2>
#         <E> 3.6000e-002</E>
#         <Tau20> 0.9900</Tau20>
#         <H1>-3.3000e-002</H1>
#         <H2> 5.0000e+003</H2>
#         <H3> 1.4500e+003</H3>
#       </CalibrationCoefficients>
#     </OxygenSensor>
#   </sensor>
#   <sensor Channel="5" >
#     <!-- A/D voltage 1, PAR/Logarithmic, Satlantic -->
#     <PARLog_SatlanticSensor SensorID="76" >
#       <SerialNumber>1122</SerialNumber>
#       <CalibrationDate>08-Sep-2021</CalibrationDate>
#       <a0>9.6751e-001</a0>
#       <a1>8.0992e-001</a1>
#       <Im>1.3589e+000</Im>
#       <Multiplier>1.0000e+000</Multiplier>
#     </PARLog_SatlanticSensor>
#   </sensor>
#   <sensor Channel="6" >
#     <!-- A/D voltage 2, pH -->
#     <pH_Sensor SensorID="43" >
#       <SerialNumber>0363</SerialNumber>
#       <CalibrationDate>28-Feb-23</CalibrationDate>
#       <Slope>4.7364</Slope>
#       <Offset>2.5433</Offset>
#     </pH_Sensor>
#   </sensor>
#   <sensor Channel="7" >
#     <!-- A/D voltage 3, Oxidation Reduction Potential -->
#     <OxidationReductionPotentialSensor SensorID="41" >
#       <SerialNumber>0363</SerialNumber>
#       <CalibrationDate>28-Feb-23</CalibrationDate>
#       <B>2.499480</B>
#       <M>-0.496195</M>
#       <Offset>0.0</Offset>
#     </OxidationReductionPotentialSensor>
#   </sensor>
#   <sensor Channel="8" >
#     <!-- A/D voltage 4, Fluorometer, WET Labs ECO-AFL/FL -->
#     <FluoroWetlabECO_AFL_FL_Sensor SensorID="20" >
#       <SerialNumber>FLNTURT-2496</SerialNumber>
#       <CalibrationDate>02-Sep-2021</CalibrationDate>
#       <ScaleFactor>4.80000000e+001</ScaleFactor>
#       <!-- Dark output -->
#       <Vblank>0.0550</Vblank>
#     </FluoroWetlabECO_AFL_FL_Sensor>
#   </sensor>
#   <sensor Channel="9" >
#     <!-- A/D voltage 5, Turbidity Meter, WET Labs, ECO-NTU -->
#     <TurbidityMeter SensorID="67" >
#       <SerialNumber>FLNTURT--2496</SerialNumber>
#       <CalibrationDate>02-Sep-2021</CalibrationDate>
#       <ScaleFactor>197.000000</ScaleFactor>
#       <!-- Dark output -->
#       <DarkVoltage>0.070000</DarkVoltage>
#     </TurbidityMeter>
#   </sensor>
# </Sensors>
# datcnv_date = Jun 11 2024 14:45:00, 7.26.7.129 [datcnv_vars = 14]
# datcnv_in = C:\R\Reservoirs\Data\DataNotYetUploadedToEDI\Raw_CTD\RawDownloads\061024_fcr10_S7809003.hex C:\R\Reservoirs\Data\DataNotYetUploadedToEDI\Raw_CTD\RawDownloads\SBE19plusV2_7809_start20230701.xmlcon
# datcnv_skipover = 0
# datcnv_ox_hysteresis_correction = yes
# datcnv_ox_tau_correction = yes
# filter_date = Jun 11 2024 14:47:07, 7.26.7.129
# filter_in = C:\R\Reservoirs\Data\DataNotYetUploadedToEDI\Raw_CTD\RawDownloads\061024_fcr10_S7809003.cnv
# filter_low_pass_tc_A = 0.030
# filter_low_pass_tc_B = 0.150
# filter_low_pass_A_vars = sbeox0Mg/L prdM prdE tv290C
# filter_low_pass_B_vars = depFM dz/dtM sbeox0PS specc c0uS/cm flECO-AFL ph orp par/sat/log turbWETntu0
# alignctd_date = Jun 11 2024 14:47:48, 7.26.7.129
# alignctd_in = C:\R\Reservoirs\Data\DataNotYetUploadedToEDI\Raw_CTD\RawDownloads\061024_fcr10_S7809003.cnv
# alignctd_adv = dz/dtM 1.000, sbeox0PS 1.000, specc 1.000, c0uS/cm 1.000, flECO-AFL 1.000, ph 1.000, orp 1.000, turbWETntu0 1.000                                                                                                   
# file_type = ascii
*END*
     -0.724 -4.494e-18     8.7496     92.785      0.844   0.728937    -0.0949      7.968 -1188.9156 4.7854e+02     1.4173     -0.710     -1.030    18.1716 0.0000e+00
     -0.724 -4.944e-17     8.7511     92.790      0.831   0.717412    -0.0933      7.998 -1206.2718 4.8032e+02     1.4226     -0.710     -1.030    18.1725 0.0000e+00
     -0.724 -5.438e-16     8.7533     92.782      0.816   0.704857    -0.0858      8.039 -1201.2145 4.8173e+02     1.4812     -0.711     -1.031    18.1731 0.0000e+00
     -0.724 -5.982e-15     8.7518     92.778      0.815   0.703818    -0.0958      8.044 -1183.3496 5.0101e+02     1.5454     -0.710     -1.030    18.1738 0.0000e+00
     -0.724 -6.580e-14     8.7515     92.780      0.816   0.704858    -0.0987      8.007 -1121.7375 5.5021e+02     1.6514     -0.710     -1.030    18.1748 0.0000e+00
     -0.725 -7.238e-13     8.7539     92.775      0.831   0.717421    -0.0956      7.959 -1018.7923 6.0041e+02     1.7383     -0.711     -1.031    18.1760 0.0000e+00
     -0.725 -7.962e-12     8.7508     92.767      0.844   0.729039    -0.1001      7.945  -992.2846 6.2998e+02     1.7424     -0.711     -1.031    18.1776 0.0000e+00
     -0.725 -8.758e-11     8.7502     92.758      0.832   0.718656    -0.0945      7.977  -977.7025 6.4335e+02     1.7698     -0.710     -1.030    18.1790 0.0000e+00
     -0.725 -9.634e-10     8.7515     92.761      0.832   0.718552    -0.0946      8.017  -905.8050 6.4440e+02     1.8302     -0.711     -1.031    18.1801 0.0000e+00
     -0.725 -1.060e-08     8.7496     92.767      0.843   0.727784    -0.0927      8.033  -886.6635 6.4526e+02     1.8919     -0.711     -1.031    18.1812 0.0000e+00
     -0.725 -1.166e-07     8.7499     92.772      0.815   0.703600    -0.0718      8.016  -951.0375 6.3156e+02     1.9692     -0.711     -1.031    18.1821 0.0000e+00
     -0.725 -3.118e-07     8.7470     92.780      0.787   0.679510    -0.0659      7.967 -1064.1466 5.9336e+02     1.9792     -0.711     -1.031    18.1827 0.0000e+00
     -0.725 -3.216e-07     8.7485     92.782      0.798   0.689873    -0.0803      7.917 -1171.1077 5.7561e+02     1.9443     -0.711     -1.031    18.1839 0.0000e+00
     -0.724 -1.273e-07     8.7490     92.789      0.812   0.702219    -0.0796      7.888 -1219.6538 5.6750e+02     1.9565     -0.710     -1.030    18.1850 0.0000e+00
     -0.724 -1.157e-08     8.7484     92.804      0.812   0.702105    -0.0741      7.869 -1233.7362 5.4058e+02     1.9566     -0.710     -1.030    18.1858 0.0000e+00
     -0.725 -1.066e-09     8.7503     92.812      0.797   0.688492    -0.0891      7.844 -1240.1083 5.3180e+02     1.9120     -0.711     -1.031    18.1867 0.0000e+00
     -0.725 -2.445e-10     8.7491     92.809      0.769   0.664310    -0.0936      7.819 -1240.6876 5.8681e+02     1.8945     -0.711     -1.031    18.1874 0.0000e+00
     -0.725 -1.646e-09     8.7497     92.804      0.767   0.663073    -0.0701      7.819 -1240.7402 6.5279e+02     1.9166     -0.711     -1.031    18.1884 0.0000e+00
     -0.725 -1.802e-08     8.7515     92.801      0.779   0.673542    -0.0633      7.858 -1240.7450 6.3002e+02     1.9051     -0.711     -1.032    18.1896 0.0000e+00
     -0.725 -1.982e-07     8.7525     92.800      0.769   0.664205    -0.0786      7.904 -1240.7455 5.6141e+02     1.7559     -0.711     -1.032    18.1907 0.0000e+00
     -0.725 -3.633e-07     8.7511     92.798      0.784   0.676862    -0.0796      7.930 -1240.7455 5.1056e+02     1.5135     -0.711     -1.031    18.1918 0.0000e+00
     -0.725 -1.982e-07     8.7508     92.802      0.810   0.699893    -0.0758      7.958 -1240.7455 4.8059e+02     1.3646     -0.711     -1.031    18.1927 0.0000e+00
     -0.725 -1.802e-08     8.7501     92.801      0.798   0.689320    -0.0746      8.008 -1240.7455 4.6824e+02     1.2877     -0.711     -1.031    18.1929 0.0000e+00
     -0.725 -1.638e-09     8.7507     92.785      0.782   0.675699    -0.0815      8.055 -1240.7455 4.5422e+02     1.1982     -0.711     -1.032    18.1929 0.0000e+00
     -0.725 -1.489e-10     8.7496     92.773      0.766   0.661888    -0.0927      8.057 -1240.7455 4.3697e+02     1.1037     -0.711     -1.031    18.1934 0.0000e+00
     -0.725 -1.354e-11     8.7501     92.776      0.751   0.649013    -0.0844      8.017 -1240.7455 4.2763e+02     0.9983     -0.711     -1.031    18.1954 0.0000e+00
     -0.725 -1.230e-12     8.7507     92.786      0.749   0.646700    -0.0810      7.983 -1240.7455 4.3208e+02     0.9148     -0.711     -1.031    18.1982 0.0000e+00
     -0.725 -1.118e-13     8.7469     92.791      0.734   0.633928    -0.0931      7.988 -1240.7455 4.4616e+02     0.9140     -0.711     -1.031    18.2009 0.0000e+00
     -0.725 -9.676e-15     8.7453     92.787      0.719   0.621260    -0.0901      7.999 -1240.7455 4.5848e+02     0.9882     -0.711     -1.030    18.2027 0.0000e+00
     -0.725 4.5060e-15     8.7459     92.769      0.718   0.620212    -0.0774      7.979 -1240.7455 4.6377e+02     1.0277     -0.710     -1.031    18.2031 0.0000e+00
     -0.725 5.9652e-14     8.7477     92.761      0.719   0.621259    -0.0819      7.950 -1240.7455 4.6195e+02     0.9814     -0.711     -1.032    18.2028 0.0000e+00
     -0.725 6.5709e-13     8.7472     92.759      0.734   0.633919    -0.0773      7.946 -1240.7455 4.5532e+02     0.9402     -0.711     -1.031    18.2026 0.0000e+00
     -0.725 7.2280e-12     8.7487     92.754      0.749   0.646595    -0.0472      7.955 -1240.7455 4.5247e+02     0.9045     -0.711     -1.032    18.2033 0.0000e+00
     -0.725 7.9508e-11     8.7444     92.767      0.750   0.647850    -0.0257      7.960 -1240.7455 4.5371e+02     0.7897     -0.711     -1.031    18.2037 0.0000e+00
     -0.725 8.7459e-10     8.7445     92.783      0.751   0.649097    -0.0243      7.960 -1240.7451 4.5076e+02     0.7129     -0.711     -1.032    18.2034 0.0000e+00
     -0.725 9.6205e-09     8.7460     92.790      0.766   0.661670    -0.0225      7.963 -1240.7413 4.4466e+02     0.7621     -0.711     -1.031    18.2024 0.0000e+00
     -0.725 1.0583e-07     8.7424     92.795      0.779   0.673187     0.0713      7.970 -1240.6993 4.4201e+02     1.2133     -0.711     -1.031    18.2020 0.0000e+00
     -0.725      0.000     8.7464     92.809      0.766   0.661674     0.2357      7.976 -1240.2371 4.5471e+02     2.0016     -0.711     -1.031    18.2005 0.0000e+00
     -0.725      0.000     8.7472     92.769      0.751   0.649144     0.3082      7.981 -1235.1535 5.0099e+02     2.4021     -0.711     -1.031    18.2010 0.0000e+00
     -0.725      0.000     8.7492     92.650      0.750   0.648372     0.3157      8.003 -1179.2337 5.8388e+02     2.4344     -0.711     -1.031    18.1987 0.0000e+00
     -0.725      0.002     8.7469     92.563      0.755   0.652337     0.3514      8.208  -564.1160 6.5755e+02     2.4614     -0.711     -1.031    18.2011 0.0000e+00
     -0.725      0.007     8.7522     92.554      0.803   0.697082     0.6988      8.552   563.5998 6.8046e+02     2.7620     -0.711     -1.031    18.1960 0.0000e+00
     -0.725      0.017     8.7507     92.555      1.338   1.189382     1.3609      8.682  1178.7158 6.8424e+02     3.4049     -0.711     -1.031    18.2037 0.0000e+00
     -0.724      0.032     8.7341     92.521      5.923   5.401232     1.7408      8.652  1234.6164 7.0723e+02     3.8120     -0.711     -1.031    18.1911 0.0000e+00
     -0.719      0.050     8.7206     92.467     14.773  13.603940     1.8283      8.690  1239.4891 7.6100e+02     3.8580     -0.711     -1.030    18.2122 0.0000e+00
     -0.703      0.066     8.7300     92.432     21.037  19.573325     2.3104      8.774  1237.6311 8.2645e+02     4.3032     -0.693     -1.006    18.1787 0.0000e+00
     -0.678      0.078     8.6889     92.434     23.654  22.249040     3.1759      8.858  1212.1509 8.6653e+02     5.2668     -0.665     -0.965    18.4171 0.0000e+00
     -0.650      0.083     8.4971     92.434     28.259  26.808860     3.6538      8.933   931.4105 8.8413e+02     5.8753     -0.638     -0.925    19.4999 0.0000e+00
     -0.621      0.082     8.2880     92.405     34.829  33.226232     3.7188      8.996   416.9162 8.9136e+02     5.9900     -0.607     -0.881    20.7172 0.0000e+00
     -0.597      0.079     8.1553     92.373     38.280  36.664328     3.8115      9.041   138.3119 8.9209e+02     5.9712     -0.582     -0.843    21.5146 0.0000e+00
     -0.583      0.076     8.0740     92.368     38.799  37.296323     3.9593      9.066   118.0235 8.9026e+02     5.8874     -0.568     -0.824    22.0458 0.0000e+00
     -0.575      0.074     8.0205     92.392     39.003  37.631685     4.0496      9.080   121.2786 8.7698e+02     5.8644     -0.567     -0.823    22.4058 0.0000e+00
     -0.560      0.073     7.9714     92.486     39.080  37.863901     4.0719      9.085   123.9804 8.6097e+02     5.9319     -0.556     -0.805    22.6874 0.0000e+00
     -0.535      0.073     7.9395     93.003     39.070  38.010231     4.0622      9.082   123.8469 8.4101e+02     5.9863     -0.525     -0.760    22.8953 0.0000e+00
     -0.508      0.076     7.9097     93.820     38.999  38.068614     4.0229      9.077   122.3310 8.1351e+02     5.9763     -0.496     -0.719    23.0540 0.0000e+00
     -0.488      0.081     7.8960     94.202     38.897  38.062330     3.9888      9.070   121.3110 7.9869e+02     5.9128     -0.475     -0.689    23.2208 0.0000e+00
     -0.473      0.084     7.8511     94.185     38.770  37.997840     3.9900      9.065   120.8916 7.9662e+02     5.9022     -0.464     -0.673    23.4406 0.0000e+00
     -0.458      0.085     7.8561     94.175     38.599  37.860067     4.0543      9.059   121.8206 7.8449e+02     5.9842     -0.454     -0.658    23.6537 0.0000e+00
     -0.435      0.085     7.9525     94.220     38.456  37.729132     4.1503      9.045   124.5419 7.7479e+02     6.0165     -0.430     -0.623    23.8182 0.0000e+00
     -0.406      0.083     7.9498     94.261     38.426  37.683832     4.1857      9.028   126.6924 8.0152e+02     5.9507     -0.396     -0.574    23.9366 0.0000e+00
     -0.378      0.078     7.9200     94.232     38.431  37.629615     4.1742      9.009   126.0544 8.2532e+02     5.8726     -0.369     -0.536    24.0108 0.0000e+00
     -0.357      0.078     7.9199     94.152     38.411  37.517699     4.2108      8.989   123.6250 8.3437e+02     5.8578     -0.347     -0.504    24.0445 0.0000e+00
     -0.342      0.087     7.9203     94.134     38.384  37.409258     4.6693      8.966   122.1844 8.6987e+02     6.1812     -0.332     -0.482    24.0568 0.0000e+00
     -0.335      0.098     7.9297     94.281     38.368  37.333608     5.5065      8.942   122.2303 9.0961e+02     6.8108     -0.327     -0.475    24.0523 0.0000e+00
     -0.324      0.105     7.9373     94.605     38.398  37.300930     5.9520      8.920   122.7169 8.9175e+02     7.1174     -0.329     -0.477    23.9727 0.0000e+00
     -0.286      0.110     7.9493     94.990     38.427  37.267883     5.9945      8.899   122.9923 8.2294e+02     7.0191     -0.296     -0.429    23.8214 0.0000e+00
     -0.225      0.110     7.9607     95.306     38.366  37.187762     6.2704      8.882   123.0639 7.3445e+02     6.8178     -0.208     -0.302    23.7079 0.0000e+00
     -0.185      0.100     7.9815     95.559     38.234  37.093605     6.7821      8.868   123.4106 6.4293e+02     6.5963     -0.166     -0.241    23.6514 0.0000e+00
     -0.174      0.073     8.0241     95.756     38.171  37.081286     7.0550      8.855   124.0872 5.8160e+02     6.4919     -0.177     -0.257    23.5710 0.0000e+00
     -0.162      0.034     8.0804     95.874     38.301  37.229251     7.0983      8.841   124.8775 5.3515e+02     6.4787     -0.161     -0.233    23.4657 0.0000e+00
     -0.150     -0.005     8.1095     95.876     38.553  37.486688     7.3889      8.824   125.8255 5.3274e+02     6.6757     -0.137     -0.198    23.4231 0.0000e+00
     -0.158     -0.030     8.1214     95.733     38.756  37.719234     7.9300      8.806   130.3862 5.9527e+02     7.1652     -0.148     -0.215    23.4958 0.0000e+00
     -0.183     -0.041     8.1242     95.536     38.801  37.820088     8.2215      8.789   134.4206 6.5077e+02     7.5127     -0.182     -0.264    23.5907 0.0000e+00
     -0.207     -0.045     8.1328     95.483     38.741  37.817817     8.1504      8.775   130.3801 6.7159e+02     7.5295     -0.206     -0.298    23.6009 0.0000e+00
     -0.222     -0.039     8.1372     95.798     38.697  37.818767     7.1538      8.764   126.1024 6.7755e+02     6.9925     -0.220     -0.318    23.5934 0.0000e+00
     -0.231     -0.022     8.1132     96.414     38.677  37.831635     5.3519      8.754   126.3206 6.7607e+02     6.0752     -0.230     -0.333    23.6466 0.0000e+00
     -0.232     -0.002     8.0778     96.727     38.669  37.846544     4.3835      8.745   127.1668 6.7121e+02     5.6617     -0.230     -0.334    23.7336 0.0000e+00
     -0.226      0.013     8.0535     96.164     38.680  37.872149     4.3251      8.737   127.9884 6.6699e+02     5.7164     -0.224     -0.326    23.8084 0.0000e+00
     -0.216      0.023     8.0686     94.761     38.686  37.887422     4.4554      8.729   128.6829 6.6036e+02     5.9510     -0.212     -0.308    23.8640 0.0000e+00
     -0.205      0.026     8.1375     92.817     38.697  37.904308     4.6853      8.723   129.1973 6.5340e+02     6.3456     -0.199     -0.290    23.9071 0.0000e+00
     -0.197      0.024     8.1850     90.610     38.737  37.949417     4.8165      8.719   129.4751 6.4911e+02     6.5599     -0.193     -0.279    23.9335 0.0000e+00
     -0.191      0.019     8.1258     88.430     38.771  37.988642     4.8507      8.715   129.4606 6.4546e+02     6.5946     -0.187     -0.270    23.9516 0.0000e+00
     -0.187      0.014     7.9961     86.570     38.773  37.997854     5.0235      8.711   129.4535 6.4210e+02     6.5951     -0.183     -0.265    23.9648 0.0000e+00
     -0.186      0.009     7.8248     85.283     38.765  37.997356     6.9062      8.708   129.6469 6.3933e+02     6.4621     -0.183     -0.265    23.9709 0.0000e+00
     -0.186      0.006     7.6285     84.678     38.742  37.982625    10.3683      8.705   130.0784 6.3595e+02     6.2508     -0.183     -0.266    23.9768 0.0000e+00
     -0.186      0.004     7.4361     84.738     38.699  37.946664    12.2594      8.703   130.7119 6.3161e+02     6.1241     -0.183     -0.266    23.9853 0.0000e+00
     -0.185      0.002     7.2687     85.308     38.630  37.879841    12.4012      8.700   131.1986 6.2846e+02     6.0919     -0.181     -0.263    23.9943 0.0000e+00
     -0.183     -0.001     7.1574     86.154     38.565  37.809239    12.0332      8.697   131.4024 6.2679e+02     5.9979     -0.179     -0.260    24.0040 0.0000e+00
     -0.183     -0.005     7.1046     87.104     38.554  37.791022    11.3141      8.694   131.3692 6.2469e+02     5.7734     -0.178     -0.258    24.0147 0.0000e+00
     -0.183     -0.007     7.1132     87.964     38.551  37.786482    10.8975      8.691   131.3135 6.2349e+02     5.6327     -0.178     -0.258    24.0244 0.0000e+00
     -0.187     -0.009     7.1701     88.514     38.518  37.754343    10.7001      8.686   131.4170 6.2553e+02     5.6292     -0.182     -0.264    24.0267 0.0000e+00
     -0.193     -0.009     7.2459     88.641     38.485  37.719712     9.0443      8.679   131.3308 6.2955e+02     5.7650     -0.190     -0.276    24.0159 0.0000e+00
     -0.197     -0.008     7.3328     88.308     38.452  37.685025     6.0338      8.670   131.1317 6.3315e+02     6.0445     -0.196     -0.284    24.0004 0.0000e+00
     -0.197     -0.007     7.4144     87.542     38.421  37.652218     4.3878      8.663   131.1605 6.3761e+02     6.1745     -0.194     -0.281    24.0014 0.0000e+00
     -0.196     -0.005     7.4614     86.456     38.410  37.640318     4.2238      8.656   131.4200 6.4582e+02     6.1401     -0.191     -0.277    24.0068 0.0000e+00
     -0.197     -0.004     7.4745     85.191     38.439  37.668059     4.1838      8.649   131.8607 6.5620e+02     6.2094     -0.194     -0.281    23.9997 0.0000e+00
     -0.197     -0.004     7.4471     83.905     38.505  37.733805     4.1459      8.644   132.1870 6.6625e+02     6.3630     -0.193     -0.280    23.9956 0.0000e+00
     -0.198     -0.004     7.3781     82.794     38.572  37.800691     4.1319      8.639   132.0951 6.7688e+02     6.4269     -0.194     -0.282    23.9941 0.0000e+00
     -0.201     -0.004     7.2834     82.001     38.614  37.842224     4.1644      8.634   131.8689 6.8856e+02     6.4010     -0.197     -0.286    23.9912 0.0000e+00
     -0.204     -0.002     7.1728     81.515     38.629  37.855248     4.6305      8.630   131.8604 7.0016e+02     6.2890     -0.200     -0.290    23.9903 0.0000e+00
     -0.205      0.001     7.0580     81.220     38.609  37.831252     5.5147      8.626   131.9939 7.1072e+02     6.0977     -0.202     -0.293    23.9917 0.0000e+00
     -0.204      0.005     6.9581     80.989     38.589  37.805903     6.0073      8.621   132.2778 7.1966e+02     5.9667     -0.201     -0.292    23.9947 0.0000e+00
     -0.202      0.008     6.8934     80.826     38.589  37.802568     6.0583      8.616   132.6254 7.2727e+02     5.9348     -0.199     -0.288    23.9961 0.0000e+00
     -0.197      0.010     6.8554     80.905     38.578  37.790927     6.0827      8.612   132.9279 7.3541e+02     5.9170     -0.194     -0.281    23.9947 0.0000e+00
     -0.193      0.010     6.8368     81.351     38.576  37.792062     6.3928      8.610   133.2669 7.4585e+02     5.9557     -0.188     -0.273    23.9888 0.0000e+00
     -0.190      0.009     6.8196     82.132     38.597  37.816287     6.9868      8.608   133.4562 7.5838e+02     6.0958     -0.185     -0.269    23.9793 0.0000e+00
     -0.189      0.006     6.7983     83.122     38.608  37.830027     7.3298      8.604   133.4093 7.7191e+02     6.2101     -0.184     -0.268    23.9717 0.0000e+00
     -0.189      0.002     6.8015     84.143     38.607  37.831275     7.4526      8.601   133.4740 7.8621e+02     6.2788     -0.185     -0.269    23.9717 0.0000e+00
     -0.188      0.000     6.8394     85.022     38.606  37.831388     8.3714      8.599   133.7230 8.0256e+02     6.9270     -0.184     -0.268    23.9780 0.0000e+00
     -0.188     -0.001     6.9089     85.759     38.606  37.831394    10.0404      8.598   134.0105 8.2334e+02     8.2058     -0.185     -0.268    23.9845 0.0000e+00
     -0.189     -0.001     6.9961     86.441     38.606  37.831343    10.9617      8.596   134.1965 8.5020e+02     8.9658     -0.186     -0.270    23.9876 0.0000e+00
     -0.190      0.000     7.0896     87.021     38.605  37.830770    11.1881      8.594   134.2511 8.8412e+02     9.1470     -0.187     -0.271    23.9900 0.0000e+00
     -0.191      0.001     7.1630     87.468     38.599  37.824466    12.6772      8.591   134.4122 9.2577e+02    10.4985     -0.187     -0.271    23.9912 0.0000e+00
     -0.191      0.004     7.2179     87.778     38.594  37.818585    15.3663      8.588   134.5105 9.7514e+02    13.0437     -0.188     -0.272    23.9905 0.0000e+00
     -0.190      0.006     7.2814     87.913     38.600  37.823106    16.8023      8.584   134.4932 1.0355e+03    14.4381     -0.187     -0.270    23.9908 0.0000e+00
     -0.187      0.007     7.3295     87.933     38.593  37.815678    16.7473      8.580   134.6334 1.0910e+03    14.4800     -0.184     -0.267    23.9919 0.0000e+00
     -0.184      0.007     7.3659     87.927     38.568  37.792230    14.6514      8.576   134.8293 1.1360e+03    13.3790     -0.180     -0.262    23.9924 0.0000e+00
     -0.182      0.006     7.3962     87.896     38.568  37.793417    10.7627      8.574   135.0539 1.1858e+03    11.3063     -0.177     -0.257    23.9905 0.0000e+00
     -0.180      0.003     7.4046     87.813     38.605  37.830026     8.6480      8.572   135.2849 1.2382e+03    10.1870     -0.176     -0.255    23.9876 0.0000e+00
     -0.180      0.001     7.4025     87.697     38.629  37.854140     8.5330      8.568   135.3844 1.3388e+03    10.1970     -0.175     -0.255    23.9876 0.0000e+00
     -0.181     -0.001     7.4027     87.587     38.606  37.831161     9.4306      8.566   135.5696 1.5048e+03    11.2558     -0.177     -0.256    23.9894 0.0000e+00
     -0.182     -0.002     7.4016     87.488     38.582  37.806003    11.1201      8.564   135.8896 1.6423e+03    13.1174     -0.179     -0.259    23.9897 0.0000e+00
     -0.183     -0.003     7.3936     87.394     38.582  37.803776    12.0314      8.561   136.0692 1.6902e+03    14.0200     -0.179     -0.260    23.9895 0.0000e+00
     -0.183     -0.003     7.3821     87.339     38.583  37.804232    12.0506      8.558   136.4507 1.7292e+03    13.9030     -0.178     -0.258    23.9921 0.0000e+00
     -0.184     -0.003     7.3722     87.329     38.590  37.811517    11.4187      8.553   136.8023 1.8355e+03    12.1460     -0.179     -0.261    23.9925 0.0000e+00
     -0.185     -0.002     7.3662     87.369     38.542  37.764948     9.6352      8.548   136.5346 1.9520e+03     8.8655     -0.181     -0.263    23.9883 0.0000e+00
     -0.185     -0.002     7.3560     87.490     38.397  37.621900     7.7147      8.540   136.2255 2.0748e+03     7.0320     -0.181     -0.263    23.9849 0.0000e+00
     -0.187     -0.004     7.3516     87.641     38.315  37.541405     6.9171      8.528   136.1626 2.2215e+03     6.8182     -0.182     -0.265    23.9858 0.0000e+00
     -0.188     -0.006     7.3515     87.641     38.388  37.616605     6.8246      8.516   136.4623 2.3239e+03     6.8606     -0.187     -0.271    23.9862 0.0000e+00
     -0.186     -0.006     7.3521     87.393     38.409  37.642773     6.7298      8.503   137.1813 2.3213e+03     7.5105     -0.181     -0.263    23.9885 0.0000e+00
     -0.186     -0.005     7.3633     86.998     38.239  37.477077     6.5864      8.490   137.6289 2.2548e+03     8.6301     -0.178     -0.259    23.9864 0.0000e+00
     -0.193     -0.003     7.3840     86.532     38.019  37.263008     6.5227      8.480   137.6580 2.2208e+03     9.1931     -0.192     -0.278    23.9807 0.0000e+00
     -0.196     -0.002     7.3880     85.962     37.907  37.148469     6.4997      8.472   137.7058 2.1612e+03     9.1252     -0.196     -0.283    23.9903 0.0000e+00
     -0.194      0.002     7.3586     85.223     37.956  37.170905     6.3592      8.465   137.6910 2.0787e+03     8.4239     -0.190     -0.275    23.9992 0.0000e+00
     -0.191      0.010     7.3243     84.328     38.108  37.280427     6.1296      8.457   137.5647 2.0592e+03     7.2046     -0.187     -0.271    23.9975 0.0000e+00
     -0.190      0.020     7.2863     83.464     38.185  37.330469     6.0126      8.451   137.4688 2.0279e+03     6.5440     -0.186     -0.270    23.9976 0.0000e+00
     -0.188      0.030     7.2394     82.841     38.130  37.268290     6.1767      8.446   137.3921 1.9606e+03     6.6529     -0.187     -0.271    24.0072 0.0000e+00
     -0.180      0.036     7.1832     82.455     38.023  37.163157     8.1559      8.443   137.3251 1.9366e+03     8.9311     -0.180     -0.261    23.9716 0.0000e+00
     -0.164      0.041     7.1110     82.147     37.928  37.074574    11.7737      8.440   137.2620 1.9532e+03    13.2177     -0.162     -0.235    23.8975 0.0000e+00
     -0.147      0.041     7.0333     81.789     37.873  37.022137    13.7380      8.438   137.2305 1.9262e+03    15.6124     -0.141     -0.205    23.8667 0.0000e+00
     -0.134      0.036     6.9823     81.313     37.893  37.036773    13.8865      8.437   137.2026 1.5643e+03    15.8182     -0.129     -0.187    23.8615 0.0000e+00
     -0.125      0.026     6.9571     80.774     37.991  37.124620    13.5455      8.435   137.4419 1.1713e+03    15.5008     -0.122     -0.176    23.8620 0.0000e+00
     -0.121      0.016     6.9318     80.280     38.070  37.195926    12.8689      8.435   137.8866 1.4123e+03    14.9175     -0.117     -0.170    23.8701 0.0000e+00
     -0.121      0.008     6.9055     79.879     38.080  37.200932    12.4882      8.434   138.0189 1.8366e+03    14.6413     -0.116     -0.169    23.8729 0.0000e+00
     -0.124      0.004     6.8633     79.584     38.067  37.185152    12.3879      8.434   137.9234 2.0005e+03    14.5518     -0.123     -0.178    23.8656 0.0000e+00
     -0.125      0.004     6.8152     79.404     38.013  37.132031    11.5654      8.434   138.0222 1.8994e+03    12.9474     -0.124     -0.180    23.8525 0.0000e+00
     -0.124      0.005     6.7737     79.307     37.882  37.002826    10.0504      8.433   138.2676 1.5627e+03     9.8972     -0.121     -0.175    23.8465 0.0000e+00
     -0.122      0.005     6.7400     79.174     37.787  36.892001     9.2189      8.431   138.4807 1.1379e+03     8.2111     -0.122     -0.177    23.8403 0.0000e+00
     -0.117      0.002     6.7162     78.911     37.813  36.870737     9.1356      8.429   138.7061 6.8025e+02     8.0688     -0.117     -0.169    23.8338 0.0000e+00
     -0.112     -0.007     6.7000     78.501     37.873  36.872552     9.1849      8.428   138.7553 4.7794e+02     8.1087     -0.106     -0.154    23.8322 0.0000e+00
     -0.112     -0.021     6.6972     78.069     37.962  36.913865     9.8066      8.428   138.4736 7.5689e+02     8.4201     -0.107     -0.157    23.8411 0.0000e+00
     -0.120     -0.038     6.6888     77.806     38.130  37.052925    10.9337      8.431   138.1397 1.1639e+03     8.9310     -0.117     -0.170    23.8306 0.0000e+00
     -0.131     -0.051     6.6782     77.816     38.239  37.157910    11.5271      8.432   137.9878 1.4513e+03     9.1610     -0.125     -0.181    23.7521 0.0000e+00
     -0.150     -0.057     6.6513     78.199     38.167  37.104523    11.3805      8.433   138.0132 1.9621e+03     9.1179     -0.142     -0.207    23.6638 0.0000e+00
     -0.176     -0.055     6.6122     78.897     38.007  36.978535     9.4345      8.433   138.3605 2.4614e+03     8.4098     -0.175     -0.254    23.6049 0.0000e+00
     -0.199     -0.046     6.5956     79.613     37.910  36.903713     5.8935      8.433   138.8325 2.5696e+03     7.0211     -0.203     -0.293    23.5691 0.0000e+00
     -0.208     -0.032     6.5899     80.122     37.925  36.897869     3.9650      8.432   138.9867 2.5590e+03     6.1957     -0.207     -0.300    23.5745 0.0000e+00
     -0.209     -0.016     6.6194     80.363     37.990  36.907842     3.7873      8.431   138.9345 2.5527e+03     6.0826     -0.204     -0.297    23.5952 0.0000e+00
     -0.206     -0.002     6.6866     80.342     38.035  36.897305     3.7523      8.432   138.8895 2.5002e+03     6.1314     -0.205     -0.296    23.6410 0.0000e+00
     -0.201      0.007     6.7471     80.112     38.069  36.897296     3.7338      8.433   138.9596 2.4642e+03     6.2046     -0.196     -0.285    23.6922 0.0000e+00
     -0.197      0.009     6.7945     79.769     38.094  36.907688     3.7216      8.434   139.0937 2.4589e+03     6.1830     -0.191     -0.277    23.6600 0.0000e+00
     -0.195      0.009     6.8278     79.429     38.090  36.896027     3.7293      8.434   139.1350 2.4501e+03     6.1084     -0.192     -0.279    23.5664 0.0000e+00
     -0.194      0.009     6.8335     79.138     38.082  36.883204     3.8777      8.434   139.2858 2.4428e+03     6.0539     -0.190     -0.276    23.4860 0.0000e+00
     -0.192      0.011     6.8178     78.956     38.081  36.879543     4.1425      8.433   139.6260 2.4376e+03     6.0716     -0.189     -0.273    23.4477 0.0000e+00
     -0.192      0.016     6.7835     78.861     38.050  36.851751     4.2916      8.432   139.9798 2.4400e+03     6.1509     -0.189     -0.273    23.4356 0.0000e+00
     -0.190      0.024     6.7573     78.698     37.995  36.800991     4.3079      8.430   141.0684 2.4541e+03     6.1585     -0.188     -0.273    23.4263 0.0000e+00
     -0.184      0.032     6.7311     78.434     37.967  36.773428     4.3397      8.427   150.2066 2.3191e+03     6.0960     -0.184     -0.267    23.4190 0.0000e+00
     -0.172      0.037     6.7126     78.009     37.969  36.772294     4.7758      8.425   164.8599 2.0636e+03     6.1811     -0.169     -0.245    23.4144 0.0000e+00
     -0.157      0.037     6.7168     77.381     37.988  36.787283     5.5935      8.424   169.6502 1.9980e+03     6.4355     -0.154     -0.222    23.4198 0.0000e+00
     -0.143      0.034     6.6961     76.651     38.032  36.827743     6.0536      8.425   166.9128 2.0163e+03     6.6088     -0.140     -0.203    23.4259 0.0000e+00
     -0.133      0.027     6.6787     75.942     38.084  36.880779     6.0606      8.427   164.6296 1.9656e+03     6.6377     -0.127     -0.184    23.4228 0.0000e+00
     -0.129      0.021     6.6464     75.406     38.117  36.920920     5.6035      8.428   158.8225 1.9825e+03     6.4436     -0.125     -0.181    23.4174 0.0000e+00
     -0.130      0.021     6.5867     75.121     38.112  36.932376     4.7724      8.425   153.6565 2.0650e+03     6.0718     -0.128     -0.186    23.4133 0.0000e+00
     -0.131      0.028     6.5247     75.082     38.048  36.892414     4.3255      8.420   156.2008 2.1463e+03     5.9006     -0.129     -0.187    23.4093 0.0000e+00
     -0.129      0.043     6.4563     75.224     37.952  36.818486     4.3035      8.416   158.6108 2.1991e+03     5.9445     -0.128     -0.186    23.4117 0.0000e+00
     -0.119      0.058     6.4082     75.392     37.937  36.799986     4.4490      8.415   154.9198 2.1540e+03     6.0558     -0.123     -0.177    23.4215 0.0000e+00
     -0.097      0.068     6.3824     75.554     38.234  37.049432     4.7189      8.415   151.7530 1.8674e+03     6.2217     -0.100     -0.145    23.4437 0.0000e+00
     -0.065      0.072     6.3746     76.006     38.910  37.677031     4.8788      8.415   150.9524 1.6022e+03     6.3448     -0.062     -0.090    23.4761 0.0000e+00
     -0.037      0.068     6.3910     77.671     39.466  38.296534     4.9255      8.415   146.7884 1.8398e+03     6.3828     -0.031     -0.045    23.5087 0.0000e+00
     -0.020      0.060     6.4051     81.771     39.559  38.575082     5.1001      8.414   142.6185 2.2793e+03     6.4418     -0.016     -0.024    23.5188 0.0000e+00
     -0.013      0.052     6.4199     88.251     39.432  38.633852     5.4003      8.411   141.7485 2.3595e+03     6.5459     -0.012     -0.017    23.4533 0.0000e+00
     -0.011      0.048     6.4487     95.610     39.311  38.626643     5.5586      8.410   141.1730 2.1981e+03     6.5487     -0.011     -0.016    23.3480 0.0000e+00
     -0.007      0.048     6.5211    102.421     39.241  38.615001     5.5742      8.410   140.6499 2.0266e+03     6.5439     -0.010     -0.015    23.4415 0.0000e+00
      0.007      0.052     6.8275    107.992     39.217  38.620077     5.6141      8.411   140.7575 1.7637e+03     6.6250      0.003      0.003    23.7687 0.0000e+00
      0.029      0.054     7.4038    112.016     39.207  38.624599     5.6752      8.413   141.2699 1.6392e+03     6.6748      0.028      0.042    24.0249 0.0000e+00
      0.051      0.050     8.0477    114.306     39.182  38.606238     5.6967      8.415   141.5973 1.9009e+03     6.6677      0.051      0.075    24.1439 0.0000e+00
      0.067      0.040     8.6255    114.902     39.163  38.588458     5.6579      8.418   141.7055 2.1866e+03     6.6073      0.069      0.100    24.2088 0.0000e+00
      0.077      0.026     9.0934    114.168     39.176  38.599996     5.3639      8.421   141.7172 2.2810e+03     6.4577      0.080      0.117    24.2381 0.0000e+00
      0.077      0.015     9.4361    112.748     39.196  38.618825     4.8472      8.421   141.8239 2.2512e+03     6.2583      0.078      0.114    24.2545 0.0000e+00
      0.072      0.011     9.6252    111.244     39.205  38.625742     4.5627      8.420   142.2215 2.0333e+03     6.1781      0.069      0.100    24.2603 0.0000e+00
      0.067      0.015     9.6652    109.953     39.199  38.620181     4.5206      8.419   142.6533 1.8482e+03     6.1717      0.064      0.093    24.2619 0.0000e+00
      0.068      0.024     9.5825    108.958     39.191  38.615041     4.5133      8.419   142.8285 2.0086e+03     6.1123      0.064      0.093    24.2599 0.0000e+00
      0.078      0.034     9.4435    108.281     39.200  38.627047     4.6826      8.418   143.3070 2.1646e+03     6.1779      0.073      0.105    24.2572 0.0000e+00
      0.096      0.041     9.3113    107.881     39.209  38.638427     5.0114      8.415   144.1378 1.9267e+03     6.3835      0.095      0.137    24.2547 0.0000e+00
      0.115      0.044     9.2021    107.661     39.195  38.625730     5.1923      8.414   144.0970 1.6761e+03     6.4806      0.116      0.167    24.2549 0.0000e+00
      0.128      0.042     9.1167    107.504     39.170  38.600453     5.1970      8.416   143.2437 1.6016e+03     6.4289      0.127      0.185    24.2586 0.0000e+00
      0.135      0.038     9.0611    107.444     39.157  38.586632     5.1096      8.420   142.9407 1.6372e+03     6.3052      0.134      0.195    24.2634 0.0000e+00
      0.140      0.037     9.0290    107.541     39.157  38.585531     4.9681      8.423   143.3596 1.7611e+03     6.2151      0.137      0.199    24.2672 0.0000e+00
      0.145      0.039     9.0157    107.624     39.158  38.587143     4.9096      8.424   143.9191 1.8133e+03     6.2271      0.142      0.206    24.2684 0.0000e+00
      0.151      0.043     9.0030    107.633     39.176  38.606127     4.9850      8.424   144.3718 1.7631e+03     6.2461      0.146      0.212    24.2669 0.0000e+00
      0.165      0.046     8.9887    107.642     39.193  38.624690     5.7875      8.426   144.7039 1.6436e+03     6.2389      0.157      0.228    24.2648 0.0000e+00
      0.185      0.046     9.0110    107.651     39.189  38.621220     7.2552      8.428   144.9224 1.5073e+03     6.2774      0.181      0.264    24.2636 0.0000e+00
      0.205      0.042     9.0171    107.667     39.196  38.627629     8.0657      8.430   145.0349 1.4261e+03     6.3351      0.205      0.298    24.2645 0.0000e+00
      0.215      0.036     9.0123    107.707     39.209  38.638718     8.1717      8.433   145.2043 1.4171e+03     6.3908      0.214      0.310    24.2678 0.0000e+00
      0.217      0.031     9.0155    107.750     39.201  38.628378     8.3447      8.435   145.6802 1.4286e+03     6.4380      0.213      0.309    24.2701 0.0000e+00
      0.218      0.029     9.0146    107.761     39.205  38.629518     8.6267      8.434   146.4864 1.4873e+03     6.3938      0.213      0.309    24.2704 0.0000e+00
      0.221      0.031     9.0159    107.780     39.231  38.652500     8.7766      8.431   147.2088 1.5333e+03     6.2994      0.216      0.313    24.2701 0.0000e+00
      0.229      0.036     9.0193    107.846     39.234  38.652411     8.8253      8.429   147.5318 1.4299e+03     6.3218      0.223      0.323    24.2681 0.0000e+00
      0.243      0.039     9.0274    107.963     39.211  38.628443     9.2652      8.429   147.6386 1.3835e+03     6.3913      0.236      0.342    24.2622 0.0000e+00
      0.260      0.040     9.0256    108.127     39.201  38.616533    10.0582      8.430   147.8976 1.4758e+03     6.3548      0.257      0.372    24.2598 0.0000e+00
      0.275      0.039     9.0262    108.298     39.225  38.635319    10.4742      8.430   148.3406 1.4776e+03     6.3245      0.274      0.397    24.2583 0.0000e+00
      0.281      0.037     9.0335    108.431     39.264  38.665205    10.5073      8.431   148.6916 1.3796e+03     6.3325      0.278      0.403    24.2513 0.0000e+00
      0.284      0.034     9.0428    108.528     39.270  38.660577    10.5663      8.433   148.8727 1.3091e+03     6.3143      0.276      0.400    24.2503 0.0000e+00
      0.290      0.030     9.0583    108.634     39.261  38.642798    11.1554      8.434   148.9817 1.3136e+03     6.2757      0.281      0.407    24.2501 0.0000e+00
      0.301      0.025     9.0752    108.815     39.264  38.640608    12.2276      8.435   148.9772 1.3358e+03     6.2414      0.295      0.428    24.2457 0.0000e+00
      0.312      0.020     9.0880    109.093     39.255  38.634083    12.8016      8.437   149.0765 1.3642e+03     6.2407      0.307      0.446    24.2333 0.0000e+00
      0.319      0.018     9.0977    109.438     39.240  38.627375    12.8266      8.438   149.4937 1.3649e+03     6.2676      0.315      0.457    24.2169 0.0000e+00
      0.321      0.021     9.1059    109.748     39.233  38.622974    12.6135      8.437   149.8062 1.3464e+03     6.3962      0.318      0.462    24.2056 0.0000e+00
      0.316      0.026     9.1217    109.834     39.266  38.644320    12.2137      8.435   149.9291 1.3898e+03     6.5652      0.310      0.451    24.1972 0.0000e+00
      0.313      0.034     9.1459    109.663     39.350  38.695080    11.9963      8.434   150.2056 1.3845e+03     6.6033      0.300      0.436    24.2003 0.0000e+00
      0.325      0.044     9.1732    109.438     39.441  38.729009    12.0083      8.435   150.5677 1.3143e+03     6.5831      0.314      0.455    24.2172 0.0000e+00
      0.348      0.054     9.2068    109.381     39.522  38.737178    12.4746      8.437   150.7797 1.3054e+03     6.6282      0.344      0.499    24.2231 0.0000e+00
      0.371      0.061     9.2188    109.735     39.586  38.730287    13.3645      8.439   150.7042 1.3093e+03     6.7399      0.366      0.529    24.2114 0.0000e+00
      0.388      0.062     9.1999    110.725     39.604  38.709035    13.8622      8.440   150.3437 1.2776e+03     6.8064      0.382      0.553    24.1745 0.0000e+00
      0.403      0.056     9.1901    112.399     39.562  38.670536    13.8646      8.444   150.0335 1.2716e+03     6.7824      0.396      0.573    24.0992 0.0000e+00
      0.415      0.047     9.1943    114.591     39.517  38.645556    13.4020      8.448   149.9654 1.2738e+03     6.7913      0.407      0.591    24.0024 0.0000e+00
      0.426      0.038     9.2336    116.877     39.515  38.660873    12.5635      8.451   149.9511 1.2667e+03     6.8454      0.419      0.609    23.8970 0.0000e+00
      0.434      0.029     9.3263    118.676     39.505  38.665380    12.1002      8.454   149.9460 1.2718e+03     6.8569      0.426      0.619    23.8408 0.0000e+00
      0.440      0.023     9.4679    119.608     39.454  38.636612    12.0358      8.459   149.9898 1.2622e+03     6.8270      0.431      0.626    23.8611 0.0000e+00
      0.445      0.019     9.6589    119.686     39.421  38.630366    11.7271      8.463   150.0504 1.2362e+03     6.8600      0.438      0.635    23.8968 0.0000e+00
      0.448      0.019     9.8691    119.122     39.427  38.653353    11.1479      8.465   150.0762 1.2172e+03     7.0166      0.441      0.640    23.9144 0.0000e+00
      0.448      0.024    10.0313    118.097     39.436  38.660741    10.8344      8.467   149.9576 1.2068e+03     7.1492      0.438      0.637    23.9275 0.0000e+00
      0.451      0.033    10.1019    116.775     39.440  38.656227    10.8159      8.470   149.8215 1.2046e+03     7.1648      0.437      0.634    23.9532 0.0000e+00
      0.461      0.043    10.0927    115.461     39.451  38.662225    10.8330      8.473   149.8073 1.1871e+03     7.1374      0.449      0.652    23.9955 0.0000e+00
      0.476      0.052    10.0345    114.521     39.466  38.669793    10.9493      8.475   149.6993 1.1591e+03     7.0911      0.467      0.676    24.0238 0.0000e+00
      0.494      0.058     9.9479    114.136     39.491  38.684265    11.1566      8.478   149.5489 1.1439e+03     7.0836      0.482      0.699    24.0138 0.0000e+00
      0.515      0.059     9.8299    114.265     39.530  38.710274    11.2755      8.482   149.3646 1.1254e+03     7.1501      0.506      0.734    23.9960 0.0000e+00
      0.533      0.055     9.7063    114.746     39.576  38.730412    11.2626      8.486   149.0198 1.1151e+03     7.1766      0.525      0.762    23.9945 0.0000e+00
      0.544      0.049     9.6229    115.361     39.642  38.737345    10.8592      8.490   148.7353 1.1091e+03     7.0959      0.534      0.776    23.9891 0.0000e+00
      0.552      0.043     9.5963    115.953     39.714  38.730564    10.1020      8.495   148.4207 1.0932e+03     6.9949      0.541      0.785    23.9715 0.0000e+00
      0.561      0.037     9.6137    116.597     39.754  38.711755     9.6812      8.501   147.8828 1.0751e+03     7.0137      0.548      0.795    23.9605 0.0000e+00
      0.571      0.035     9.6636    117.494     39.766  38.700221     9.6343      8.506   146.9638 1.0561e+03     7.1188      0.561      0.814    23.9469 0.0000e+00
      0.581      0.037     9.7368    118.676     39.796  38.718003     9.4260      8.512   145.6549 1.0419e+03     7.1726      0.571      0.829    23.8680 0.0000e+00
      0.587      0.040     9.8067    119.886     39.841  38.736358     9.0110      8.518   144.7053 1.0242e+03     7.1517      0.575      0.834    23.7417 0.0000e+00
      0.594      0.043     9.8664    120.832     39.876  38.731743     8.7613      8.526   144.4301 9.9597e+02     7.0712      0.580      0.841    23.6653 0.0000e+00
      0.607      0.045     9.9435    121.502     39.905  38.725601     8.7120      8.533   144.2199 9.7066e+02     7.0195      0.593      0.860    23.6484 0.0000e+00
      0.623      0.047    10.0529    122.073     39.926  38.725499     8.6811      8.538   143.7124 9.5452e+02     7.0050      0.612      0.887    23.6500 0.0000e+00
      0.638      0.048    10.1742    122.601     39.938  38.730483     8.6451      8.544   142.8547 9.3212e+02     6.9645      0.627      0.910    23.6169 0.0000e+00
      0.650      0.048    10.2650    122.946     39.922  38.722391     8.6185      8.550   141.9364 8.9699e+02     6.9044      0.637      0.924    23.5548 0.0000e+00
      0.660      0.045    10.3222    122.996     39.875  38.691121     8.5923      8.555   141.4714 8.6239e+02     6.8254      0.647      0.938    23.5118 0.0000e+00
      0.671      0.041    10.3738    122.843     39.835  38.669720     8.4194      8.559   141.3625 8.2656e+02     6.7944      0.657      0.953    23.4844 0.0000e+00
      0.682      0.038    10.4266    122.644     39.805  38.654031     8.1182      8.562   141.2228 7.9253e+02     6.8369      0.669      0.970    23.4748 0.0000e+00
      0.692      0.037    10.4591    122.429     39.778  38.628366     7.9554      8.567   141.0720 7.7911e+02     6.8621      0.680      0.985    23.4881 0.0000e+00
      0.700      0.037    10.4540    122.079     39.783  38.613250     7.9400      8.571   141.0024 7.7183e+02     6.8249      0.686      0.995    23.5095 0.0000e+00
      0.706      0.038    10.4311    121.541     39.803  38.598140     7.9325      8.575   140.8969 7.4847e+02     6.7965      0.691      1.003    23.5324 0.0000e+00
      0.715      0.038    10.4079    120.951     39.819  38.572545     7.8735      8.578   140.8285 7.1803e+02     6.8946      0.699      1.015    23.5547 0.0000e+00
      0.727      0.037    10.3945    120.448     39.843  38.557550     7.7755      8.582   140.7789 6.9145e+02     7.0896      0.713      1.034    23.5604 0.0000e+00
      0.741      0.035    10.3736    120.040     39.857  38.543697     7.7216      8.588   140.5544 6.7082e+02     7.1394      0.728      1.055    23.5316 0.0000e+00
      0.751      0.031    10.3313    119.710     39.859  38.531932     7.7636      8.593   140.2649 6.5319e+02     7.0515      0.738      1.070    23.4818 0.0000e+00
      0.758      0.026    10.2858    119.480     39.873  38.542202     8.3499      8.598   140.1188 6.3372e+02     7.0524      0.745      1.080    23.4283 0.0000e+00
      0.763      0.022    10.2544    119.354     39.871  38.540943     9.4249      8.603   140.0782 6.1004e+02     7.1158      0.749      1.085    23.3762 0.0000e+00
      0.765      0.021    10.2280    119.322     39.846  38.516705    10.0242      8.607   139.9466 5.8574e+02     7.1351      0.750      1.088    23.3401 0.0000e+00
      0.766      0.023    10.2006    119.346     39.835  38.502974    10.1527      8.612   139.8171 5.6166e+02     7.1483      0.751      1.089    23.3247 0.0000e+00
      0.770      0.027    10.1824    119.360     39.839  38.501829    10.9285      8.617   139.8895 5.3121e+02     7.8558      0.754      1.093    23.3233 0.0000e+00
      0.779      0.032    10.1702    119.307     39.847  38.502860    12.3473      8.622   139.9617 5.0091e+02     9.2688      0.763      1.106    23.3275 0.0000e+00
      0.792      0.035    10.1690    119.201     39.866  38.515426    13.1157      8.626   139.9159 4.7834e+02    10.0913      0.778      1.128    23.3270 0.0000e+00
      0.805      0.037    10.1740    119.090     39.879  38.526849    13.0777      8.630   139.9384 4.6089e+02    10.2847      0.790      1.146    23.3225 0.0000e+00
      0.815      0.037    10.1786    118.970     39.866  38.514052    11.8048      8.635   139.9746 4.5073e+02    10.8902      0.800      1.159    23.3183 0.0000e+00
      0.822      0.036    10.1753    118.814     39.847  38.487622     9.4529      8.639   139.9231 4.4875e+02    11.9122      0.807      1.170    23.3066 0.0000e+00
      0.828      0.036    10.1658    118.645     39.835  38.461097     8.1706      8.642   139.8324 4.4890e+02    12.4622      0.811      1.178    23.2972 0.0000e+00
      0.837      0.037    10.1563    118.492     39.835  38.447150     8.0440      8.645   139.7389 4.5035e+02    12.4167      0.818      1.187    23.2991 0.0000e+00
      0.847      0.039    10.1473    118.337     39.842  38.445881     7.9145      8.648   139.8245 4.5182e+02    11.0543      0.830      1.203    23.3018 0.0000e+00
      0.858      0.039    10.1349    118.189     39.846  38.445750     7.6863      8.651   140.0074 4.4610e+02     8.4236      0.842      1.221    23.2929 0.0000e+00
      0.870      0.038    10.1222    118.031     39.848  38.445559     7.5491      8.656   139.9714 4.3426e+02     6.9457      0.853      1.237    23.2703 0.0000e+00
      0.881      0.037    10.1163    117.829     39.848  38.443566     7.5459      8.659   139.9048 4.2196e+02     6.8142      0.866      1.255    23.2494 0.0000e+00
      0.891      0.034    10.1024    117.628     39.824  38.421645     7.7889      8.661   139.9764 4.1081e+02     6.9025      0.875      1.269    23.2413 0.0000e+00
      0.897      0.032    10.0910    117.483     39.770  38.370894     8.2470      8.664   140.0632 3.9876e+02     7.0915      0.880      1.276    23.2380 0.0000e+00
      0.903      0.031    10.0815    117.406     39.738  38.337601     8.4911      8.668   140.1804 3.8518e+02     7.1525      0.884      1.283    23.2329 0.0000e+00
      0.909      0.031    10.0614    117.370     39.746  38.336381     8.4930      8.671   140.2753 3.7472e+02     7.0932      0.891      1.292    23.2314 0.0000e+00
      0.917      0.032    10.0421    117.338     39.778  38.356139     8.5275      8.674   140.3490 3.6773e+02     7.1604      0.900      1.305    23.2339 0.0000e+00
      0.927      0.034    10.0286    117.285     39.817  38.386104     9.1169      8.677   140.3835 3.6195e+02     8.5113      0.908      1.318    23.2371 0.0000e+00
      0.937      0.034    10.0240    117.195     39.816  38.381374    10.2093      8.680   140.3480 3.6234e+02    11.0618      0.918      1.333    23.2348 0.0000e+00
      0.947      0.032    10.0239    117.043     39.798  38.362404    10.8491      8.683   140.4365 3.7070e+02    12.4802      0.928      1.347    23.2223 0.0000e+00
      0.956      0.029    10.0261    116.847     39.784  38.347114    11.4431      8.685   140.5936 3.8155e+02    13.1244      0.937      1.360    23.2044 0.0000e+00
      0.963      0.024    10.0230    116.670     39.761  38.323414    17.5410      8.687   140.6125 3.9320e+02    19.8423      0.945      1.371    23.1934 0.0000e+00
      0.968      0.019    10.0174    116.502     39.769  38.329683    28.7217      8.689   140.4922 4.0717e+02    32.2519      0.949      1.379    23.1920 0.0000e+00
      0.972      0.015    10.0042    116.300     39.801  38.359452    34.7991      8.692   140.4305 4.2207e+02    39.0330      0.954      1.384    23.1909 0.0000e+00
      0.973      0.014     9.9852    116.155     39.807  38.366056    35.1154      8.695   140.6405 4.3825e+02    39.7304      0.955      1.385    23.1874 0.0000e+00
      0.974      0.017     9.9692    116.055     39.785  38.346073    32.4633      8.698   141.0526 4.5545e+02    41.1278      0.954      1.384    23.1863 0.0000e+00
      0.978      0.024     9.9613    115.947     39.747  38.308217    27.5107      8.700   141.3693 4.7234e+02    43.6991      0.959      1.390    23.1858 0.0000e+00
      0.983      0.032     9.9367    115.914     39.732  38.289086    24.7724      8.700   141.4587 4.8820e+02    45.0638      0.963      1.397    23.1822 0.0000e+00
      0.991      0.039     9.9247    115.896     39.755  38.305121    24.1326      8.700   141.4455 4.9656e+02    44.3752      0.969      1.406    23.1833 0.0000e+00
      1.005      0.044     9.9233    115.871     39.768  38.311711    19.8089      8.700   141.4669 4.9755e+02    35.1338      0.984      1.427    23.1888 0.0000e+00
      1.022      0.048     9.9022    115.896     39.765  38.305297    11.9132      8.701   141.6310 4.9699e+02    18.1783      1.003      1.456    23.1861 0.0000e+00
      1.037      0.051     9.9100    115.922     39.752  38.291024     7.6030      8.702   141.9674 4.9244e+02     8.9703      1.019      1.479    23.1790 0.0000e+00
      1.047      0.051     9.9089    115.862     39.730  38.266058     7.1876      8.703   142.1794 4.8566e+02     8.1402      1.026      1.489    23.1715 0.0000e+00
      1.057      0.049     9.9045    115.700     39.725  38.257255     6.7743      8.704   142.0427 4.8502e+02     7.7655      1.035      1.502    23.1612 0.0000e+00
      1.071      0.047     9.9103    115.474     39.715  38.248033     6.0424      8.705   141.9502 4.8669e+02     7.1724      1.051      1.525    23.1582 0.0000e+00
      1.085      0.047     9.9157    115.243     39.683  38.218020     5.6298      8.708   142.0063 4.8477e+02     6.8099      1.065      1.545    23.1597 0.0000e+00
      1.097      0.046     9.9121    115.057     39.680  38.211654     5.5889      8.710   142.0331 4.8505e+02     6.7990      1.076      1.560    23.1513 0.0000e+00
      1.108      0.043     9.8982    114.881     39.708  38.234519     5.5984      8.710   142.1013 4.8807e+02     6.9035      1.086      1.576    23.1427 0.0000e+00
      1.119      0.039     9.8771    114.685     39.718  38.240637     5.6112      8.710   142.2291 4.8820e+02     7.0150      1.097      1.592    23.1474 0.0000e+00
      1.129      0.035     9.8530    114.493     39.701  38.222162     5.6017      8.711   142.4604 4.8583e+02     7.0887      1.108      1.607    23.1513 0.0000e+00
      1.137      0.032     9.8416    114.345     39.681  38.201512     5.5842      8.712   142.6606 4.8289e+02     7.0764      1.116      1.618    23.1449 0.0000e+00
      1.144      0.029     9.8281    114.236     39.662  38.181332     5.5823      8.713   142.7571 4.7777e+02     7.0371      1.122      1.627    23.1378 0.0000e+00
      1.151      0.027     9.8120    114.152     39.651  38.168527     5.6368      8.713   142.7665 4.6728e+02     6.9559      1.129      1.637    23.1335 0.0000e+00
      1.157      0.026     9.7927    114.048     39.660  38.173605     5.7276      8.714   142.6880 4.5203e+02     6.7779      1.135      1.645    23.1320 0.0000e+00
      1.163      0.025     9.7824    113.882     39.670  38.179264     5.7637      8.715   142.6690 4.3668e+02     6.6606      1.140      1.654    23.1300 0.0000e+00
      1.170      0.024     9.7731    113.684     39.667  38.173487     5.7487      8.715   142.7089 4.2313e+02     6.6306      1.147      1.664    23.1268 0.0000e+00
      1.178      0.022     9.7671    113.450     39.662  38.167207     5.6967      8.716   142.7402 4.1073e+02     6.6883      1.156      1.676    23.1255 0.0000e+00
      1.184      0.021     9.7628    113.175     39.664  38.166792     5.6257      8.719   143.1322 4.0117e+02     6.8460      1.162      1.684    23.1222 0.0000e+00
      1.188      0.020     9.7458    112.914     39.667  38.168467     5.5897      8.721   144.0073 3.9676e+02     6.8975      1.165      1.690    23.1149 0.0000e+00
      1.191      0.020     9.7309    112.691     39.687  38.187447     5.5787      8.723   144.7175 3.9444e+02     6.8326      1.168      1.694    23.1111 0.0000e+00
      1.195      0.020     9.7126    112.493     39.705  38.205907     5.5171      8.726   145.0083 3.9001e+02     6.8478      1.170      1.697    23.1101 0.0000e+00
      1.200      0.021     9.6858    112.342     39.698  38.201307     5.4107      8.728   145.1998 3.8548e+02     6.9790      1.176      1.705    23.1070 0.0000e+00
      1.208      0.023     9.6636    112.267     39.688  38.195284     5.3662      8.730   145.5708 3.8298e+02     7.1201      1.185      1.719    23.1046 0.0000e+00
      1.214      0.023     9.6459    112.274     39.686  38.196541     5.3614      8.732   145.8794 3.8072e+02     7.1195      1.191      1.727    23.1051 0.0000e+00
      1.219      0.023     9.6274    112.366     39.702  38.216513     5.3190      8.733   145.7479 3.7673e+02     7.0392      1.196      1.733    23.1059 0.0000e+00
      1.225      0.022     9.6130    112.527     39.728  38.246401     5.2612      8.734   145.3576 3.7284e+02     7.0374      1.203      1.743    23.1087 0.0000e+00
      1.232      0.020     9.6058    112.706     39.718  38.240630     5.2374      8.736   145.1184 3.6936e+02     7.0638      1.208      1.753    23.1136 0.0000e+00
      1.237      0.018     9.6051    112.856     39.686  38.210207     5.2475      8.737   145.4370 3.6347e+02     7.0855      1.213      1.760    23.1183 0.0000e+00
      1.241      0.016     9.6126    112.982     39.673  38.195841     5.2508      8.738   145.9401 3.5814e+02     7.0950      1.218      1.765    23.1226 0.0000e+00
      1.244      0.014     9.6266    113.099     39.676  38.193846     5.2444      8.740   145.9526 3.5540e+02     7.0755      1.220      1.770    23.1300 0.0000e+00
      1.248      0.013     9.6432    113.200     39.675  38.186072     5.2610      8.742   145.9322 3.5200e+02     7.0543      1.224      1.776    23.1370 0.0000e+00
      1.251      0.013     9.6551    113.258     39.660  38.165305     5.2938      8.743   146.2105 3.4752e+02     7.0780      1.227      1.779    23.1364 0.0000e+00
      1.253      0.012     9.6655    113.195     39.631  38.133109     5.3155      8.744   146.5644 3.4385e+02     7.1581      1.230      1.782    23.1332 0.0000e+00
      1.256      0.011     9.6775    112.967     39.618  38.114072     5.2986      8.745   146.8559 3.4044e+02     7.1685      1.232      1.787    23.1274 0.0000e+00
      1.261      0.009     9.6877    112.611     39.636  38.125496     5.2477      8.746   146.9813 3.3359e+02     7.1006      1.236      1.793    23.1177 0.0000e+00
      1.264      0.009     9.6973    112.156     39.659  38.144304     5.2160      8.747   147.1348 3.2342e+02     7.0548      1.240      1.798    23.1101 0.0000e+00
      1.265      0.009     9.6953    111.646     39.669  38.151096     5.2235      8.750   147.3344 3.1479e+02     7.0590      1.241      1.800    23.1055 0.0000e+00
      1.265      0.009     9.6741    111.146     39.664  38.144167     5.2210      8.752   147.4155 3.0794e+02     7.1175      1.241      1.799    23.0969 0.0000e+00
      1.266      0.010     9.6455    110.734     39.645  38.123977     5.1697      8.753   147.5129 2.9964e+02     7.1465      1.240      1.799    23.0876 0.0000e+00
      1.269      0.011     9.6061    110.462     39.620  38.097347     5.1198      8.754   147.8234 2.9084e+02     7.1024      1.244      1.804    23.0831 0.0000e+00
      1.274      0.014     9.5605    110.269     39.603  38.076014     5.1086      8.754   148.2459 2.8360e+02     7.0620      1.249      1.812    23.0806 0.0000e+00
      1.278      0.017     9.5165    110.104     39.588  38.056396     5.1088      8.755   148.5768 2.7605e+02     7.2052      1.253      1.818    23.0793 0.0000e+00
      1.282      0.018     9.4772    109.947     39.587  38.050513     5.1054      8.756   148.7270 2.6839e+02     7.5021      1.256      1.822    23.0776 0.0000e+00
      1.287      0.018     9.4593    109.759     39.610  38.068329     5.0930      8.756   148.5988 2.6247e+02     7.6120      1.261      1.829    23.0740 0.0000e+00
      1.293      0.017     9.4448    109.521     39.627  38.081434     5.0597      8.756   148.2318 2.5592e+02     7.5430      1.268      1.839    23.0684 0.0000e+00
      1.298      0.017     9.4316    109.251     39.629  38.082048     4.9519      8.756   147.9898 2.4837e+02     7.4870      1.273      1.846    23.0607 0.0000e+00
      1.302      0.016     9.4219    108.966     39.624  38.075750     4.7883      8.755   148.2535 2.4282e+02     7.4138      1.277      1.853    23.0520 0.0000e+00
      1.305      0.015     9.4071    108.676     39.619  38.068733     4.7039      8.755   148.5814 2.3760e+02     7.3416      1.279      1.855    23.0471 0.0000e+00
      1.308      0.013     9.3866    108.427     39.613  38.060663     4.6886      8.755   148.4268 2.3064e+02     7.2968      1.282      1.859    23.0443 0.0000e+00
      1.313      0.012     9.3627    108.246     39.596  38.041636     4.6702      8.754   148.1905 2.2481e+02     7.2483      1.288      1.868    23.0412 0.0000e+00
      1.316      0.012     9.3400    108.105     39.586  38.029039     4.6643      8.753   148.2201 2.2251e+02     7.2663      1.292      1.873    23.0397 0.0000e+00
      1.317      0.013     9.3123    107.983     39.595  38.035269     4.6763      8.751   148.3542 2.2481e+02     7.3447      1.291      1.872    23.0383 0.0000e+00
      1.319      0.014     9.2912    107.895     39.616  38.053504     4.6898      8.750   148.4347 2.3187e+02     7.3759      1.293      1.874    23.0341 0.0000e+00
      1.323      0.016     9.2777    107.832     39.624  38.059135     4.6866      8.750   148.5919 2.4137e+02     7.3364      1.298      1.881    23.0298 0.0000e+00
      1.329      0.018     9.2670    107.765     39.606  38.039895     4.6457      8.750   148.8774 2.5185e+02     7.2428      1.303      1.890    23.0279 0.0000e+00
      1.334      0.020     9.2555    107.698     39.578  38.011237     4.5865      8.750   149.0479 2.6388e+02     7.1667      1.309      1.898    23.0257 0.0000e+00
      1.339      0.021     9.2486    107.621     39.534  37.966466     4.5615      8.750   149.1041 2.7754e+02     7.1330      1.313      1.905    23.0226 0.0000e+00
      1.345      0.020     9.2462    107.469     39.513  37.942758     4.5680      8.750   149.2987 2.9256e+02     7.1434      1.319      1.913    23.0197 0.0000e+00
      1.352      0.017     9.2392    107.216     39.553  37.978398     4.6323      8.749   149.6805 3.0791e+02     7.3939      1.326      1.923    23.0172 0.0000e+00
      1.358      0.015     9.2343    106.946     39.594  38.016658     4.7565      8.748   150.1067 3.2310e+02     7.8404      1.332      1.933    23.0151 0.0000e+00
      1.360      0.014     9.2302    106.694     39.603  38.024616     4.8372      8.746   150.5804 3.3927e+02     8.1006      1.335      1.936    23.0124 0.0000e+00
      1.361      0.012     9.2213    106.481     39.591  38.011155     4.8592      8.744   151.1924 3.5530e+02     8.1136      1.334      1.935    23.0075 0.0000e+00
      1.363      0.012     9.1941    106.368     39.561  37.980814     4.8647      8.741   151.8274 3.6612e+02     7.8965      1.335      1.938    23.0031 0.0000e+00
      1.367      0.013     9.1713    106.293     39.557  37.975043     4.8532      8.737   152.1496 3.7081e+02     7.5249      1.340      1.944    23.0022 0.0000e+00
      1.371      0.014     9.1516    106.227     39.590  38.004826     4.8369      8.732   151.9902 3.7396e+02     7.3438      1.344      1.950    23.0018 0.0000e+00
      1.375      0.016     9.1263    106.176     39.611  38.023642     4.8425      8.728   151.7931 3.6794e+02     7.3807      1.347      1.955    23.0003 0.0000e+00
      1.380      0.016     9.1242    106.086     39.601  38.012175     4.8705      8.727   152.0030 3.4245e+02     7.4917      1.353      1.962    22.9974 0.0000e+00
      1.384      0.017     9.1175    105.960     39.583  37.993094     4.9014      8.725   152.5494 3.0579e+02     7.6617      1.358      1.969    22.9943 0.0000e+00
      1.388      0.019     9.1102    105.850     39.574  37.983303     4.9165      8.722   153.2376 2.7324e+02     7.7631      1.361      1.974    22.9925 0.0000e+00
      1.392      0.021     9.1107    105.774     39.549  37.957241     4.9119      8.721   153.7843 2.4844e+02     7.7266      1.364      1.979    22.9905 0.0000e+00
      1.397      0.022     9.1019    105.688     39.525  37.931806     4.9034      8.720   153.9982 2.2589e+02     7.6645      1.369      1.985    22.9882 0.0000e+00
      1.404      0.023     9.0900    105.589     39.526  37.929583     4.9050      8.718   154.1030 2.0501e+02     7.5585      1.376      1.995    22.9861 0.0000e+00
      1.411      0.026     9.0790    105.514     39.530  37.930360     4.9154      8.717   154.3628 1.8764e+02     7.3678      1.384      2.007    22.9844 0.0000e+00
      1.418      0.028     9.0761    105.461     39.545  37.941197     4.9129      8.715   154.7303 1.7520e+02     7.2382      1.389      2.017    22.9827 0.0000e+00
      1.423      0.029     9.0688    105.398     39.540  37.933699     4.8994      8.714   155.1047 1.6907e+02     7.2202      1.395      2.024    22.9795 0.0000e+00
      1.430      0.029     9.0593    105.300     39.511  37.903145     4.9268      8.713   155.3622 1.6703e+02     7.2528      1.402      2.033    22.9753 0.0000e+00
      1.439      0.029     9.0535    105.148     39.500  37.889051     4.9949      8.712   155.5203 1.6710e+02     7.2913      1.411      2.047    22.9717 0.0000e+00
      1.448      0.030     9.0512    104.937     39.505  37.890196     5.0234      8.712   155.8120 1.7422e+02     7.2758      1.421      2.061    22.9679 0.0000e+00
      1.456      0.030     9.0471    104.692     39.537  37.916981     5.0134      8.712   156.1358 1.9274e+02     7.2361      1.428      2.071    22.9631 0.0000e+00
      1.463      0.029     9.0397    104.412     39.583  37.959081     4.9986      8.711   156.4241 2.1473e+02     7.2554      1.434      2.080    22.9594 0.0000e+00
      1.470      0.025     9.0284    104.089     39.581  37.955028     4.9771      8.710   156.7161 2.3187e+02     7.3374      1.441      2.090    22.9554 0.0000e+00
      1.478      0.021     9.0091    103.758     39.559  37.931429     4.9699      8.710   156.9997 2.4384e+02     7.3747      1.449      2.102    22.9505 0.0000e+00
      1.486      0.018     8.9895    103.461     39.557  37.927569     4.9614      8.710   157.5293 2.5541e+02     7.3299      1.459      2.115    22.9461 0.0000e+00
      1.489      0.017     8.9664    103.208     39.539  37.908353     4.9829      8.708   158.3876 2.6781e+02     7.3085      1.463      2.122    22.9432 0.0000e+00
      1.488      0.016     8.9382    103.021     39.520  37.889454     5.0471      8.705   159.3760 2.7541e+02     7.3548      1.459      2.116    22.9408 0.0000e+00
      1.488      0.016     8.9079    102.906     39.521  37.889439     5.0803      8.704   159.9299 2.7587e+02     7.4120      1.455      2.110    22.9372 0.0000e+00
      1.494      0.017     8.8838    102.827     39.542  37.908161     5.0847      8.704   160.1796 2.7137e+02     7.4187      1.464      2.124    22.9343 0.0000e+00
      1.503      0.018     8.8614    102.761     39.564  37.925453     5.0411      8.704   160.7607 2.6646e+02     7.4702      1.476      2.141    22.9332 0.0000e+00
      1.509      0.019     8.8438    102.653     39.550  37.908148     4.9527      8.704   161.2769 2.6449e+02     7.6593      1.480      2.147    22.9330 0.0000e+00
      1.513      0.019     8.8375    102.458     39.534  37.889283     4.9065      8.704   161.6896 2.6347e+02     7.8261      1.483      2.151    22.9315 0.0000e+00
      1.516      0.019     8.8299    102.187     39.535  37.887724     4.9000      8.705   162.3083 2.5869e+02     7.8476      1.486      2.156    22.9287 0.0000e+00
      1.520      0.019     8.8276    101.883     39.539  37.889285     4.8905      8.706   162.9931 2.5045e+02     7.7829      1.491      2.162    22.9247 0.0000e+00
      1.524      0.021     8.8210    101.612     39.561  37.908150     4.7989      8.706   163.6889 2.4160e+02     7.6243      1.494      2.167    22.9192 0.0000e+00
      1.529      0.024     8.8039    101.397     39.581  37.925455     4.6421      8.706   164.2674 2.3406e+02     7.4327      1.499      2.173    22.9145 0.0000e+00
      1.536      0.025     8.7809    101.208     39.566  37.908149     4.5673      8.706   164.7396 2.2740e+02     7.3783      1.506      2.185    22.9112 0.0000e+00
      1.544      0.025     8.7519    101.045     39.547  37.889270     4.5685      8.706   165.2689 2.1906e+02     7.4110      1.516      2.198    22.9079 0.0000e+00
      1.553      0.024     8.7285    100.947     39.545  37.887555     4.6315      8.706   165.7630 2.1031e+02     7.4528      1.524      2.209    22.9054 0.0000e+00
      1.559      0.024     8.7121    100.896     39.545  37.887411     4.7466      8.706   166.2391 2.0246e+02     7.5076      1.530      2.219    22.9030 0.0000e+00
      1.564      0.024     8.6970    100.851     39.545  37.887526     4.8208      8.706   166.8106 1.9541e+02     7.5616      1.535      2.225    22.8999 0.0000e+00
      1.566      0.025     8.6802    100.804     39.547  37.888956     4.8624      8.706   167.3385 1.8949e+02     7.6269      1.536      2.227    22.8979 0.0000e+00
      1.571      0.028     8.6733    100.744     39.565  37.904699     4.9919      8.706   167.7173 1.8429e+02     7.5797      1.539      2.232    22.8983 0.0000e+00
      1.580      0.032     8.6705    100.672     39.615  37.950953     5.1969      8.705   168.1209 1.7868e+02     7.4017      1.550      2.248    22.8990 0.0000e+00
      1.591      0.037     8.6662    100.585     39.677  38.004012     5.2925      8.705   168.6049 1.7276e+02     7.2847      1.560      2.263    22.8984 0.0000e+00
      1.602      0.041     8.6633    100.460     39.725  38.038574     5.3152      8.706   169.0947 1.6698e+02     7.2923      1.571      2.277    22.8974 0.0000e+00
      1.614      0.043     8.6578    100.253     39.753  38.051544     5.5886      8.706   169.7409 1.6131e+02     7.4598      1.582      2.296    22.8970 0.0000e+00
      1.624      0.042     8.6520     99.874     39.746  38.033897     6.0765      8.706   170.3964 1.5556e+02     7.7041      1.591      2.309    22.8951 0.0000e+00
      1.635      0.041     8.6463     99.239     39.733  38.015559     6.3363      8.706   171.0826 1.4909e+02     7.7871      1.603      2.325    22.8881 0.0000e+00
      1.647      0.040     8.6393     98.397     39.740  38.020186     6.3746      8.706   171.8426 1.4239e+02     7.7112      1.617      2.346    22.8728 0.0000e+00
      1.657      0.038     8.6270     97.496     39.747  38.026381     6.7221      8.707   172.4447 1.3663e+02     7.7097      1.626      2.358    22.8527 0.0000e+00
      1.664      0.037     8.6016     96.684     39.748  38.027006     7.3832      8.707   172.9416 1.3108e+02     7.8364      1.631      2.365    22.8380 0.0000e+00
      1.673      0.034     8.5455     96.065     39.749  38.027745     7.7347      8.707   173.0331 1.2464e+02     7.8766      1.641      2.380    22.8319 0.0000e+00
      1.683      0.032     8.4680     95.681     39.758  38.035313     7.7432      8.707   172.8624 1.1824e+02     7.7863      1.651      2.395    22.8306 0.0000e+00
      1.692      0.031     8.3863     95.538     39.782  38.055053     7.6610      8.707   173.0285 1.1285e+02     7.7352      1.659      2.408    22.8296 0.0000e+00
      1.700      0.032     8.3128     95.608     39.811  38.076035     6.8070      8.706   173.4933 1.0828e+02     7.8393      1.668      2.419    22.8293 0.0000e+00
      1.705      0.036     8.2588     95.788     39.842  38.098629     5.2415      8.704   174.1802 1.0430e+02     8.0206      1.671      2.424    22.8307 0.0000e+00
      1.711      0.041     8.2255     95.927     39.892  38.137858     4.3798      8.702   174.6219 1.0145e+02     8.0816      1.675      2.430    22.8301 0.0000e+00
      1.722      0.046     8.2144     95.887     39.937  38.169588     4.2956      8.700   174.2746 9.9632e+01     8.0301      1.687      2.446    22.8251 0.0000e+00
      1.737      0.051     8.2248     95.616     39.942  38.164981     4.3232      8.699   173.5942 9.8299e+01     8.1506      1.702      2.469    22.8163 0.0000e+00
      1.754      0.053     8.2470     95.135     39.929  38.145589     4.3966      8.697   173.4504 9.7491e+01     8.5141      1.720      2.495    22.8088 0.0000e+00
      1.770      0.052     8.2648     94.470     39.915  38.125487     4.4594      8.695   173.9124 9.6939e+01     8.7697      1.737      2.518    22.7983 0.0000e+00
      1.784      0.047     8.2660     93.690     39.908  38.112288     4.4751      8.694   174.3625 9.6460e+01     8.7820      1.750      2.538    22.7811 0.0000e+00
      1.796      0.040     8.2429     92.921     39.912  38.112903     4.4371      8.694   174.6764 9.6329e+01     8.7995      1.763      2.557    22.7687 0.0000e+00
      1.806      0.033     8.2021     92.260     39.933  38.132932     4.3993      8.694   174.9543 9.6733e+01     8.9123      1.772      2.570    22.7614 0.0000e+00
      1.811      0.028     8.1453     91.770     39.965  38.164079     4.4092      8.694   175.1420 9.7441e+01     8.9842      1.777      2.576    22.7515 0.0000e+00
      1.814      0.028     8.0737     91.499     39.974  38.172224     4.4227      8.693   175.5688 9.8376e+01     9.0197      1.780      2.582    22.7436 0.0000e+00
      1.817      0.032     8.0058     91.410     39.972  38.167944     4.3554      8.693   176.5010 9.9335e+01     9.2049      1.781      2.584    22.7400 0.0000e+00
      1.824      0.038     7.9472     91.425     39.984  38.175792     4.2278      8.692   177.8095 9.9538e+01     9.5157      1.785      2.590    22.7407 0.0000e+00
      1.836      0.046     7.9018     91.487     40.089  38.267107     4.1532      8.690   179.3445 9.8974e+01     9.6696      1.799      2.610    22.7434 0.0000e+00
      1.852      0.053     7.8806     91.559     40.295  38.447065     4.1354      8.688   180.6056 9.8139e+01     9.7332      1.817      2.635    22.7412 0.0000e+00
      1.869      0.057     7.8764     91.574     40.457  38.574810     3.9548      8.687   180.9258 9.6978e+01    10.4209      1.832      2.657    22.7384 0.0000e+00
      1.885      0.055     7.8793     91.345     40.521  38.605927     3.5846      8.687   180.0319 9.5351e+01    11.5974      1.848      2.680    22.7360 0.0000e+00
      1.902      0.049     7.8875     90.656     40.502  38.569417     3.3626      8.687   178.8326 9.3138e+01    12.1732      1.866      2.706    22.7269 0.0000e+00
      1.916      0.041     7.8967     89.326     40.443  38.514103     3.3429      8.686   178.4703 9.0704e+01    12.2245      1.881      2.729    22.7079 0.0000e+00
      1.924      0.033     7.9105     87.373     40.493  38.571713     3.3886      8.684   178.4913 8.8703e+01    12.3194      1.888      2.739    22.6719 0.0000e+00
      1.929      0.027     7.9048     85.243     40.685  38.758317     3.4651      8.684   178.3974 8.7124e+01    12.4669      1.892      2.744    22.6251 0.0000e+00
      1.932      0.022     7.8538     83.470     40.876  38.930030     3.4946      8.685   178.4537 8.5884e+01    12.5390      1.895      2.749    22.5991 0.0000e+00
      1.935      0.019     7.7433     82.272     40.966  38.997928     3.4782      8.685   178.6556 8.4945e+01    12.5087      1.897      2.751    22.6060 0.0000e+00
      1.940      0.019     7.5528     81.452     40.989  39.008110     3.4664      8.686   178.9454 8.4113e+01    12.5440      1.902      2.758    22.6242 0.0000e+00
      1.946      0.020     7.3480     80.564     41.047  39.053121     3.4279      8.687   179.2907 8.3165e+01    12.7612      1.909      2.769    22.6361 0.0000e+00
      1.952      0.020     7.1917     79.449     41.179  39.161376     3.3612      8.687   179.6476 8.1925e+01    13.0164      1.915      2.777    22.6189 0.0000e+00
      1.957      0.021     7.0968     78.316     41.351  39.301630     3.3181      8.686   180.1627 8.0491e+01    13.0684      1.919      2.783    22.5858 0.0000e+00
      1.962      0.021     7.0481     77.304     41.501  39.416226     3.2980      8.686   180.7015 7.9028e+01    13.0482      1.925      2.791    22.5768 0.0000e+00
      1.967      0.021     6.9776     76.354     41.646  39.531540     3.3261      8.686   180.9993 7.7569e+01    13.7283      1.929      2.798    22.5703 0.0000e+00
      1.973      0.021     6.8716     75.326     41.881  39.743925     3.4002      8.686   181.1821 7.6128e+01    15.0400      1.934      2.805    22.5466 0.0000e+00
      1.979      0.020     6.7737     74.156     42.102  39.953356     3.4366      8.685   181.4489 7.4822e+01    15.7912      1.941      2.815    22.5183 0.0000e+00
      1.984      0.019     6.6938     72.941     42.125  39.969511     3.4414      8.685   181.7296 7.3846e+01    15.9110      1.947      2.824    22.4824 0.0000e+00
      1.989      0.018     6.6201     71.611     42.041  39.875781     3.5489      8.685   181.9088 7.3171e+01    16.2833      1.952      2.829    22.4474 0.0000e+00
      1.993      0.016     6.5371     69.832     42.016  39.835456     3.7624      8.686   182.0675 7.2502e+01    17.0471      1.954      2.834    22.4394 0.0000e+00
      1.996      0.013     6.4269     67.499     42.060  39.862700     3.8920      8.686   182.1850 7.1717e+01    17.5287      1.958      2.839    22.4458 0.0000e+00
      2.000      0.011     6.3227     65.118     42.235  40.014785     3.9177      8.685   182.2972 7.0965e+01    17.6311      1.962      2.845    22.4424 0.0000e+00
      2.003      0.010     6.2253     63.358     42.605  40.341564     4.0735      8.685   182.4774 7.0408e+01    18.2169      1.964      2.849    22.4215 0.0000e+00
      2.005      0.008     6.0810     62.370     43.044  40.704013     4.3695      8.684   182.6438 7.0079e+01    19.2827      1.966      2.852    22.3979 0.0000e+00
      2.006      0.007     5.8623     61.952     43.271  40.843050     4.5417      8.684   182.8459 6.9900e+01    19.8598      1.967      2.853    22.3811 0.0000e+00
      2.008      0.006     5.6266     61.779     43.240  40.753246     4.6160      8.686   183.0294 6.9791e+01    20.0718      1.969      2.855    22.3675 0.0000e+00
      2.010      0.006     5.4769     61.479     43.199  40.697021     5.2270      8.687   183.0546 6.9699e+01    21.6064      1.971      2.858    22.3525 0.0000e+00
      2.010      0.007     5.4048     60.874     43.219  40.734403     6.3436      8.686   183.0655 6.9651e+01    24.3411      1.971      2.859    22.2919 0.0000e+00
      2.012      0.007     5.3876     60.010     43.216  40.761002     6.9388      8.686   183.2471 6.9687e+01    25.7746      1.972      2.862    22.1822 0.0000e+00
      2.014      0.007     5.3977     59.070     43.195  40.764805     6.9964      8.685   183.5296 6.9829e+01    25.8892      1.975      2.865    22.0955 0.0000e+00
      2.016      0.007     5.3762     58.238     43.203  40.780416     7.1405      8.684   183.8994 7.0127e+01    26.1025      1.977      2.868    22.0820 0.0000e+00
      2.018      0.007     5.3187     57.599     43.261  40.822842     8.6312      8.685   184.1900 7.0556e+01    28.5590      1.978      2.870    22.1191 0.0000e+00
      2.019      0.007     5.2326     57.228     43.361  40.896967    11.3616      8.685   184.2910 7.0916e+01    33.1140      1.980      2.871    22.1577 0.0000e+00
      2.021      0.006     5.1409     57.157     43.525  41.041959    12.8617      8.685   184.5172 7.1004e+01    35.5732      1.981      2.873    22.1863 0.0000e+00
      2.022      0.006     5.0661     57.267     43.748  41.243142    13.2030      8.685   184.8605 7.0891e+01    36.0894      1.983      2.876    22.2028 0.0000e+00
      2.024      0.005     5.0100     57.362     43.965  41.425455    15.6379      8.685   185.0864 7.0838e+01    39.9359      1.985      2.880    22.1802 0.0000e+00
      2.026      0.005     4.9782     57.277     44.102  41.532644    20.0956      8.685   185.1836 7.1038e+01    46.9309      1.987      2.882    22.1443 0.0000e+00
      2.026      0.004     4.9772     56.874     44.089  41.523643    22.5391      8.684   185.2618 7.1488e+01    50.7758      1.987      2.882    22.1423 0.0000e+00
      2.027      0.004     4.9941     56.099     43.975  41.443561    22.8346      8.684   185.4292 7.1976e+01    51.6500      1.988      2.883    22.1417 0.0000e+00
      2.027      0.003     5.0095     55.036     43.818  41.326036    23.6017      8.683   185.7445 7.2345e+01    57.7732      1.988      2.884    22.1071 0.0000e+00
      2.028      0.003     5.0109     53.850     43.647  41.181636    24.9890      8.683   186.1487 7.2683e+01    69.0292      1.989      2.885    22.0700 0.0000e+00
      2.029      0.004     4.9774     52.707     43.543  41.093927    25.7589      8.683   186.4451 7.3053e+01    75.2575      1.990      2.886    22.0738 0.0000e+00
      2.031      0.004     4.9027     51.791     43.522  41.090632    25.7944      8.685   186.4889 7.3375e+01    76.4438      1.992      2.888    22.1157 0.0000e+00
      2.031      0.004     4.8000     51.311     43.556  41.141814    25.3254      8.685   186.3339 7.3580e+01    83.2356      1.992      2.889    22.1593 0.0000e+00
      2.032      0.004     4.6905     51.362     43.684  41.268531    24.4504      8.684   186.2061 7.3810e+01    95.6171      1.993      2.890    22.1748 0.0000e+00
      2.033      0.005     4.5862     51.861     43.931  41.480368    23.9457      8.683   186.2348 7.4039e+01   102.4557      1.994      2.892    22.1777 0.0000e+00
      2.034      0.005     4.4960     52.539     44.323  41.799076    23.5764      8.682   186.4233 7.4262e+01   103.6819      1.995      2.893    22.1969 0.0000e+00
      2.036      0.006     4.4490     53.086     44.959  42.329331    19.9106      8.683   186.7638 7.4785e+01   109.5889      1.996      2.896    22.2291 0.0000e+00
      2.037      0.006     4.4543     53.269     45.547  42.813955    13.1731      8.683   187.1684 7.5471e+01   120.1779      1.998      2.898    22.2417 0.0000e+00
      2.040      0.005     4.5085     52.864     45.550  42.771288     9.4890      8.683   187.5296 7.6346e+01   125.8871      2.000      2.902    22.2196 0.0000e+00
      2.042      0.004     4.5852     51.786     45.069  42.321164     9.1663      8.683   187.6891 7.7933e+01   126.4569      2.002      2.904    22.1567 0.0000e+00
      2.042      0.003     4.6441     50.170     44.487  41.814505     9.1972      8.683   187.6345 7.9889e+01   127.0331      2.003      2.905    22.0688 0.0000e+00
      2.043      0.001     4.6774     48.430     43.932  41.342100     9.7380      8.682   187.5573 8.0985e+01   132.4096      2.004      2.906    21.9890 0.0000e+00
      2.043      0.000     4.6505     47.238     43.437  40.925241    10.7273      8.682   187.5302 8.0695e+01   142.2401      2.003      2.905    21.9224 0.0000e+00
      2.042     -0.002     4.5510     47.110     43.029  40.582360    11.2873      8.681   187.5652 7.9610e+01   147.4798      2.002      2.904    21.9274 0.0000e+00
      2.041     -0.003     4.3946     48.216     42.713  40.306200    11.7565      8.680   187.7215 7.8362e+01   146.9143      2.002      2.903    21.9914 0.0000e+00
      2.041     -0.005     4.2109     50.545     42.381  39.997890    16.5670      8.680   187.8710 7.7209e+01   135.4364      2.001      2.902    22.0479 0.0000e+00
      2.040     -0.006     4.0858     53.873     41.931  39.583531    25.3712      8.680   187.9970 7.6071e+01   114.2539      2.000      2.901    22.1062 0.0000e+00
      2.038     -0.010     4.0682     57.746     41.388  39.103941    30.1237      8.679   188.1264 7.4787e+01   102.5187      1.998      2.899    22.1611 0.0000e+00
      2.036     -0.017     4.1619     61.748     40.840  38.641510    30.0834      8.679   187.7150 7.3672e+01    99.6812      1.996      2.896    22.1875 0.0000e+00
      2.033     -0.027     4.3701     65.685     40.403  38.307624    24.9919      8.679   187.0674 7.3240e+01    80.6623      1.994      2.892    22.1798 0.0000e+00
      2.029     -0.039     4.6784     69.705     40.161  38.176519    15.5972      8.678   186.7484 7.3702e+01    46.0594      1.991      2.886    22.1829 0.0000e+00
      2.019     -0.049     5.0229     74.090     40.096  38.198703    10.4603      8.677   186.3521 7.5415e+01    27.2329      1.984      2.878    22.2285 0.0000e+00
      2.002     -0.053     5.3730     78.877     40.114  38.258691     9.8575      8.674   186.1484 7.7826e+01    25.9817      1.966      2.852    22.2932 0.0000e+00
      1.978     -0.048     5.6994     83.891     40.182  38.330780     8.3015      8.671   186.4369 7.8721e+01    31.3749      1.939      2.811    22.3897 0.0000e+00
      1.957     -0.034     6.0164     88.671     40.304  38.435752     5.5371      8.666   186.8281 7.7001e+01    41.6814      1.916      2.779    22.5308 0.0000e+00
      1.944     -0.015     6.3852     92.534     40.406  38.512559     4.0495      8.661   187.0935 7.3092e+01    47.4011      1.901      2.757    22.6510 0.0000e+00
      1.945      0.003     6.7950     95.034     40.483  38.561381     3.9231      8.658   187.2361 6.8997e+01    48.1990      1.902      2.757    22.6978 0.0000e+00
      1.961      0.016     7.2405     96.024     40.593  38.645270     3.9184      8.657   187.1762 6.7276e+01    51.3630      1.922      2.788    22.6962 0.0000e+00
      1.980      0.020     7.6821     95.530     40.733  38.765322     3.9421      8.656   187.2295 6.7898e+01    57.1330      1.946      2.822    22.6806 0.0000e+00
      1.990      0.018     8.0322     93.912     40.788  38.807191     3.9598      8.655   187.5358 6.9495e+01    60.3030      1.956      2.837    22.6556 0.0000e+00
      1.989      0.011     8.2539     91.638     40.691  38.707272     3.9582      8.655   187.6113 7.0645e+01    60.6892      1.953      2.834    22.6193 0.0000e+00
      1.982      0.002     8.3500     89.107     40.610  38.635996     3.9469      8.656   187.6257 7.0693e+01    61.2561      1.943      2.819    22.5876 0.0000e+00
      1.976     -0.003     8.2926     86.715     40.673  38.706914     3.9311      8.657   187.7955 7.0215e+01    66.9523      1.935      2.807    22.5808 0.0000e+00
      1.975     -0.004     8.1392     84.800     40.842  38.866715     3.9090      8.657   188.0292 7.0243e+01    77.4006      1.936      2.808    22.5672 0.0000e+00
      1.978     -0.001     7.9371     83.583     41.042  39.045117     3.8883      8.657   188.3006 7.1678e+01    83.1262      1.940      2.814    22.5459 0.0000e+00
      1.981      0.003     7.7005     82.983     41.168  39.150534     3.8881      8.657   188.4956 7.3917e+01    83.8479      1.944      2.820    22.5631 0.0000e+00
      1.982      0.005     7.4821     82.617     41.223  39.189380     3.8405      8.657   188.5803 7.5266e+01    85.8878      1.945      2.821    22.5861 0.0000e+00
      1.981      0.005     7.3077     82.148     41.310  39.260940     3.7285      8.658   188.7224 7.4900e+01    89.5485      1.943      2.817    22.5818 0.0000e+00
      1.981      0.004     7.2068     81.471     41.381  39.317694     3.6577      8.660   189.0099 7.3366e+01    91.4901      1.942      2.816    22.5635 0.0000e+00
      1.983      0.004     7.1734     80.616     41.378  39.304422     3.6338      8.660   189.3028 7.1805e+01    91.5329      1.945      2.821    22.5423 0.0000e+00
      1.987      0.004     7.1554     79.675     41.373  39.290840     3.5396      8.660   189.5108 7.0961e+01    91.0220      1.949      2.827    22.5274 0.0000e+00
      1.988     -0.000     7.1175     78.696     41.305  39.216918     3.3596      8.660   189.3733 7.0529e+01    90.0266      1.950      2.829    22.5150 0.0000e+00
      1.988     -0.015     7.0605     77.737     40.990  38.918308     3.2547      8.659   188.9312 6.9549e+01    89.3013      1.949      2.827    22.5007 0.0000e+00
      1.989     -0.044     6.9836     76.965     40.559  38.536037     3.2447      8.659   188.4675 6.8004e+01    87.8894      1.951      2.829    22.4887 0.0000e+00
      1.988     -0.084     6.9026     76.572     40.294  38.339029     3.2556      8.659   187.8109 6.7129e+01    72.9890      1.954      2.834    22.4785 0.0000e+00
      1.972     -0.130     6.8193     76.749     40.143  38.249758     3.2947      8.659   186.7561 6.7821e+01    45.6780      1.944      2.820    22.4662 0.0000e+00
      1.931     -0.174     6.7317     77.850     39.996  38.154777     3.3267      8.658   185.6096 6.9966e+01    30.7096      1.901      2.758    22.4532 0.0000e+00
      1.867     -0.206     6.6539     80.158     39.869  38.079088     3.3515      8.655   184.8751 7.3010e+01    28.8157      1.833      2.658    22.4847 0.0000e+00
      1.792     -0.222     6.6059     83.429     39.773  38.032697     3.5772      8.653   184.2423 7.6556e+01    23.6334      1.760      2.553    22.5737 0.0000e+00
      1.714     -0.223     6.6008     87.201     39.743  38.038131     3.9921      8.653   183.3786 7.8471e+01    14.4397      1.675      2.430    22.6437 0.0000e+00
      1.652     -0.208     6.6738     91.215     39.768  38.081390     4.2233      8.656   182.6925 7.7643e+01     9.4760      1.607      2.331    22.6895 0.0000e+00
      1.616     -0.180     6.8773     95.219     39.795  38.111565     4.2507      8.659   182.4854 7.6855e+01     9.0158      1.587      2.301    22.7493 0.0000e+00
      1.581     -0.144     7.1705     98.838     39.840  38.149155     4.2563      8.661   182.6804 7.7296e+01     8.9089      1.557      2.258    22.8117 0.0000e+00
      1.539     -0.107     7.4905    101.616     39.924  38.218585     4.3490      8.661   182.9862 7.8597e+01     8.9007      1.504      2.181    22.8579 0.0000e+00
      1.509     -0.074     7.8406    103.216     39.977  38.253002     4.5399      8.660   183.1713 8.1058e+01     8.9515      1.473      2.137    22.8820 0.0000e+00
      1.495     -0.045     8.1957    103.679     39.989  38.247985     4.6575      8.659   183.3689 8.4118e+01     9.0107      1.463      2.123    22.8835 0.0000e+00
      1.494     -0.019     8.5221    103.210     39.973  38.221359     4.6976      8.658   183.6549 8.7010e+01     9.0022      1.461      2.120    22.8738 0.0000e+00
      1.501     -0.003     8.7781    101.964     39.936  38.184874     4.8001      8.658   183.7048 8.9103e+01     8.6430      1.472      2.135    22.8628 0.0000e+00
      1.510     -0.005     8.9142    100.163     39.933  38.187587     4.9647      8.659   183.5416 8.9718e+01     8.0491      1.482      2.151    22.8384 0.0000e+00
      1.518     -0.029     8.9503     98.242     39.929  38.190722     5.0572      8.662   183.4027 8.9587e+01     7.7998      1.489      2.159    22.8138 0.0000e+00
      1.521     -0.065     8.9095     96.681     39.890  38.159337     5.0520      8.666   183.2302 9.0920e+01     7.8828      1.498      2.173    22.7992 0.0000e+00
      1.506     -0.105     8.7978     95.718     39.847  38.125394     4.9191      8.670   182.8324 9.4403e+01     8.1991      1.489      2.159    22.7974 0.0000e+00
      1.463     -0.136     8.6260     95.359     39.810  38.097614     4.6816      8.673   182.2934 9.8697e+01     8.6862      1.441      2.089    22.8105 0.0000e+00
      1.403     -0.150     8.4416     95.514     39.781  38.077298     4.5522      8.673   181.9612 1.0464e+02     8.9208      1.376      1.995    22.8186 0.0000e+00
      1.343     -0.145     8.3006     96.052     39.767  38.070142     4.5535      8.672   181.7406 1.1264e+02     8.9524      1.313      1.905    22.8239 0.0000e+00
      1.296     -0.123     8.2168     96.839     39.767  38.074547     4.7055      8.672   181.4332 1.1908e+02     9.2392      1.261      1.830    22.8336 0.0000e+00
      1.274     -0.091     8.1876     97.738     39.752  38.067104     4.9745      8.673   181.1690 1.2390e+02     9.7244      1.242      1.801    22.8436 0.0000e+00
      1.269     -0.056     8.2031     98.580     39.717  38.043614     5.1012      8.676   180.9552 1.2983e+02     9.9342      1.244      1.804    22.8550 0.0000e+00
      1.268     -0.028     8.2529     99.264     39.707  38.044371     5.0979      8.679   180.7421 1.3704e+02     9.9310      1.244      1.805    22.8612 0.0000e+00
      1.266     -0.009     8.3229     99.860     39.729  38.076277     5.0096      8.680   180.7435 1.4598e+02    10.1304      1.242      1.801    22.8651 0.0000e+00
      1.264      0.001     8.4044    100.435     39.759  38.112127     4.8246      8.680   180.9713 1.5631e+02    10.4999      1.239      1.796    22.8749 0.0000e+00
      1.264      0.006     8.4804    100.972     39.811  38.160562     4.7085      8.680   181.1732 1.6496e+02    10.6754      1.238      1.795    22.8863 0.0000e+00
      1.267      0.007     8.5318    101.483     39.886  38.217694     4.6789      8.681   181.2919 1.7082e+02    10.6460      1.242      1.801    22.9012 0.0000e+00
      1.272      0.006     8.5775    101.898     39.925  38.231771     4.6663      8.682   181.3745 1.7612e+02    10.6234      1.248      1.809    22.9169 0.0000e+00
      1.277      0.004     8.6287    101.997     39.914  38.203811     4.6644      8.683   181.4830 1.8165e+02    10.7434      1.254      1.818    22.9260 0.0000e+00
      1.279      0.002     8.6717    101.591     39.913  38.196894     4.6720      8.683   181.7438 1.8662e+02    11.0037      1.256      1.822    22.9287 0.0000e+00
      1.277      0.000     8.7200    100.728     39.931  38.211584     4.6751      8.681   182.0330 1.9042e+02    11.1400      1.253      1.817    22.9093 0.0000e+00
      1.272     -0.004     8.7707     99.623     39.913  38.191062     4.6686      8.680   181.9681 1.9187e+02    11.1278      1.247      1.808    22.8696 0.0000e+00
      1.268     -0.018     8.7914     98.522     39.862  38.139123     4.6611      8.681   181.5616 1.8900e+02    11.4030      1.242      1.801    22.8451 0.0000e+00
      1.270     -0.048     8.7541     97.604     39.807  38.091250     4.6416      8.682   181.0754 1.8185e+02    11.9738      1.244      1.803    22.8427 0.0000e+00
      1.274     -0.092     8.6720     96.925     39.752  38.056439     4.6326      8.683   180.4770 1.7643e+02    12.2907      1.254      1.818    22.8434 0.0000e+00
      1.264     -0.140     8.5711     96.577     39.709  38.035535     4.6449      8.686   179.7470 1.8125e+02    12.2284      1.255      1.819    22.8367 0.0000e+00
      1.219     -0.188     8.4698     96.747     39.687  38.028900     4.6736      8.689   178.7881 1.9868e+02    11.3579      1.212      1.757    22.8290 0.0000e+00
      1.139     -0.228     8.3919     97.518     39.690  38.039695     4.7377      8.694   177.5735 2.2153e+02     9.8949      1.118      1.621    22.8329 0.0000e+00
      1.051     -0.252     8.3264     98.716     39.686  38.039164     4.8045      8.699   176.5900 2.3953e+02     9.1603      1.022      1.482    22.8596 0.0000e+00
      0.978     -0.249     8.2841    100.023     39.666  38.022481     4.8404      8.701   176.1895 2.5845e+02     9.0685      0.958      1.389    22.8916 0.0000e+00
      0.914     -0.219     8.2921    101.221     39.662  38.028354     5.0214      8.700   176.2587 2.8634e+02     8.7841      0.896      1.300    22.9086 0.0000e+00
      0.855     -0.171     8.3627    102.225     39.667  38.046730     5.3621      8.697   176.3934 3.0300e+02     8.2841      0.831      1.205    22.9167 0.0000e+00
      0.812     -0.120     8.4779    103.065     39.658  38.054323     5.5547      8.696   176.3555 3.0286e+02     8.0451      0.787      1.141    22.9197 0.0000e+00
      0.792     -0.077     8.5956    103.841     39.644  38.056722     5.5860      8.696   176.0589 3.0220e+02     8.1139      0.769      1.116    22.9203 0.0000e+00
      0.791     -0.042     8.6992    104.612     39.654  38.075756     5.5996      8.697   175.3030 3.0493e+02     8.2621      0.773      1.121    22.9316 0.0000e+00
      0.799     -0.018     8.7814    105.403     39.669  38.094106     5.5939      8.697   174.5299 3.3628e+02     8.4371      0.785      1.140    22.9529 0.0000e+00
      0.803     -0.005     8.8449    106.188     39.660  38.088233     5.5750      8.699   174.1963 3.8381e+02     8.4866      0.791      1.148    22.9731 0.0000e+00
      0.801     -0.005     8.9074    106.874     39.643  38.068205     5.5709      8.702   173.7637 3.9116e+02     8.4854      0.787      1.141    22.9946 0.0000e+00
      0.796     -0.016     8.9705    107.410     39.629  38.042314     5.5774      8.706   173.0002 3.7065e+02     8.5599      0.779      1.130    23.0061 0.0000e+00
      0.792     -0.035     9.0376    107.750     39.627  38.028991     5.5124      8.711   172.3638 3.5062e+02     8.7379      0.775      1.124    23.0086 0.0000e+00
      0.790     -0.057     9.1088    107.779     39.637  38.034011     5.3766      8.716   171.8341 3.3098e+02     8.9974      0.777      1.126    23.0155 0.0000e+00
      0.780     -0.078     9.1683    107.419     39.642  38.039551     5.3003      8.720   171.2407 3.2590e+02     9.1359      0.773      1.120    23.0142 0.0000e+00
      0.753     -0.097     9.2183    106.786     39.632  38.032528     5.3051      8.724   170.6966 3.3545e+02     9.1488      0.745      1.079    22.9924 0.0000e+00
      0.713     -0.112     9.2558    106.120     39.611  38.012556     5.3434      8.728   170.0736 3.4147e+02     8.9134      0.697      1.011    22.9724 0.0000e+00
      0.674     -0.120     9.2625    105.562     39.587  37.988442     5.3896      8.732   169.2996 3.5082e+02     8.3741      0.658      0.955    22.9701 0.0000e+00
      0.641     -0.120     9.2272    105.141     39.594  37.994797     5.4056      8.735   168.3942 3.7215e+02     8.0252      0.628      0.911    22.9741 0.0000e+00
      0.612     -0.114     9.1624    104.856     39.624  38.025933     5.4033      8.739   167.2994 4.0933e+02     7.9748      0.599      0.868    22.9765 0.0000e+00
      0.585     -0.107     9.1015    104.699     39.642  38.047625     5.4283      8.742   166.3015 4.2758e+02     8.0033      0.571      0.829    22.9767 0.0000e+00
      0.563     -0.106     9.0541    104.693     39.653  38.066709     5.4749      8.743   165.5358 3.8031e+02     8.0623      0.552      0.801    22.9758 0.0000e+00
      0.542     -0.108     9.0175    104.869     39.642  38.066320     5.4844      8.747   164.8379 3.2121e+02     8.0392      0.535      0.776    22.9741 0.0000e+00
      0.515     -0.110     8.9942    105.197     39.607  38.042944     5.4764      8.751   164.1442 2.9521e+02     7.9636      0.507      0.734    22.9757 0.0000e+00
      0.483     -0.110     8.9786    105.636     39.592  38.037905     5.6446      8.754   163.4283 2.7943e+02     7.8988      0.473      0.687    22.9831 0.0000e+00
      0.448     -0.106     8.9743    106.185     39.619  38.068867     5.9781      8.758   162.7216 2.6437e+02     7.8372      0.439      0.637    22.9928 0.0000e+00
      0.415     -0.096     8.9887    106.816     39.648  38.100034     6.1631      8.761   162.1390 2.5773e+02     7.8668      0.404      0.586    23.0066 0.0000e+00
      0.389     -0.083     9.0159    107.423     39.640  38.097463     6.1668      8.762   161.8046 2.5967e+02     7.8817      0.379      0.549    23.0226 0.0000e+00
      0.373     -0.070     9.0507    107.929     39.640  38.101238     6.1233      8.762   161.6897 2.6350e+02     7.8119      0.363      0.526    23.0342 0.0000e+00
      0.364     -0.060     9.0971    108.362     39.682  38.145688     6.0606      8.762   161.7820 2.6819e+02     7.7753      0.356      0.515    23.0392 0.0000e+00
      0.356     -0.051     9.1549    108.726     39.720  38.190712     6.0410      8.760   161.9740 2.7911e+02     7.7803      0.351      0.508    23.0406 0.0000e+00
      0.344     -0.044     9.2097    108.990     39.714  38.201437     6.0609      8.759   161.9460 2.9478e+02     7.8043      0.340      0.494    23.0484 0.0000e+00
      0.327     -0.038     9.2488    109.221     39.704  38.211920     6.0692      8.760   161.7018 2.9828e+02     7.7926      0.318      0.462    23.0548 0.0000e+00
      0.312     -0.029     9.2852    109.564     39.732  38.254034     6.2079      8.761   161.4307 2.9052e+02     7.5013      0.301      0.437    23.0562 0.0000e+00
      0.307     -0.015     9.3185    110.131     39.797  38.329919     6.4892      8.761   160.9908 2.8873e+02     6.9470      0.300      0.436    23.0638 0.0000e+00
      0.305      0.004     9.3333    110.909     39.882  38.431425     6.6482      8.762   160.4274 2.9661e+02     6.6244      0.298      0.433    23.0881 0.0000e+00
      0.306      0.019     9.3432    111.822     39.886  38.466043     6.6991      8.764   160.0388 3.0975e+02     6.6415      0.295      0.428    23.1190 0.0000e+00
      0.316      0.022     9.3648    112.867     39.750  38.367781     6.9635      8.767   159.6478 3.2318e+02     6.8797      0.307      0.445    23.1372 0.0000e+00
      0.334      0.010     9.4118    114.009     39.622  38.258718     7.4225      8.771   159.1422 3.6744e+02     7.2840      0.329      0.477    23.1485 0.0000e+00
      0.351     -0.015     9.4799    115.130     39.601  38.226177     7.6715      8.774   158.7427 4.4301e+02     7.5678      0.348      0.505    23.1687 0.0000e+00
      0.353     -0.045     9.5479    116.118     39.625  38.228134     7.6686      8.777   159.3777 4.8560e+02     7.6466      0.356      0.517    23.2111 0.0000e+00
      0.332     -0.072     9.6275    116.787     39.632  38.218884     7.3125      8.780   161.1417 5.2565e+02     7.6211      0.335      0.485    23.2664 0.0000e+00
      0.290     -0.092     9.7266    116.961     39.603  38.177769     6.6371      8.781   161.9170 5.9988e+02     7.5335      0.285      0.415    23.2894 0.0000e+00
      0.245     -0.104     9.8285    116.683     39.617  38.175198     6.2517      8.784   161.0940 6.5719e+02     7.4763      0.236      0.342    23.2615 0.0000e+00
      0.213     -0.112     9.9249    116.088     39.707  38.251232     6.2236      8.789   159.7949 6.7155e+02     7.5437      0.201      0.291    23.2273 0.0000e+00
      0.198     -0.117     9.9947    115.248     39.779  38.335593     6.3388      8.793   158.5136 6.1959e+02     7.5964      0.191      0.276    23.2096 0.0000e+00
      0.188     -0.122    10.0079    114.311     39.769  38.370280     6.5208      8.797   157.6472 5.3176e+02     7.4984      0.190      0.277    23.1972 0.0000e+00
      0.164     -0.124     9.9828    113.556     39.700  38.353407     6.6025      8.802   157.1492 5.1655e+02     7.3839      0.171      0.249    23.1733 0.0000e+00
      0.117     -0.122     9.9365    113.163     39.636  38.322037     6.6101      8.807   156.7942 5.9399e+02     7.3057      0.119      0.172    23.1484 0.0000e+00
      0.061     -0.112     9.8591    113.120     39.609  38.308317     6.7293      8.810   156.8824 7.0107e+02     7.1669      0.054      0.078    23.1611 0.0000e+00
      0.019     -0.092     9.7543    113.331     39.614  38.314455     6.9542      8.810   157.1836 7.5030e+02     6.9703      0.009      0.013    23.2337 0.0000e+00
      0.001     -0.070     9.6692    113.665     39.638  38.332796     7.0815      8.811   157.0799 7.1019e+02     6.8763     -0.005     -0.008    23.3127 0.0000e+00
      0.002     -0.060     9.6328    113.988     39.647  38.339698     7.0869      8.813   156.5752 6.7568e+02     6.8836     -0.000     -0.001    23.3433 0.0000e+00
      0.012     -0.073     9.6286    114.199     39.636  38.334447     7.0441      8.817   155.9857 7.4898e+02     6.8875      0.009      0.014    23.3566 0.0000e+00
      0.019     -0.104     9.6512    114.289     39.626  38.332772     6.9721      8.819   155.4578 8.5700e+02     6.9243      0.028      0.041    23.3583 0.0000e+00
     -0.002     -0.139     9.6857    114.334     39.610  38.319455     6.9069      8.822   155.0972 8.8602e+02     6.9521      0.020      0.029    23.3455 0.0000e+00
     -0.069     -0.165     9.7169    114.358     39.602  38.300356     6.8716      8.824   155.0679 9.6762e+02     6.9163     -0.059     -0.086    23.3426 0.0000e+00
     -0.156     -0.173     9.7353    114.332     39.612  38.292198     6.8367      8.824   155.4478 1.1374e+03     6.8668     -0.164     -0.238    23.3491 0.0000e+00
     -0.222     -0.163     9.7350    114.253     39.617  38.284254     6.5687      8.825   156.3344 1.1921e+03     7.0028     -0.230     -0.333    23.3633 0.0000e+00
     -0.257     -0.139     9.7377    114.156     39.605  38.267741     6.0940      8.828   161.1414 1.0547e+03     7.2965     -0.258     -0.374    23.3732 0.0000e+00
     -0.270     -0.119     9.7443    114.018     39.624  38.282901     5.8496      8.832   166.8491 8.9231e+02     7.3781     -0.268     -0.389    23.3543 0.0000e+00
     -0.271     -0.123     9.7483    113.875     39.681  38.340640     5.8694      8.837   165.8925 8.3566e+02     7.3747     -0.265     -0.385    23.3235 0.0000e+00
     -0.276     -0.156     9.7422    113.851     39.720  38.394755     6.2924      8.840   164.2875 8.2767e+02     8.0067     -0.263     -0.382    23.3071 0.0000e+00
     -0.307     -0.202     9.7352    113.779     39.721  38.429562     7.0852      8.843   166.3730 8.3726e+02     9.1440     -0.284     -0.412    23.3052 0.0000e+00
     -0.380     -0.242     9.7272    113.325     39.698  38.444259     7.5316      8.848   168.2223 8.9794e+02     9.7850     -0.361     -0.523    23.3015 0.0000e+00
     -0.482     -0.262     9.7033    112.332     39.677  38.445592     7.5363      8.854   169.5248 9.9420e+02     9.8131     -0.477     -0.691    23.2973 0.0000e+00
     -0.582     -0.254     9.7067    110.826     39.677  38.445713     6.8753      8.861   170.6782 1.0198e+03     9.0055     -0.578     -0.838    23.3177 0.0000e+00
     -0.661     -0.217     9.7043    108.922     39.689  38.445725     5.6324      8.869   171.4130 9.5592e+02     7.5011     -0.659     -0.955    23.3679 0.0000e+00
     -0.707     -0.161     9.6593    106.798     39.704  38.445712     4.9515      8.878   172.0424 8.8256e+02     6.6881     -0.705     -1.023    23.4230 0.0000e+00
     -0.723     -0.102     9.5682    104.726     39.718  38.445547     4.8771      8.884   172.6092 8.3826e+02     6.5879     -0.712     -1.034    23.4528 0.0000e+00
     -0.726     -0.053     9.4362    103.003     39.732  38.443700     4.6412      8.890   173.2769 8.1304e+02     5.9826     -0.711     -1.032    23.4484 0.0000e+00
     -0.726     -0.021     9.2750    102.002     39.728  38.423365     4.1958      8.896   174.2644 7.9088e+02     4.8352     -0.713     -1.034    23.4286 0.0000e+00
     -0.726     -0.005     9.0865    101.908     39.712  38.390024     3.9528      8.902   174.3954 7.7948e+02     4.1927     -0.712     -1.033    23.4095 0.0000e+00
     -0.726     -0.000     8.9066    102.036     39.561  38.230918     3.9177      8.908   170.5596 7.6347e+02     4.1576     -0.712     -1.033    23.3930 0.0000e+00
     -0.726 -3.971e-10     8.7509    101.059     37.581  36.309248     3.7300      8.913   167.3776 7.3826e+02     4.2397     -0.713     -1.034    23.3754 0.0000e+00
     -0.726 -4.368e-09     8.6561     98.428     28.955  27.971849     3.3900      8.917   171.1126 7.1680e+02     4.2622     -0.712     -1.033    23.3510 0.0000e+00
     -0.726 -4.805e-08     8.6713     94.807     15.776  15.238870     3.1937      8.919   174.9366 7.0815e+02     4.1908     -0.712     -1.033    23.3270 0.0000e+00
     -0.726 -4.805e-08     8.7408     91.048      7.719   7.454970     3.1622      8.921   175.4985 7.2603e+02     4.1966     -0.712     -1.033    23.3101 0.0000e+00
     -0.726 -4.369e-09     8.6802     87.600      5.619   5.426765     3.1182      8.924   175.8411 7.6053e+02     4.2639     -0.713     -1.034    23.3004 0.0000e+00
     -0.726 -3.978e-10     8.4229     84.708      5.082   4.908371     2.5030      8.925   175.6366 7.9336e+02     3.9801     -0.712     -1.033    23.2949 0.0000e+00
     -0.726 -4.325e-11     8.0868     82.588      4.837   4.671566     1.3502      8.925   175.5212 8.1970e+02     3.3607     -0.713     -1.034    23.2903 0.0000e+00
     -0.726 -8.197e-11     7.7573     81.402      4.491   4.337408     0.7238      8.926   176.4254 8.4348e+02     3.0257     -0.712     -1.033    23.2870 0.0000e+00
     -0.726 -8.658e-10     7.4571     81.170      4.114   3.972269     0.6648      8.927   177.5345 8.6608e+02     3.0050     -0.713     -1.034    23.2854 0.0000e+00
     -0.726 -9.521e-09     7.2035     81.648      3.809   3.677585     0.4775      8.927   178.2617 8.8068e+02     2.5976     -0.712     -1.033    23.2837 0.0000e+00
     -0.727 -1.047e-07     7.0182     82.424      3.558   3.435052     0.0990      8.926   178.5932 8.7985e+02     1.7209     -0.713     -1.035    23.2818 0.0000e+00
     -0.727 -1.920e-07     6.9148     83.213      3.505   3.383683    -0.1250      8.924   179.0474 8.6169e+02     1.2182     -0.713     -1.034    23.2799 0.0000e+00
     -0.727 -1.047e-07     6.9026     83.907      3.625   3.499910    -0.1413      8.922   180.5705 8.2991e+02     1.1997     -0.713     -1.035    23.2780 0.0000e+00
     -0.727 -8.642e-09     6.9601     84.507      3.636   3.510057    -0.1229      8.922   182.8127 8.1523e+02     1.1895     -0.713     -1.034    23.2763 0.0000e+00
     -0.727 1.3995e-10     7.0340     85.047      3.566   3.443036    -0.1021      8.920   183.5293 8.3856e+02     1.1632     -0.712     -1.033    23.2744 0.0000e+00
     -0.727 1.5395e-09     7.1043     85.506      3.442   3.323033    -0.0816      8.916   182.4378 8.6268e+02     1.2231     -0.713     -1.034    23.2726 0.0000e+00
     -0.726 1.6934e-08     7.1635     85.870      3.248   3.136009    -0.0494      8.910   182.0902 8.7185e+02     1.4008     -0.712     -1.033    23.2710 0.0000e+00
     -0.726 1.8627e-07     7.2125     86.177      3.192   3.082146     0.1373      8.901   183.3706 8.8876e+02     2.5949     -0.712     -1.033    23.2692 0.0000e+00
     -0.726 1.8627e-07     7.2606     86.443      3.227   3.115210     0.4778      8.889   185.7880 9.0949e+02     4.7979     -0.712     -1.033    23.2675 0.0000e+00
     -0.726 1.6934e-08     7.3009     86.649      3.138   3.029009     0.6798      8.876   187.8297 9.1342e+02     6.0722     -0.713     -1.034    23.2659 0.0000e+00
     -0.726 1.5395e-09     7.3301     86.810      3.032   2.926737     0.6996      8.868   189.0425 9.0511e+02     6.1838     -0.712     -1.033    23.2639 0.0000e+00
     -0.726 1.3995e-10     7.3557     86.948      2.996   2.892188     0.6670      8.864   190.7295 8.9610e+02     6.0788     -0.712     -1.033    23.2616 0.0000e+00
     -0.726 1.2723e-11     7.3810     87.058      2.968   2.864670     0.4767      8.861   193.3413 8.8740e+02     5.5208     -0.712     -1.033    23.2590 0.0000e+00
     -0.726 1.1566e-12     7.3976     87.154      2.951   2.847400     0.1556      8.859   196.7025 8.9081e+02     4.5605     -0.712     -1.033    23.2560 0.0000e+00
     -0.726 1.0515e-13     7.4107     87.252      2.912   2.810070    -0.0026      8.858   199.7938 9.1176e+02     4.0670     -0.712     -1.032    23.2526 0.0000e+00
     -0.726 9.5590e-15     7.4239     87.335      2.830   2.730038    -0.0135      8.859   201.5502 9.3627e+02     3.9945     -0.712     -1.033    23.2492 0.0000e+00
     -0.726 8.6900e-16     7.4335     87.409      2.736   2.639882    -0.0338      8.860   202.6241 9.6057e+02     3.9574     -0.712     -1.033    23.2459 0.0000e+00
     -0.726 7.9006e-17     7.4404     87.474      2.636   2.543483    -0.0489      8.860   204.6902 9.8941e+02     3.9936     -0.712     -1.033    23.2429 0.0000e+00
     -0.726 7.2413e-18     7.4511     87.498      2.541   2.451310    -0.0633      8.860   208.7218 1.0126e+03     3.9881     -0.712     -1.033    23.2401 0.0000e+00
     -0.726 1.3058e-18     7.4578     87.497      2.501   2.412253    -0.0741      8.861   211.2754 1.0224e+03     3.9594     -0.712     -1.033    23.2375 0.0000e+00
     -0.726 -9.990e-29     7.4634 -9.990e-29 -9.990e-29 -9.990e-29 -9.990e-29 -9.990e-29 -9.990e-29 1.0235e+03 -9.990e-29     -0.713     -1.034    23.2347 0.0000e+00
     -0.726 -9.990e-29     7.4724 -9.990e-29 -9.990e-29 -9.990e-29 -9.990e-29 -9.990e-29 -9.990e-29 1.0207e+03 -9.990e-29     -0.712     -1.033    23.2321 0.0000e+00
     -0.726 -9.990e-29     7.4732 -9.990e-29 -9.990e-29 -9.990e-29 -9.990e-29 -9.990e-29 -9.990e-29 1.0179e+03 -9.990e-29     -0.712     -1.033    23.2289 0.0000e+00
     -0.726 -9.990e-29     7.4722 -9.990e-29 -9.990e-29 -9.990e-29 -9.990e-29 -9.990e-29 -9.990e-29 1.0170e+03 -9.990e-29     -0.712     -1.033    23.2266 0.0000e+00
