* Sea-Bird SBE19plus  Data File:
* FileName = C:\R\Reservoirs\Data\DataNotYetUploadedToEDI\Raw_CTD\RawDownloads\061024_bvr50_S7809_0004.hex
* Software version 2.8.0.119
* Temperature SN = 7809
* Conductivity SN = 7809
* System UpLoad Time = Jun 11 2024 14:39:12
* <ApplicationData>
* <Seaterm232>
* <SoftwareVersion>2.8.0.119</SoftwareVersion>
* <BuildDate>07-Nov-2018</BuildDate>
* </Seaterm232>
* </ApplicationData>
* <InstrumentState>
* <HardwareData DeviceType='SBE19plus' SerialNumber='01907809'>
*
*    <Manufacturer>Sea-Bird Electronics, Inc.</Manufacturer>
*
*    <FirmwareVersion>3.1.8</FirmwareVersion>
*
*    <FirmwareDate>Mar  9 2016 16:22:29</FirmwareDate>
*
*    <CommandSetVersion>1.4</CommandSetVersion>
*
*    <PCBAssembly PCBSerialNum='120721' AssemblyNum='41054J'/>
*
*    <PCBAssembly PCBSerialNum='120715' AssemblyNum='41967A'/>
*
*    <PCBAssembly PCBSerialNum='116699' AssemblyNum='41606'/>
*
*    <PCBAssembly PCBSerialNum='120719' AssemblyNum='41059D'/>
*
*    <MfgDate>28-Apr-2017</MfgDate>
*
*    <InternalSensors>
*
*       <Sensor id='Main Temperature'>
*
*          <type>temperature0</type>
*
*          <SerialNumber>01907809</SerialNumber>
*
*       </Sensor>
*
*       <Sensor id='Main Conductivity'>
*
*          <type>conductivity-0</type>
*
*          <SerialNumber>01907809</SerialNumber>
*
*       </Sensor>
*
*       <Sensor id='Main Pressure'>
*
*          <type>strain-0</type>
*
*          <SerialNumber>10586018</SerialNumber>
*
*       </Sensor>
*
*    </InternalSensors>
*
*    <ExternalSensors>
*
*       <Sensor id='volt 0'>
*
*          <type>pH</type>
*
*          <SerialNumber>27-0363</SerialNumber>
*
*       </Sensor>
*
*       <Sensor id='volt 1'>
*
*          <type>ORP</type>
*
*          <SerialNumber>27-0363</SerialNumber>
*
*       </Sensor>
*
*       <Sensor id='volt 2'>
*
*          <type>OXY</type>
*
*          <SerialNumber>43-0434</SerialNumber>
*
*       </Sensor>
*
*       <Sensor id='volt 3'>
*
*          <type>PAR</type>
*
*          <SerialNumber>1122</SerialNumber>
*
*       </Sensor>
*
*       <Sensor id='volt 4'>
*
*          <type>ECO AFL/FL</type>
*
*          <SerialNumber>FLNTURT-2496</SerialNumber>
*
*       </Sensor>
*
*       <Sensor id='volt 5'>
*
*          <type>ECO-NTU</type>
*
*          <SerialNumber>FLNTURT-2496</SerialNumber>
*
*       </Sensor>
*
*       <Sensor id='serial'>
*
*          <type>not assigned</type>
*
*          <SerialNumber>not assigned</SerialNumber>
*
*       </Sensor>
*
*    </ExternalSensors>
*
* </HardwareData>
* <StatusData DeviceType='SBE19plus' SerialNumber='01907809'>
*
*    <DateTime>2024-06-11T14:36:37</DateTime>
*
*    <LoggingState>not logging</LoggingState>
*
*    <EventSummary numEvents='0'/>
*
*    <Power>
*
*       <vMain>12.7</vMain>
*
*       <vLith>8.3</vLith>
*
*       <iMain>63.1</iMain>
*
*       <iPump>59.5</iPump>
*
*       <iExt01>20.3</iExt01>
*
*       <iExt2345>38.5</iExt2345>
*
*    </Power>
*
*    <MemorySummary>
*
*       <Bytes>154813</Bytes>
*
*       <Samples>6731</Samples>
*
*       <SamplesFree>2854057</SamplesFree>
*
*       <SampleLength>23</SampleLength>
*
*       <Profiles>6</Profiles>
*
*    </MemorySummary>
*
* </StatusData>
* <ConfigurationData DeviceType='SBE19plus' SerialNumber='01907809'>
*
*    <ProfileMode>
*
*       <ScansToAverage>1</ScansToAverage>
*
*       <MinimumCondFreq>0</MinimumCondFreq>
*
*       <PumpDelay>45</PumpDelay>
*
*       <AutoRun>no</AutoRun>
*
*       <IgnoreSwitch>no</IgnoreSwitch>
*
*    </ProfileMode>
*
*    <Battery>
*
*       <Type>alkaline</Type>
*
*       <CutOff>7.5</CutOff>
*
*    </Battery>
*
*    <DataChannels>
*
*       <ExtVolt0>yes</ExtVolt0>
*
*       <ExtVolt1>yes</ExtVolt1>
*
*       <ExtVolt2>yes</ExtVolt2>
*
*       <ExtVolt3>yes</ExtVolt3>
*
*       <ExtVolt4>yes</ExtVolt4>
*
*       <ExtVolt5>yes</ExtVolt5>
*
*       <SBE38>no</SBE38>
*
*       <WETLABS>no</WETLABS>
*
*       <OPTODE>no</OPTODE>
*
*       <SBE63>no</SBE63>
*
*       <SeaFET>no</SeaFET>
*
*       <GTD>no</GTD>
*
*    </DataChannels>
*
*    <EchoCharacters>yes</EchoCharacters>
*
*    <OutputExecutedTag>yes</OutputExecutedTag>
*
*    <OutputFormat>raw HEX</OutputFormat>
*
* </ConfigurationData>
* <CalibrationCoefficients DeviceType='SBE19plus' SerialNumber='01907809'>
*
*    <Calibration format='TEMP1' id='Main Temperature'>
*
*       <SerialNum>01907809</SerialNum>
*
*       <CalDate>31-Jan-23</CalDate>
*
*       <TA0>1.218232e-03</TA0>
*
*       <TA1>2.815090e-04</TA1>
*
*       <TA2>-1.578887e-06</TA2>
*
*       <TA3>1.972343e-07</TA3>
*
*       <TOFFSET>0.000000e+00</TOFFSET>
*
*    </Calibration>
*
*    <Calibration format='WBCOND0' id='Main Conductivity'>
*
*       <SerialNum>01907809</SerialNum>
*
*       <CalDate>31-Jan-23</CalDate>
*
*       <G>-1.005652e+00</G>
*
*       <H>1.267963e-01</H>
*
*       <I>-1.561708e-04</I>
*
*       <J>2.645944e-05</J>
*
*       <CPCOR>-9.570000e-08</CPCOR>
*
*       <CTCOR>3.250000e-06</CTCOR>
*
*       <CSLOPE>1.000000e+00</CSLOPE>
*
*    </Calibration>
*
*    <Calibration format='STRAIN0' id='Main Pressure'>
*
*       <SerialNum>10586018</SerialNum>
*
*       <CalDate>20-Jan-23</CalDate>
*
*       <PA0>4.416439e-02</PA0>
*
*       <PA1>4.850502e-04</PA1>
*
*       <PA2>-3.090426e-12</PA2>
*
*       <PTCA0>5.254757e+05</PTCA0>
*
*       <PTCA1>1.050255e+01</PTCA1>
*
*       <PTCA2>-2.922435e-01</PTCA2>
*
*       <PTCB0>2.516687e+01</PTCB0>
*
*       <PTCB1>3.750000e-04</PTCB1>
*
*       <PTCB2>0.000000e+00</PTCB2>
*
*       <PTEMPA0>-5.470820e+01</PTEMPA0>
*
*       <PTEMPA1>5.485421e+01</PTEMPA1>
*
*       <PTEMPA2>-3.446578e-01</PTEMPA2>
*
*       <POFFSET>8.500000e-01</POFFSET>
*
*       <PRANGE>1.600000e+02</PRANGE>
*
*    </Calibration>
*
*    <Calibration format='VOLT0' id='Volt 0'>
*
*       <OFFSET>-4.920000e-02</OFFSET>
*
*       <SLOPE>1.248122e+00</SLOPE>
*
*    </Calibration>
*
*    <Calibration format='VOLT0' id='Volt 1'>
*
*       <OFFSET>-4.784000e-02</OFFSET>
*
*       <SLOPE>1.248871e+00</SLOPE>
*
*    </Calibration>
*
*    <Calibration format='VOLT0' id='Volt 2'>
*
*       <OFFSET>-4.864632e-02</OFFSET>
*
*       <SLOPE>1.248714e+00</SLOPE>
*
*    </Calibration>
*
*    <Calibration format='VOLT0' id='Volt 3'>
*
*       <OFFSET>-4.743790e-02</OFFSET>
*
*       <SLOPE>1.248571e+00</SLOPE>
*
*    </Calibration>
*
*    <Calibration format='VOLT0' id='Volt 4'>
*
*       <OFFSET>-4.671263e-02</OFFSET>
*
*       <SLOPE>1.248951e+00</SLOPE>
*
*    </Calibration>
*
*    <Calibration format='VOLT0' id='Volt 5'>
*
*       <OFFSET>-4.871053e-02</OFFSET>
*
*       <SLOPE>1.249136e+00</SLOPE>
*
*    </Calibration>
*
*    <Calibration format='FREQ0' id='external frequency channel'>
*
*       <EXTFREQSF>1.000014e+00</EXTFREQSF>
*
*    </Calibration>
*
* </CalibrationCoefficients>
* <EventCounters DeviceType='SBE19plus' SerialNumber='01907809'>
*
*    <EventSummary numEvents='0'/>
*
* </EventCounters></InstrumentState>
* <Headers>
*
* cast   4 10 Jun 2024 13:18:04 samples 4091 to 4725, avg = 1, stop = mag switch
*
# nquan = 15
# nvalues = 635                         
# units = specified
# name 0 = depFM: Depth [fresh water, m]
# name 1 = dz/dtM: Descent Rate [m/s]
# name 2 = sbeox0Mg/L: Oxygen, SBE 43 [mg/l]
# name 3 = sbeox0PS: Oxygen, SBE 43 [% saturation]
# name 4 = specc: Specific Conductance [uS/cm]
# name 5 = c0uS/cm: Conductivity [uS/cm]
# name 6 = flECO-AFL: Fluorescence, WET Labs ECO-AFL/FL [mg/m^3]
# name 7 = ph: pH
# name 8 = orp: Oxidation Reduction Potential [mV]
# name 9 = par/sat/log: PAR/Logarithmic, Satlantic
# name 10 = turbWETntu0: Turbidity, WET Labs ECO [NTU]
# name 11 = prdM: Pressure, Strain Gauge [db]
# name 12 = prdE: Pressure, Strain Gauge [psi]
# name 13 = tv290C: Temperature [ITS-90, deg C]
# name 14 = flag:  0.000e+00
# span 0 =     -0.731,      2.912       
# span 1 =     -0.373,      0.208       
# span 2 =     0.1214,    10.5780       
# span 3 =      1.287,    123.623       
# span 4 =      1.146,     49.085       
# span 5 =   1.044060,  41.173876       
# span 6 =    -0.0844,   115.1551       
# span 7 =     -2.215,      9.085       
# span 8 =   111.1596,   951.1261       
# span 9 = 1.2094e+01, 8.4198e+02       
# span 10 =     0.7148,   156.2826      
# span 11 =     -0.718,      2.856      
# span 12 =     -1.041,      4.142      
# span 13 =    16.2113,    23.9884      
# span 14 = 0.0000e+00, 0.0000e+00      
# interval = seconds: 0.25
# start_time = Jun 10 2024 13:18:04 [Instrument's time stamp, header]
# bad_flag = -9.990e-29
# <Sensors count="9" >
#   <sensor Channel="1" >
#     <!-- Count, Temperature -->
#     <TemperatureSensor SensorID="58" >
#       <SerialNumber>7809</SerialNumber>
#       <CalibrationDate>31-Jan-23</CalibrationDate>
#       <A0>1.21823180e-003</A0>
#       <A1>2.81508993e-004</A1>
#       <A2>-1.57888696e-006</A2>
#       <A3>1.97234302e-007</A3>
#       <Slope>1.00000000</Slope>
#       <Offset>0.0000</Offset>
#     </TemperatureSensor>
#   </sensor>
#   <sensor Channel="2" >
#     <!-- Frequency 0, Conductivity -->
#     <ConductivitySensor SensorID="3" >
#       <SerialNumber>7809</SerialNumber>
#       <CalibrationDate>31-Jan-23</CalibrationDate>
#       <UseG_J>1</UseG_J>
#       <!-- Cell const and series R are applicable only for wide range sensors. -->
#       <SeriesR>0.0000</SeriesR>
#       <CellConst>2000.0000</CellConst>
#       <ConductivityType>0</ConductivityType>
#       <Coefficients equation="0" >
#         <A>0.00000000e+000</A>
#         <B>0.00000000e+000</B>
#         <C>0.00000000e+000</C>
#         <D>0.00000000e+000</D>
#         <M>0.0</M>
#         <CPcor>-9.57000000e-008</CPcor>
#       </Coefficients>
#       <Coefficients equation="1" >
#         <G>-1.00565232e+000</G>
#         <H>1.26796307e-001</H>
#         <I>-1.56170788e-004</I>
#         <J>2.64594368e-005</J>
#         <CPcor>-9.57000000e-008</CPcor>
#         <CTcor>3.2500e-006</CTcor>
#         <!-- WBOTC not applicable unless ConductivityType = 1. -->
#         <WBOTC>0.00000000e+000</WBOTC>
#       </Coefficients>
#       <Slope>1.00000000</Slope>
#       <Offset>0.00000</Offset>
#     </ConductivitySensor>
#   </sensor>
#   <sensor Channel="3" >
#     <!-- Count, Pressure, Strain Gauge -->
#     <PressureSensor SensorID="46" >
#       <SerialNumber>7809</SerialNumber>
#       <CalibrationDate>20-Jan-23</CalibrationDate>
#       <PA0>4.41643944e-002</PA0>
#       <PA1>4.85050239e-004</PA1>
#       <PA2>-3.09042623e-012</PA2>
#       <PTEMPA0>-5.47081996e+001</PTEMPA0>
#       <PTEMPA1>5.48542136e+001</PTEMPA1>
#       <PTEMPA2>-3.44657813e-001</PTEMPA2>
#       <PTCA0>5.25475731e+005</PTCA0>
#       <PTCA1>1.05025484e+001</PTCA1>
#       <PTCA2>-2.92243463e-001</PTCA2>
#       <PTCB0>2.51668750e+001</PTCB0>
#       <PTCB1>3.75000000e-004</PTCB1>
#       <PTCB2>0.00000000e+000</PTCB2>
#       <Offset>0.000000</Offset>
#     </PressureSensor>
#   </sensor>
#   <sensor Channel="4" >
#     <!-- A/D voltage 0, Oxygen, SBE 43 -->
#     <OxygenSensor SensorID="38" >
#       <SerialNumber>0434</SerialNumber>
#       <CalibrationDate>18-Feb-23</CalibrationDate>
#       <Use2007Equation>1</Use2007Equation>
#       <CalibrationCoefficients equation="0" >
#         <!-- Coefficients for Owens-Millard equation. -->
#         <Boc>0.0000</Boc>
#         <Soc>0.0000e+000</Soc>
#         <offset>0.0000</offset>
#         <Pcor>0.00e+000</Pcor>
#         <Tcor>0.0000</Tcor>
#         <Tau>0.0</Tau>
#       </CalibrationCoefficients>
#       <CalibrationCoefficients equation="1" >
#         <!-- Coefficients for Sea-Bird equation - SBE calibration in 2007 and later. -->
#         <Soc>5.1878e-001</Soc>
#         <offset>-0.5046</offset>
#         <A>-4.2788e-003</A>
#         <B> 1.5372e-004</B>
#         <C>-2.1853e-006</C>
#         <D0> 2.5826e+000</D0>
#         <D1> 1.92634e-004</D1>
#         <D2>-4.64803e-002</D2>
#         <E> 3.6000e-002</E>
#         <Tau20> 0.9900</Tau20>
#         <H1>-3.3000e-002</H1>
#         <H2> 5.0000e+003</H2>
#         <H3> 1.4500e+003</H3>
#       </CalibrationCoefficients>
#     </OxygenSensor>
#   </sensor>
#   <sensor Channel="5" >
#     <!-- A/D voltage 1, PAR/Logarithmic, Satlantic -->
#     <PARLog_SatlanticSensor SensorID="76" >
#       <SerialNumber>1122</SerialNumber>
#       <CalibrationDate>08-Sep-2021</CalibrationDate>
#       <a0>9.6751e-001</a0>
#       <a1>8.0992e-001</a1>
#       <Im>1.3589e+000</Im>
#       <Multiplier>1.0000e+000</Multiplier>
#     </PARLog_SatlanticSensor>
#   </sensor>
#   <sensor Channel="6" >
#     <!-- A/D voltage 2, pH -->
#     <pH_Sensor SensorID="43" >
#       <SerialNumber>0363</SerialNumber>
#       <CalibrationDate>28-Feb-23</CalibrationDate>
#       <Slope>4.7364</Slope>
#       <Offset>2.5433</Offset>
#     </pH_Sensor>
#   </sensor>
#   <sensor Channel="7" >
#     <!-- A/D voltage 3, Oxidation Reduction Potential -->
#     <OxidationReductionPotentialSensor SensorID="41" >
#       <SerialNumber>0363</SerialNumber>
#       <CalibrationDate>28-Feb-23</CalibrationDate>
#       <B>2.499480</B>
#       <M>-0.496195</M>
#       <Offset>0.0</Offset>
#     </OxidationReductionPotentialSensor>
#   </sensor>
#   <sensor Channel="8" >
#     <!-- A/D voltage 4, Fluorometer, WET Labs ECO-AFL/FL -->
#     <FluoroWetlabECO_AFL_FL_Sensor SensorID="20" >
#       <SerialNumber>FLNTURT-2496</SerialNumber>
#       <CalibrationDate>02-Sep-2021</CalibrationDate>
#       <ScaleFactor>4.80000000e+001</ScaleFactor>
#       <!-- Dark output -->
#       <Vblank>0.0550</Vblank>
#     </FluoroWetlabECO_AFL_FL_Sensor>
#   </sensor>
#   <sensor Channel="9" >
#     <!-- A/D voltage 5, Turbidity Meter, WET Labs, ECO-NTU -->
#     <TurbidityMeter SensorID="67" >
#       <SerialNumber>FLNTURT--2496</SerialNumber>
#       <CalibrationDate>02-Sep-2021</CalibrationDate>
#       <ScaleFactor>197.000000</ScaleFactor>
#       <!-- Dark output -->
#       <DarkVoltage>0.070000</DarkVoltage>
#     </TurbidityMeter>
#   </sensor>
# </Sensors>
# datcnv_date = Jun 11 2024 14:45:00, 7.26.7.129 [datcnv_vars = 14]
# datcnv_in = C:\R\Reservoirs\Data\DataNotYetUploadedToEDI\Raw_CTD\RawDownloads\061024_fcr20_S7809004.hex C:\R\Reservoirs\Data\DataNotYetUploadedToEDI\Raw_CTD\RawDownloads\SBE19plusV2_7809_start20230701.xmlcon
# datcnv_skipover = 0
# datcnv_ox_hysteresis_correction = yes
# datcnv_ox_tau_correction = yes
# filter_date = Jun 11 2024 14:47:07, 7.26.7.129
# filter_in = C:\R\Reservoirs\Data\DataNotYetUploadedToEDI\Raw_CTD\RawDownloads\061024_fcr20_S7809004.cnv
# filter_low_pass_tc_A = 0.030
# filter_low_pass_tc_B = 0.150
# filter_low_pass_A_vars = sbeox0Mg/L prdM prdE tv290C
# filter_low_pass_B_vars = depFM dz/dtM sbeox0PS specc c0uS/cm flECO-AFL ph orp par/sat/log turbWETntu0
# alignctd_date = Jun 11 2024 14:47:48, 7.26.7.129
# alignctd_in = C:\R\Reservoirs\Data\DataNotYetUploadedToEDI\Raw_CTD\RawDownloads\061024_fcr20_S7809004.cnv
# alignctd_adv = dz/dtM 1.000, sbeox0PS 1.000, specc 1.000, c0uS/cm 1.000, flECO-AFL 1.000, ph 1.000, orp 1.000, turbWETntu0 1.000                                                                                                   
# file_type = ascii
*END*
     -0.731      0.000     8.4021     93.442      1.146   1.044060     0.2953     -2.215   871.8613 8.4098e+02     3.6842     -0.717     -1.040    20.5438 0.0000e+00
     -0.731      0.000     8.3997     93.435      1.181   1.075571     0.2696     -2.214   872.4318 8.4198e+02     3.6986     -0.717     -1.040    20.5417 0.0000e+00
     -0.730      0.000     8.3995     93.416      1.311   1.195099     0.2936     -2.208   879.0658 8.3323e+02     5.1574     -0.716     -1.039    20.5422 0.0000e+00
     -0.730      0.004     8.4054     93.391      1.889   1.729174     0.5281     -2.141   951.1261 8.2086e+02     7.8984     -0.716     -1.039    20.5386 0.0000e+00
     -0.731      0.016     8.4059     93.391      6.714   6.202867     0.9236     -1.404   905.6844 8.1063e+02     9.3748     -0.717     -1.040    20.5422 0.0000e+00
     -0.731      0.039     8.4052     93.394     19.470  18.153902     1.1310      0.776   546.7113 8.0239e+02     9.4123     -0.717     -1.039    20.5335 0.0000e+00
     -0.729      0.072     8.4041     93.380     32.993  31.054589     1.1865      3.712   215.6858 7.9499e+02     9.3089     -0.718     -1.041    20.5445 0.0000e+00
     -0.716      0.110     8.4010     93.411     38.742  36.830160     1.7788      5.989   123.4746 7.8640e+02     8.3292     -0.712     -1.032    20.5237 0.0000e+00
     -0.681      0.149     8.3911     93.586     39.357  37.753303     2.8744      7.317   113.3968 7.7884e+02     6.3797     -0.675     -0.979    20.5992 0.0000e+00
     -0.626      0.182     8.2998     93.927     39.245  37.901886     3.4714      8.076   111.5600 7.7129e+02     5.2437     -0.616     -0.893    21.1685 0.0000e+00
     -0.563      0.202     8.1689     94.267     38.951  37.802101     3.5456      8.511   111.1596 7.6219e+02     5.1143     -0.552     -0.801    21.9539 0.0000e+00
     -0.499      0.208     8.0758     94.550     38.578  37.562344     3.7556      8.741   111.7398 7.5419e+02     5.0884     -0.487     -0.706    22.5597 0.0000e+00
     -0.440      0.203     8.0177     94.855     38.417  37.477928     4.1371      8.854   112.8105 7.4496e+02     5.0330     -0.426     -0.619    22.9983 0.0000e+00
     -0.393      0.193     8.0110     95.203     38.450  37.543004     4.3457      8.907   113.7805 7.3041e+02     4.9580     -0.383     -0.556    23.3125 0.0000e+00
     -0.354      0.182     8.0050     95.608     38.494  37.587769     4.3722      8.928   114.6062 7.1491e+02     4.8982     -0.346     -0.501    23.5500 0.0000e+00
     -0.316      0.167     7.9996     96.027     38.560  37.638441     4.4412      8.934   115.3947 6.9742e+02     4.8903     -0.312     -0.453    23.7017 0.0000e+00
     -0.271      0.146     8.0159     96.396     38.649  37.711466     4.5553      8.934   116.0005 6.2558e+02     4.9307     -0.271     -0.394    23.7879 0.0000e+00
     -0.219      0.119     8.0352     96.705     38.718  37.772683     4.6201      8.931   116.5101 5.2539e+02     4.9771     -0.210     -0.303    23.8302 0.0000e+00
     -0.180      0.088     8.0735     96.935     38.746  37.807505     4.6162      8.926   116.9959 4.9471e+02     4.9733     -0.167     -0.242    23.8241 0.0000e+00
     -0.164      0.056     8.1149     97.030     38.673  37.751770     4.5505      8.922   117.4867 4.9634e+02     4.9185     -0.155     -0.224    23.7989 0.0000e+00
     -0.166      0.026     8.1493     96.991     38.513  37.606463     4.4495      8.917   118.1422 4.7362e+02     4.8954     -0.158     -0.229    23.7772 0.0000e+00
     -0.177      0.004     8.1766     96.903     38.410  37.510096     4.4026      8.912   118.8986 4.7807e+02     4.9330     -0.174     -0.253    23.7662 0.0000e+00
     -0.187     -0.006     8.1972     96.821     38.437  37.538432     4.4083      8.907   119.4916 5.4197e+02     4.9632     -0.187     -0.270    23.7789 0.0000e+00
     -0.190     -0.007     8.2017     96.756     38.532  37.631805     4.4013      8.904   119.8913 5.8408e+02     4.9538     -0.189     -0.274    23.8062 0.0000e+00
     -0.186     -0.005     8.1910     96.663     38.588  37.687239     4.3176      8.900   120.2033 5.7130e+02     4.9211     -0.184     -0.267    23.8225 0.0000e+00
     -0.180     -0.005     8.1832     96.517     38.601  37.701036     4.1796      8.896   120.5104 5.6795e+02     4.8754     -0.176     -0.255    23.8237 0.0000e+00
     -0.176     -0.008     8.1746     96.356     38.633  37.735181     4.1144      8.891   120.9384 5.8279e+02     4.8792     -0.170     -0.246    23.8249 0.0000e+00
     -0.180     -0.013     8.1712     96.202     38.677  37.782802     4.1196      8.885   121.4195 5.8251e+02     4.9335     -0.173     -0.252    23.8262 0.0000e+00
     -0.190     -0.017     8.1649     96.045     38.720  37.832640     4.1016      8.880   121.8537 5.7064e+02     4.9502     -0.186     -0.270    23.8277 0.0000e+00
     -0.200     -0.019     8.1495     95.860     38.774  37.893590     4.0621      8.877   122.9192 5.6532e+02     4.9445     -0.198     -0.286    23.8293 0.0000e+00
     -0.207     -0.016     8.1357     95.687     38.823  37.948659     4.0590      8.876   124.0642 5.6711e+02     4.9670     -0.205     -0.297    23.8296 0.0000e+00
     -0.209     -0.010     8.1219     95.607     38.859  37.990830     4.0805      8.873   123.9959 5.7346e+02     4.9840     -0.207     -0.300    23.8368 0.0000e+00
     -0.209     -0.004     8.1076     95.647     38.884  38.022755     4.0982      8.869   123.7277 5.7893e+02     4.9791     -0.205     -0.298    23.8495 0.0000e+00
     -0.207      0.001     8.0909     95.953     38.869  38.017381     4.1142      8.867   123.9184 5.7967e+02     4.9756     -0.202     -0.294    23.8604 0.0000e+00
     -0.205      0.004     8.0685     96.537     38.830  37.989330     4.1163      8.866   124.1516 5.7764e+02     4.9425     -0.200     -0.291    23.8681 0.0000e+00
     -0.204      0.005     8.0646     96.883     38.831  38.000886     4.1231      8.864   124.3958 5.7264e+02     4.9196     -0.200     -0.290    23.8756 0.0000e+00
     -0.203      0.005     8.0607     96.617     38.851  38.030212     4.1132      8.863   124.6338 5.6638e+02     4.9724     -0.199     -0.289    23.8865 0.0000e+00
     -0.201      0.004     8.0748     95.863     38.838  38.026640     4.0637      8.862   124.9649 5.6411e+02     5.0340     -0.198     -0.286    23.8986 0.0000e+00
     -0.200      0.003     8.1485     94.742     38.826  38.021174     4.0232      8.861   125.3010 5.6481e+02     5.0156     -0.196     -0.284    23.9111 0.0000e+00
     -0.200      0.002     8.1902     93.261     38.827  38.027585     4.0071      8.861   125.5144 5.6541e+02     4.9552     -0.196     -0.284    23.9250 0.0000e+00
     -0.200      0.001     8.1530     91.497     38.837  38.040700     4.0104      8.861   125.7380 5.6604e+02     4.9527     -0.196     -0.284    23.9385 0.0000e+00
     -0.200      0.000     8.0860     89.609     38.846  38.052840     4.0216      8.861   126.0257 5.6577e+02     4.9515     -0.196     -0.284    23.9509 0.0000e+00
     -0.200 1.6952e-08     7.9917     87.786     38.837  38.047460     4.0260      8.861   126.3252 5.6433e+02     4.9409     -0.196     -0.284    23.9600 0.0000e+00
     -0.200 1.8647e-07     7.8638     86.350     38.827  38.039107     4.0211      8.861   126.6066 5.6288e+02     4.9606     -0.197     -0.285    23.9649 0.0000e+00
     -0.200 -2.028e-07     7.7089     85.620     38.801  38.015317     4.0046      8.861   126.8473 5.6295e+02     4.9508     -0.196     -0.285    23.9693 0.0000e+00
     -0.199      0.000     7.5450     85.559     38.736  37.950184     4.0428      8.862   127.0845 5.6463e+02     4.9593     -0.195     -0.283    23.9738 0.0000e+00
     -0.199      0.000     7.3824     85.900     38.675  37.886147     4.1423      8.863   127.3238 5.6402e+02     4.9940     -0.195     -0.283    23.9774 0.0000e+00
     -0.200     -0.001     7.2452     86.429     38.668  37.875606     4.1909      8.863   127.5895 5.6162e+02     4.9951     -0.196     -0.284    23.9800 0.0000e+00
     -0.200     -0.002     7.1882     86.999     38.681  37.886176     4.1816      8.863   127.8025 5.6034e+02     4.9729     -0.197     -0.286    23.9817 0.0000e+00
     -0.200     -0.004     7.1934     87.500     38.681  37.887034     4.1712      8.862   127.9202 5.5993e+02     4.9313     -0.196     -0.284    23.9808 0.0000e+00
     -0.201     -0.005     7.2279     87.810     38.681  37.885979     4.1738      8.862   128.0657 5.6106e+02     4.9349     -0.197     -0.285    23.9751 0.0000e+00
     -0.203     -0.006     7.2783     87.795     38.674  37.873418     4.1876      8.863   128.2714 5.6270e+02     4.9820     -0.200     -0.289    23.9686 0.0000e+00
     -0.205     -0.007     7.3288     87.352     38.670  37.862063     4.1963      8.864   128.5142 5.6361e+02     4.9885     -0.202     -0.292    23.9660 0.0000e+00
     -0.207     -0.007     7.3749     86.518     38.688  37.875594     4.1471      8.865   128.7645 5.6401e+02     4.9457     -0.203     -0.294    23.9679 0.0000e+00
     -0.210     -0.006     7.4044     85.472     38.723  37.910102     4.0506      8.864   129.0608 5.6431e+02     4.8746     -0.205     -0.298    23.9692 0.0000e+00
     -0.212     -0.004     7.4084     84.382     38.773  37.962014     4.0103      8.863   129.4298 5.6495e+02     4.8805     -0.208     -0.302    23.9608 0.0000e+00
     -0.213     -0.002     7.3728     83.393     38.804  37.995620     4.0179      8.864   129.6115 5.6539e+02     4.9478     -0.210     -0.304    23.9474 0.0000e+00
     -0.212     -0.001     7.2952     82.588     38.806  37.999147     4.0094      8.865   129.6237 5.6541e+02     4.9375     -0.209     -0.303    23.9416 0.0000e+00
     -0.211      0.001     7.2028     81.918     38.810  38.004667     3.9906      8.865   129.8352 5.6468e+02     4.8929     -0.207     -0.299    23.9440 0.0000e+00
     -0.211      0.003     7.1063     81.382     38.804  37.998914     3.9825      8.864   130.1036 5.6292e+02     4.8861     -0.206     -0.298    23.9487 0.0000e+00
     -0.211      0.005     7.0177     81.124     38.797  37.993039     3.9946      8.862   130.2877 5.6131e+02     4.9241     -0.207     -0.300    23.9528 0.0000e+00
     -0.211      0.008     6.9539     81.254     38.800  37.997087     3.9788      8.861   130.5122 5.6073e+02     4.9421     -0.208     -0.301    23.9552 0.0000e+00
     -0.209      0.011     6.8986     81.753     38.787  37.984406     3.9161      8.861   130.7530 5.6008e+02     4.8644     -0.206     -0.298    23.9559 0.0000e+00
     -0.205      0.013     6.8466     82.531     38.769  37.966620     3.8770      8.861   130.9620 5.5849e+02     4.8051     -0.202     -0.292    23.9569 0.0000e+00
     -0.199      0.015     6.8209     83.476     38.775  37.972401     3.8728      8.860   131.1470 5.5686e+02     4.8393     -0.196     -0.284    23.9584 0.0000e+00
     -0.194      0.015     6.8331     84.456     38.793  37.990860     3.8902      8.859   131.4414 5.6376e+02     4.9030     -0.190     -0.275    23.9595 0.0000e+00
     -0.190      0.014     6.8782     85.423     38.800  37.999436     3.9300      8.859   131.7671 5.6628e+02     4.9261     -0.185     -0.269    23.9599 0.0000e+00
     -0.186      0.011     6.9461     86.327     38.812  38.012636     3.9458      8.859   131.9876 5.5175e+02     4.9127     -0.182     -0.264    23.9597 0.0000e+00
     -0.184      0.008     7.0314     87.017     38.822  38.023559     3.9397      8.858   132.2160 5.5359e+02     4.9805     -0.181     -0.262    23.9596 0.0000e+00
     -0.183      0.004     7.1146     87.447     38.802  38.004590     3.9387      8.858   132.3768 5.5918e+02     5.0293     -0.180     -0.261    23.9604 0.0000e+00
     -0.182     -0.001     7.1943     87.708     38.770  37.973659     3.9507      8.858   132.3837 5.3029e+02     4.9557     -0.179     -0.259    23.9629 0.0000e+00
     -0.182     -0.005     7.2788     87.905     38.762  37.966845     3.9860      8.857   132.4707 5.2414e+02     4.9105     -0.178     -0.258    23.9655 0.0000e+00
     -0.183     -0.008     7.3374     88.116     38.780  37.985662     4.0072      8.857   132.6551 5.6018e+02     4.8920     -0.178     -0.259    23.9669 0.0000e+00
     -0.187     -0.009     7.3690     88.332     38.804  38.010815     3.9990      8.856   132.8922 5.6762e+02     4.9039     -0.183     -0.265    23.9671 0.0000e+00
     -0.192     -0.009     7.3893     88.463     38.809  38.017137     4.0026      8.856   133.1866 5.5377e+02     4.9851     -0.188     -0.275    23.9662 0.0000e+00
     -0.196     -0.007     7.4018     88.437     38.790  37.998650     4.0341      8.856   133.3753 5.5473e+02     5.0200     -0.194     -0.282    23.9670 0.0000e+00
     -0.198     -0.004     7.4199     88.244     38.771  37.977657     4.0641      8.856   133.5382 5.5807e+02     4.9844     -0.196     -0.284    23.9699 0.0000e+00
     -0.197     -0.002     7.4412     87.924     38.752  37.953682     4.0745      8.856   133.7798 5.5658e+02     4.9314     -0.194     -0.282    23.9733 0.0000e+00
     -0.196     -0.001     7.4543     87.562     38.766  37.962580     4.1595      8.856   134.0594 5.4763e+02     4.9258     -0.193     -0.279    23.9754 0.0000e+00
     -0.194     -0.003     7.4522     87.272     38.828  38.021776     4.3250      8.854   134.3369 5.3754e+02     4.9838     -0.189     -0.274    23.9759 0.0000e+00
     -0.193     -0.007     7.4349     87.115     38.841  38.034851     4.4113      8.852   134.5552 5.3867e+02     5.0180     -0.188     -0.272    23.9741 0.0000e+00
     -0.196     -0.013     7.4070     87.021     38.802  37.993770     4.4217      8.851   134.6341 5.4280e+02     4.9640     -0.191     -0.277    23.9646 0.0000e+00
     -0.202     -0.018     7.3736     86.826     38.784  37.969252     4.4092      8.850   134.6882 5.4381e+02     4.8769     -0.198     -0.287    23.9541 0.0000e+00
     -0.208     -0.022     7.3467     86.394     38.749  37.928769     4.3765      8.849   134.8652 5.4640e+02     4.8865     -0.204     -0.295    23.9547 0.0000e+00
     -0.215     -0.022     7.3352     85.728     38.643  37.821557     4.3670      8.849   135.0532 5.4964e+02     4.9782     -0.209     -0.303    23.9594 0.0000e+00
     -0.224     -0.019     7.3336     84.911     38.506  37.688243     4.3692      8.850   135.1540 5.5270e+02     5.0294     -0.220     -0.318    23.9557 0.0000e+00
     -0.231     -0.015     7.3242     84.003     38.399  37.585990     4.3613      8.850   135.2240 5.5492e+02     4.9932     -0.228     -0.331    23.9424 0.0000e+00
     -0.232     -0.012     7.2883     83.015     38.353  37.537062     4.3464      8.850   135.4694 5.5435e+02     4.9168     -0.227     -0.331    23.9327 0.0000e+00
     -0.232     -0.007     7.2286     81.989     38.376  37.540838     4.3390      8.849   135.9704 5.5151e+02     4.8913     -0.225     -0.327    23.9314 0.0000e+00
     -0.232     -0.002     7.1587     81.062     38.429  37.568155     4.3472      8.848   136.5496 5.4790e+02     4.9233     -0.227     -0.328    23.9290 0.0000e+00
     -0.233      0.002     7.0805     80.337     38.490  37.613497     4.3456      8.845   136.9659 5.4456e+02     4.9287     -0.229     -0.331    23.9372 0.0000e+00
     -0.233      0.005     6.9978     79.841     38.529  37.644859     4.3031      8.841   137.2180 5.4260e+02     4.8882     -0.230     -0.333    23.9416 0.0000e+00
     -0.231      0.007     6.9091     79.531     38.517  37.630065     4.2486      8.839   137.4463 5.4347e+02     4.8770     -0.227     -0.330    23.9072 0.0000e+00
     -0.228      0.008     6.8331     79.283     38.515  37.624995     4.2362      8.839   137.5757 5.4489e+02     4.9309     -0.223     -0.324    23.8674 0.0000e+00
     -0.223      0.010     6.7741     79.055     38.538  37.647001     4.2445      8.838   137.5772 5.4336e+02     4.9934     -0.219     -0.317    23.8517 0.0000e+00
     -0.220      0.012     6.7320     78.876     38.532  37.642317     4.2406      8.837   137.5512 5.4111e+02     4.9833     -0.214     -0.311    23.8466 0.0000e+00
     -0.219      0.015     6.7134     78.726     38.454  37.568362     4.2308      8.838   137.6055 5.3885e+02     4.9112     -0.215     -0.312    23.8432 0.0000e+00
     -0.218      0.020     6.6934     78.543     38.334  37.450818     4.2261      8.839   137.8038 5.3415e+02     4.8727     -0.216     -0.313    23.8383 0.0000e+00
     -0.214      0.024     6.6721     78.250     38.248  37.363292     4.2338      8.840   138.0553 5.3156e+02     4.9277     -0.211     -0.306    23.8353 0.0000e+00
     -0.204      0.025     6.6577     77.797     38.230  37.334997     4.2568      8.840   138.2381 5.2518e+02     4.9954     -0.202     -0.293    23.8401 0.0000e+00
     -0.193      0.022     6.6465     77.248     38.279  37.362508     4.2800      8.841   138.3791 5.1839e+02     4.9744     -0.188     -0.273    23.8452 0.0000e+00
     -0.183      0.016     6.6331     76.704     38.381  37.442068     4.2896      8.842   138.5558 5.2282e+02     4.9115     -0.177     -0.257    23.8421 0.0000e+00
     -0.178      0.008     6.6120     76.268     38.485  37.535468     4.2892      8.844   138.6534 5.2025e+02     4.8844     -0.172     -0.249    23.8410 0.0000e+00
     -0.179      0.001     6.5715     76.151     38.487  37.539977     4.3008      8.846   138.6994 5.2063e+02     4.9200     -0.173     -0.251    23.8325 0.0000e+00
     -0.187     -0.004     6.5251     76.423     38.372  37.433129     4.3384      8.848   138.7669 5.3621e+02     4.9666     -0.183     -0.265    23.7980 0.0000e+00
     -0.194     -0.006     6.4840     76.863     38.251  37.322319     4.3612      8.849   138.7811 5.5133e+02     4.9359     -0.193     -0.279    23.7626 0.0000e+00
     -0.195     -0.003     6.4385     77.264     38.203  37.278917     4.3516      8.851   138.8720 5.6908e+02     4.8565     -0.193     -0.280    23.7545 0.0000e+00
     -0.193      0.004     6.4226     77.559     38.230  37.289091     4.3546      8.851   138.9194 5.8998e+02     4.8608     -0.188     -0.273    23.7636 0.0000e+00
     -0.189      0.013     6.4566     77.719     38.294  37.318394     4.3899      8.852   138.7518 5.9323e+02     4.9533     -0.186     -0.270    23.7699 0.0000e+00
     -0.186      0.024     6.4989     77.729     38.383  37.379358     4.4196      8.853   138.5665 5.6051e+02     5.0184     -0.183     -0.266    23.7793 0.0000e+00
     -0.182      0.037     6.5304     77.609     38.468  37.455073     4.4228      8.852   138.4857 5.0915e+02     4.9986     -0.179     -0.261    23.7980 0.0000e+00
     -0.174      0.052     6.5600     77.497     38.479  37.472385     4.4203      8.852   138.4629 4.6130e+02     4.9185     -0.173     -0.250    23.7752 0.0000e+00
     -0.160      0.068     6.5805     77.559     38.454  37.461782     4.4403      8.851   138.4630 4.2374e+02     4.8696     -0.158     -0.229    23.7139 0.0000e+00
     -0.139      0.083     6.5872     77.761     38.428  37.453800     4.4807      8.849   138.5733 3.9589e+02     4.9204     -0.140     -0.203    23.6782 0.0000e+00
     -0.111      0.096     6.5730     77.932     38.393  37.439352     4.5097      8.847   138.8502 3.7589e+02     5.0207     -0.109     -0.159    23.6718 0.0000e+00
     -0.081      0.106     6.5542     78.006     38.411  37.477488     4.5243      8.846   139.2288 3.6217e+02     5.0232     -0.077     -0.113    23.6838 0.0000e+00
     -0.053      0.112     6.5591     78.018     38.446  37.534207     4.6154      8.845   139.6235 3.4657e+02     4.9498     -0.053     -0.077    23.7018 0.0000e+00
     -0.025      0.113     6.5814     78.057     38.446  37.554076     4.7954      8.846   139.9229 3.3317e+02     4.9528     -0.023     -0.035    23.7249 0.0000e+00
      0.005      0.108     6.5933     78.188     38.466  37.590837     4.9037      8.846   140.0954 3.1902e+02     4.9922      0.004      0.004    23.7526 0.0000e+00
      0.035      0.100     6.5947     78.318     38.522  37.661431     4.9337      8.846   140.3334 2.9989e+02     5.0160      0.034      0.048    23.7786 0.0000e+00
      0.064      0.091     6.5900     78.338     38.556  37.709648     5.1166      8.846   140.6487 2.8546e+02     5.0360      0.066      0.096    23.8094 0.0000e+00
      0.087      0.081     6.5847     78.258     38.566  37.729650     5.4419      8.846   140.9830 2.7896e+02     5.0625      0.088      0.126    23.8369 0.0000e+00
      0.102      0.072     6.5989     78.126     38.540  37.712921     5.6210      8.845   141.3641 2.7558e+02     5.1325      0.099      0.144    23.8560 0.0000e+00
      0.116      0.064     6.6120     77.984     38.450  37.634308     5.6434      8.844   141.6426 2.7144e+02     5.1981      0.114      0.165    23.8770 0.0000e+00
      0.129      0.059     6.6084     77.779     38.410  37.604066     5.5785      8.844   142.1990 2.6797e+02     5.2406      0.128      0.185    23.8990 0.0000e+00
      0.143      0.059     6.6002     77.452     38.464  37.664558     5.4356      8.844   143.1874 2.6502e+02     5.2367      0.138      0.200    23.9103 0.0000e+00
      0.160      0.065     6.5843     77.141     38.461  37.667715     5.3554      8.844   143.9579 2.6442e+02     5.1854      0.158      0.230    23.9206 0.0000e+00
      0.174      0.073     6.5732     77.086     38.366  37.578793     5.3748      8.845   144.3727 2.6843e+02     5.2014      0.173      0.252    23.9342 0.0000e+00
      0.187      0.081     6.5592     77.344     38.256  37.477787     5.5535      8.846   144.6752 2.6932e+02     5.2248      0.178      0.258    23.9440 0.0000e+00
      0.209      0.084     6.5247     77.692     38.177  37.398291     5.8597      8.848   144.9479 2.6293e+02     5.1948      0.201      0.291    23.9576 0.0000e+00
      0.241      0.082     6.4884     77.975     38.182  37.379063     6.0224      8.851   145.2609 2.5476e+02     5.1799      0.238      0.345    23.9648 0.0000e+00
      0.271      0.077     6.4797     78.361     38.280  37.435629     6.0315      8.855   145.7064 2.4651e+02     5.1477      0.269      0.389    23.9668 0.0000e+00
      0.293      0.068     6.5108     79.162     38.387  37.511079     6.0360      8.857   146.2040 2.3965e+02     5.1136      0.292      0.423    23.9783 0.0000e+00
      0.305      0.057     6.5458     80.467     38.415  37.529820     6.0689      8.858   146.6322 2.3550e+02     5.1084      0.301      0.437    23.9884 0.0000e+00
      0.310      0.046     6.5669     82.028     38.351  37.471849     6.1298      8.860   147.0121 2.3212e+02     5.1533      0.304      0.442    23.9546 0.0000e+00
      0.315      0.039     6.5955     83.393     38.248  37.381253     6.1646      8.861   147.2687 2.2875e+02     5.2125      0.306      0.445    23.8832 0.0000e+00
      0.324      0.034     6.6652     84.188     38.181  37.322812     6.1808      8.862   147.4126 2.2451e+02     5.1750      0.316      0.459    23.8424 0.0000e+00
      0.337      0.030     6.7846     84.370     38.197  37.336343     6.4421      8.864   147.6327 2.2061e+02     5.1789      0.331      0.481    23.8365 0.0000e+00
      0.348      0.027     6.9296     84.120     38.293  37.417934     6.9353      8.866   147.8656 2.1905e+02     5.2594      0.341      0.495    23.8463 0.0000e+00
      0.355      0.024     7.0576     83.685     38.374  37.484409     7.2004      8.869   147.8183 2.1986e+02     5.2599      0.350      0.509    23.8616 0.0000e+00
      0.357      0.020     7.1217     83.297     38.336  37.442067     7.2009      8.873   147.4057 2.2206e+02     5.2191      0.353      0.512    23.8742 0.0000e+00
      0.357      0.014     7.1302     82.985     38.240  37.350151     7.1247      8.877   146.8347 2.2331e+02     5.2104      0.347      0.504    23.8762 0.0000e+00
      0.360      0.008     7.1061     82.645     38.212  37.324873     7.0197      8.880   146.7650 2.2254e+02     5.2227      0.350      0.509    23.8521 0.0000e+00
      0.368      0.007     7.0624     82.249     38.286  37.390263     6.9711      8.883   147.2508 2.2014e+02     5.1968      0.364      0.527    23.8294 0.0000e+00
      0.370      0.012     7.0305     81.855     38.350  37.442772     6.9533      8.885   147.2019 2.1957e+02     5.1371      0.366      0.530    23.8239 0.0000e+00
      0.365      0.022     7.0092     81.557     38.295  37.388639     6.8551      8.887   146.6042 2.2189e+02     5.1836      0.356      0.518    23.8302 0.0000e+00
      0.362      0.034     6.9790     81.368     38.204  37.306836     6.6911      8.888   146.3909 2.2217e+02     5.3486      0.350      0.508    23.8394 0.0000e+00
      0.371      0.048     6.9454     81.111     38.169  37.278614     6.6096      8.891   146.6023 2.1861e+02     5.4596      0.357      0.518    23.8270 0.0000e+00
      0.391      0.064     6.9118     80.628     38.194  37.301239     6.6270      8.894   146.8372 2.1344e+02     5.4659      0.383      0.556    23.8070 0.0000e+00
      0.416      0.079     6.8837     80.037     38.228  37.326565     6.7188      8.897   146.9946 2.0807e+02     5.4591      0.409      0.593    23.8062 0.0000e+00
      0.440      0.093     6.8736     79.612     38.240  37.331003     6.8617      8.901   146.8698 2.0222e+02     5.5139      0.431      0.626    23.8214 0.0000e+00
      0.463      0.104     6.8580     79.556     38.269  37.354887     6.9393      8.905   146.4473 1.9657e+02     5.6155      0.454      0.659    23.8339 0.0000e+00
      0.488      0.114     6.8119     79.872     38.279  37.361517     6.9587      8.909   146.1874 1.9125e+02     5.7314      0.476      0.689    23.8289 0.0000e+00
      0.517      0.122     6.7550     80.414     38.199  37.284253     6.9961      8.912   146.0500 1.8527e+02     5.7884      0.507      0.736    23.8135 0.0000e+00
      0.550      0.126     6.7125     80.973     38.104  37.182149     7.3420      8.917   145.8187 1.7868e+02     5.7917      0.538      0.780    23.8050 0.0000e+00
      0.587      0.122     6.7095     81.345     38.094  37.142231     7.9942      8.922   145.5417 1.7143e+02     5.8400      0.571      0.828    23.7993 0.0000e+00
      0.628      0.108     6.7418     81.466     38.182  37.182284     8.3569      8.927   145.2827 1.6504e+02     5.8946      0.620      0.898    23.7945 0.0000e+00
      0.663      0.088     6.7932     81.488     38.327  37.285635     8.3974      8.931   145.1820 1.6118e+02     5.9052      0.657      0.953    23.7982 0.0000e+00
      0.683      0.064     6.8476     81.634     38.434  37.376516     8.5514      8.935   145.1846 1.5917e+02     5.8313      0.672      0.976    23.7981 0.0000e+00
      0.690      0.041     6.8875     81.988     38.445  37.392749     8.8366      8.939   145.1428 1.5875e+02     5.7182      0.680      0.986    23.7566 0.0000e+00
      0.689      0.024     6.9017     82.397     38.391  37.355008     8.9996      8.944   145.0202 1.5920e+02     5.6993      0.678      0.982    23.6785 0.0000e+00
      0.685      0.014     6.9024     82.619     38.318  37.300938     9.0077      8.947   144.9068 1.5912e+02     5.7048      0.670      0.971    23.6228 0.0000e+00
      0.686      0.013     6.9134     82.548     38.245  37.246651     8.8761      8.949   144.9755 1.5880e+02     5.6831      0.671      0.972    23.6097 0.0000e+00
      0.691      0.016     6.9468     82.133     38.201  37.206282     8.6397      8.952   145.1632 1.5840e+02     5.6763      0.677      0.982    23.6225 0.0000e+00
      0.698      0.018     6.9894     81.361     38.206  37.193573     8.5050      8.956   145.2841 1.5789e+02     5.6218      0.684      0.992    23.6449 0.0000e+00
      0.707      0.018     7.0057     80.300     38.256  37.219870     8.5045      8.959   145.4049 1.5735e+02     5.6056      0.694      1.007    23.6659 0.0000e+00
      0.714      0.017     6.9982     79.075     38.319  37.270384     8.6755      8.962   145.5044 1.5695e+02     5.6848      0.701      1.019    23.6939 0.0000e+00
      0.716      0.014     6.9624     77.898     38.350  37.296689     8.9747      8.965   145.4546 1.5706e+02     5.7249      0.703      1.021    23.7076 0.0000e+00
      0.716      0.013     6.8986     77.000     38.343  37.284103     9.1336      8.969   145.4914 1.5671e+02     5.6819      0.702      1.018    23.6707 0.0000e+00
      0.716      0.013     6.8116     76.455     38.309  37.245106     9.1483      8.973   145.8632 1.5521e+02     5.6079      0.700      1.016    23.6308 0.0000e+00
      0.720      0.015     6.7014     76.134     38.272  37.205892     9.1853      8.976   146.3367 1.5361e+02     5.5814      0.705      1.022    23.6246 0.0000e+00
      0.725      0.018     6.5935     75.887     38.258  37.190688     9.2657      8.979   146.5699 1.5231e+02     5.6014      0.712      1.032    23.6237 0.0000e+00
      0.731      0.021     6.5155     75.618     38.258  37.188186     9.3208      8.983   146.7037 1.5101e+02     5.6440      0.717      1.039    23.6138 0.0000e+00
      0.738      0.022     6.4768     75.287     38.248  37.175626     9.3353      8.986   146.7503 1.4959e+02     5.6870      0.724      1.048    23.6033 0.0000e+00
      0.745      0.021     6.4546     74.921     38.238  37.165731     9.3338      8.989   146.7035 1.4840e+02     5.6770      0.731      1.059    23.6009 0.0000e+00
      0.750      0.020     6.4359     74.543     38.268  37.195465     9.3852      8.992   146.7390 1.4789e+02     5.6945      0.736      1.067    23.6002 0.0000e+00
      0.754      0.018     6.4162     74.184     38.487  37.408221     9.4993      8.996   146.6641 1.4748e+02     5.7610      0.739      1.073    23.5959 0.0000e+00
      0.759      0.018     6.3856     74.107     38.929  37.834511     9.5478      8.998   146.3999 1.4706e+02     5.7298      0.744      1.079    23.5920 0.0000e+00
      0.763      0.018     6.3555     75.317     39.289  38.161651     9.5215      9.001   146.2115 1.4691e+02     5.6243      0.748      1.086    23.5900 0.0000e+00
      0.765      0.020     6.3217     79.174     39.431  38.254292     9.3060      9.004   146.3652 1.4663e+02     5.5456      0.751      1.089    23.5926 0.0000e+00
      0.769      0.022     6.2896     85.851     39.483  38.256534     8.9156      9.006   146.7952 1.4611e+02     5.4955      0.754      1.094    23.5925 0.0000e+00
      0.775      0.023     6.2552     94.124     39.514  38.252149     8.7126      9.007   147.5395 1.4511e+02     5.4958      0.759      1.100    23.5953 0.0000e+00
      0.784      0.022     6.2989    102.587     39.549  38.264679     8.6997      9.008   148.3094 1.4346e+02     5.4811      0.768      1.115    23.5747 0.0000e+00
      0.794      0.020     6.6311    110.304     39.579  38.281094     8.8096      9.008   148.5327 1.4206e+02     5.4204      0.781      1.133    23.5011 0.0000e+00
      0.800      0.019     7.2574    116.586     39.563  38.260219     9.0345      9.008   148.5184 1.4152e+02     5.3770      0.786      1.140    23.4325 0.0000e+00
      0.800      0.020     8.0129    120.926     39.506  38.202646     9.1715      9.007   148.5668 1.4152e+02     5.4007      0.785      1.139    23.3912 0.0000e+00
      0.800      0.023     8.7610    123.201     39.464  38.156101     9.2266      9.007   148.6878 1.4132e+02     5.5014      0.784      1.137    23.3650 0.0000e+00
      0.802      0.026     9.4396    123.623     39.459  38.141633     9.4101      9.008   148.9495 1.4005e+02     5.5359      0.783      1.136    23.3522 0.0000e+00
      0.812      0.030     9.9961    122.755     39.481  38.154617     9.7079      9.009   149.0634 1.3782e+02     5.4426      0.794      1.151    23.3464 0.0000e+00
      0.826      0.031    10.3654    121.295     39.519  38.186163     9.8630      9.011   148.9460 1.3599e+02     5.3640      0.812      1.178    23.3462 0.0000e+00
      0.839      0.028    10.5571    119.709     39.540  38.205766     9.8715      9.013   148.8211 1.3501e+02     5.4043      0.825      1.197    23.3390 0.0000e+00
      0.848      0.022    10.5780    118.237     39.535  38.201259     9.7028      9.015   148.7575 1.3456e+02     5.4860      0.833      1.208    23.3234 0.0000e+00
      0.852      0.015    10.4804    117.022     39.528  38.195132     9.3541      9.016   148.6930 1.3485e+02     5.4635      0.838      1.215    23.3121 0.0000e+00
      0.850      0.007    10.3455    116.108     39.527  38.195142     9.1519      9.019   148.5577 1.3526e+02     5.3718      0.834      1.210    23.3075 0.0000e+00
      0.847      0.002    10.2043    115.449     39.531  38.201384     9.1468      9.023   148.4981 1.3505e+02     5.3330      0.828      1.202    23.3053 0.0000e+00
      0.848      0.002    10.0738    114.979     39.534  38.207149     9.3179      9.026   148.4881 1.3481e+02     5.3707      0.831      1.205    23.3070 0.0000e+00
      0.849      0.004     9.9685    114.680     39.525  38.201384     9.6232      9.029   148.3510 1.3491e+02     5.4178      0.833      1.207    23.3092 0.0000e+00
      0.850      0.005     9.8925    114.526     39.516  38.195141     9.7751      9.032   148.3032 1.3462e+02     5.4247      0.831      1.205    23.3089 0.0000e+00
      0.853      0.005     9.8388    114.443     39.509  38.195129     9.7726      9.034   148.3407 1.3386e+02     5.4192      0.835      1.211    23.3118 0.0000e+00
      0.857      0.005     9.7970    114.360     39.506  38.201244     9.7596      9.036   148.2891 1.3338e+02     5.4203      0.842      1.221    23.3177 0.0000e+00
      0.858      0.006     9.7718    114.278     39.503  38.205635     9.6509      9.037   148.2805 1.3339e+02     5.4376      0.844      1.223    23.3194 0.0000e+00
      0.855      0.011     9.7610    114.230     39.478  38.184772     9.4559      9.037   148.4087 1.3328e+02     5.4586      0.839      1.216    23.3208 0.0000e+00
      0.853      0.021     9.7549    114.210     39.436  38.139371     9.3417      9.035   148.6347 1.3281e+02     5.4348      0.834      1.210    23.3311 0.0000e+00
      0.857      0.034     9.7452    114.182     39.409  38.100884     9.3196      9.032   148.8626 1.3187e+02     5.3888      0.838      1.217    23.3444 0.0000e+00
      0.866      0.044     9.7343    114.120     39.423  38.100157     9.4046      9.031   149.0123 1.2975e+02     5.4146      0.848      1.230    23.3532 0.0000e+00
      0.884      0.048     9.7299    114.015     39.464  38.130561     9.5790      9.032   148.9827 1.2610e+02     5.4730      0.861      1.249    23.3597 0.0000e+00
      0.909      0.044     9.7300    113.880     39.488  38.151193     9.6720      9.033   148.8485 1.2270e+02     5.4798      0.894      1.296    23.3555 0.0000e+00
      0.930      0.034     9.7323    113.745     39.494  38.159242     9.6809      9.034   148.8519 1.2170e+02     5.4629      0.920      1.333    23.3363 0.0000e+00
      0.935      0.023     9.7312    113.630     39.494  38.164433     9.8105      9.037   148.9383 1.2255e+02     5.4402      0.919      1.334    23.3135 0.0000e+00
      0.929      0.013     9.7246    113.568     39.478  38.150503    10.0830      9.040   148.9466 1.2380e+02     5.4437      0.912      1.322    23.3011 0.0000e+00
      0.922      0.008     9.7114    113.588     39.447  38.117728    10.2529      9.042   148.9529 1.2460e+02     5.4717      0.903      1.308    23.3003 0.0000e+00
      0.918      0.010     9.6995    113.659     39.422  38.085428    10.2745      9.042   149.0141 1.2469e+02     5.5050      0.897      1.301    23.3039 0.0000e+00
      0.923      0.018     9.6870    113.721     39.423  38.077248    10.1783      9.043   149.0840 1.2405e+02     5.5050      0.903      1.310    23.3114 0.0000e+00
      0.933      0.026     9.6792    113.701     39.437  38.082259     9.9888      9.045   149.1952 1.2260e+02     5.4379      0.914      1.326    23.3166 0.0000e+00
      0.947      0.032     9.6834    113.576     39.442  38.082550     9.8889      9.049   149.3271 1.2107e+02     5.4104      0.927      1.346    23.3116 0.0000e+00
      0.959      0.037     9.6930    113.399     39.443  38.080762     9.8864      9.051   149.4739 1.2007e+02     5.4109      0.943      1.367    23.3007 0.0000e+00
      0.965      0.045     9.7033    113.209     39.424  38.060627     9.7334      9.051   149.6798 1.1929e+02     5.4105      0.947      1.374    23.2871 0.0000e+00
      0.970      0.055     9.7052    113.009     39.394  38.029477     9.4050      9.051   149.9235 1.1816e+02     5.4740      0.949      1.376    23.2751 0.0000e+00
      0.979      0.069     9.6928    112.822     39.393  38.021407     9.2035      9.050   150.1838 1.1618e+02     5.5637      0.957      1.387    23.2705 0.0000e+00
      0.996      0.083     9.6768    112.662     39.408  38.026494     9.1859      9.050   150.3314 1.1290e+02     5.6414      0.972      1.409    23.2666 0.0000e+00
      1.026      0.096     9.6620    112.517     39.420  38.027516     9.1830      9.050   150.4179 1.0885e+02     5.6615      1.005      1.457    23.2656 0.0000e+00
      1.061      0.104     9.6433    112.350     39.438  38.033748     8.8940      9.052   150.5413 1.0512e+02     5.6365      1.042      1.511    23.2655 0.0000e+00
      1.095      0.105     9.6287    112.119     39.457  38.038369     8.3301      9.054   150.6180 1.0227e+02     5.6121      1.075      1.560    23.2552 0.0000e+00
      1.122      0.099     9.6183    111.824     39.450  38.019917     8.0077      9.056   150.7434 1.0010e+02     5.6052      1.103      1.599    23.2401 0.0000e+00
      1.144      0.089     9.6092    111.523     39.436  38.000994     7.9674      9.057   150.8531 9.8047e+01     5.6555      1.121      1.625    23.2287 0.0000e+00
      1.164      0.078     9.5988    111.258     39.436  37.999935     7.8760      9.058   150.9981 9.6288e+01     5.7076      1.142      1.658    23.2164 0.0000e+00
      1.181      0.067     9.5829    111.006     39.443  38.007111     7.7020      9.058   151.3783 9.4842e+01     5.7241      1.160      1.682    23.1961 0.0000e+00
      1.197      0.057     9.5590    110.791     39.461  38.024298     7.6032      9.059   151.5778 9.3272e+01     5.7174      1.172      1.700    23.1785 0.0000e+00
      1.213      0.050     9.5310    110.682     39.453  38.017373     7.5717      9.061   151.6043 9.1968e+01     5.6944      1.192      1.729    23.1741 0.0000e+00
      1.225      0.046     9.5113    110.663     39.423  37.986845     7.4464      9.062   151.9561 9.1405e+01     5.6512      1.203      1.745    23.1743 0.0000e+00
      1.231      0.045     9.4893    110.683     39.414  37.972467     7.2284      9.062   152.3903 9.1053e+01     5.5367      1.205      1.748    23.1733 0.0000e+00
      1.237      0.046     9.4661    110.698     39.421  37.970424     7.0923      9.063   152.6382 9.0278e+01     5.4033      1.211      1.756    23.1743 0.0000e+00
      1.249      0.049     9.4589    110.665     39.421  37.962127     7.0491      9.064   152.9750 8.8935e+01     5.3711      1.223      1.774    23.1766 0.0000e+00
      1.266      0.057     9.4585    110.555     39.400  37.935595     6.8474      9.064   153.4510 8.7575e+01     5.4887      1.242      1.802    23.1756 0.0000e+00
      1.282      0.067     9.4632    110.355     39.371  37.903455     6.4919      9.064   153.7468 8.6660e+01     5.6634      1.260      1.827    23.1670 0.0000e+00
      1.296      0.073     9.4682    110.075     39.362  37.890790     6.3053      9.065   153.7983 8.5540e+01     5.7077      1.269      1.840    23.1535 0.0000e+00
      1.315      0.074     9.4682    109.760     39.385  37.909374     6.2639      9.066   153.8155 8.3716e+01     5.6145      1.285      1.865    23.1427 0.0000e+00
      1.342      0.070     9.4607    109.500     39.416  37.937774     6.0824      9.068   153.9548 8.1728e+01     5.5606      1.316      1.909    23.1359 0.0000e+00
      1.367      0.067     9.4435    109.327     39.396  37.916880     5.7929      9.069   154.1916 8.0444e+01     5.6027      1.344      1.949    23.1313 0.0000e+00
      1.382      0.066     9.4203    109.236     39.327  37.847122     5.6594      9.070   154.3563 7.9868e+01     5.6455      1.358      1.969    23.1264 0.0000e+00
      1.390      0.066     9.3897    109.212     39.278  37.792351     5.6664      9.072   154.4829 7.9314e+01     5.6338      1.364      1.978    23.1208 0.0000e+00
      1.399      0.066     9.3677    109.189     39.257  37.762271     5.6544      9.072   154.6902 7.8325e+01     5.5985      1.369      1.985    23.1171 0.0000e+00
      1.414      0.070     9.3540    109.091     39.242  37.737241     5.5885      9.073   154.8843 7.6774e+01     5.5603      1.384      2.007    23.1173 0.0000e+00
      1.438      0.073     9.3452    108.881     39.257  37.743526     5.4941      9.073   154.9367 7.4931e+01     5.5136      1.410      2.045    23.1161 0.0000e+00
      1.463      0.073     9.3486    108.592     39.297  37.774795     5.4449      9.074   154.8073 7.3193e+01     5.4774      1.435      2.082    23.1051 0.0000e+00
      1.487      0.064     9.3513    108.301     39.325  37.798014     5.4351      9.075   154.6111 7.1747e+01     5.4302      1.460      2.117    23.0896 0.0000e+00
      1.507      0.049     9.3468    108.054     39.357  37.833891     5.3673      9.076   154.6286 7.0680e+01     5.3869      1.481      2.148    23.0769 0.0000e+00
      1.518      0.029     9.3297    107.894     39.405  37.891319     5.2497      9.076   154.8462 7.0212e+01     5.4326      1.493      2.165    23.0663 0.0000e+00
      1.520      0.013     9.3032    107.882     39.424  37.921283     5.1946      9.076   154.9198 7.0415e+01     5.5038      1.493      2.166    23.0554 0.0000e+00
      1.514      0.006     9.2788    108.028     39.374  37.878914     5.1921      9.076   154.9158 7.0870e+01     5.4965      1.486      2.156    23.0494 0.0000e+00
      1.507      0.009     9.2558    108.325     39.317  37.823237     5.1698      9.077   155.0571 7.1186e+01     5.4463      1.477      2.142    23.0554 0.0000e+00
      1.502      0.019     9.2358    108.696     39.319  37.819206     5.1336      9.077   155.2513 7.1192e+01     5.4096      1.470      2.132    23.0718 0.0000e+00
      1.506      0.031     9.2327    109.001     39.338  37.830171     5.1286      9.076   155.3708 7.0315e+01     5.4288      1.471      2.133    23.0905 0.0000e+00
      1.524      0.040     9.2428    109.195     39.340  37.828888     5.1507      9.075   155.2965 6.8579e+01     5.4731      1.491      2.162    23.1004 0.0000e+00
      1.548      0.044     9.2698    109.288     39.315  37.803682     5.2013      9.075   155.1280 6.7244e+01     5.4666      1.523      2.210    23.0977 0.0000e+00
      1.566      0.039     9.3114    109.273     39.290  37.779232     5.2736      9.076   155.0533 6.6769e+01     5.4198      1.540      2.234    23.0874 0.0000e+00
      1.574      0.028     9.3382    109.139     39.298  37.787085     5.3006      9.077   155.0822 6.6654e+01     5.3844      1.544      2.239    23.0766 0.0000e+00
      1.576      0.016     9.3556    108.909     39.280  37.771728     5.3039      9.078   155.2196 6.6804e+01     5.4141      1.548      2.245    23.0721 0.0000e+00
      1.574      0.012     9.3636    108.672     39.225  37.720467     5.2544      9.078   155.5097 6.7203e+01     5.5405      1.545      2.242    23.0729 0.0000e+00
      1.569      0.025     9.3626    108.487     39.180  37.674929     5.1277      9.075   156.0947 6.7585e+01     5.6828      1.538      2.230    23.0720 0.0000e+00
      1.565      0.052     9.3522    108.359     39.189  37.665316     5.0453      9.071   156.8718 6.7569e+01     5.6995      1.532      2.221    23.0709 0.0000e+00
      1.571      0.081     9.3272    108.261     39.227  37.667666     5.0238      9.069   157.4208 6.6470e+01     5.6401      1.533      2.224    23.0727 0.0000e+00
      1.597      0.103     9.3051    108.105     39.233  37.639836     5.0005      9.069   157.5703 6.3667e+01     5.6489      1.554      2.255    23.0785 0.0000e+00
      1.649      0.114     9.2885    107.701     39.256  37.646046     4.8215      9.069   157.4753 5.9963e+01     6.1813      1.614      2.341    23.0809 0.0000e+00
      1.706      0.115     9.2818    106.882     39.351  37.742737     4.4993      9.069   157.3896 5.7364e+01     7.2264      1.686      2.445    23.0591 0.0000e+00
      1.740      0.108     9.2850    105.800     39.531  37.920562     4.3179      9.071   157.4802 5.6544e+01     7.7983      1.716      2.489    23.0077 0.0000e+00
      1.749      0.093     9.2862    104.801     39.718  38.082806     4.2759      9.073   157.6250 5.6283e+01     7.8011      1.716      2.489    22.9530 0.0000e+00
      1.754      0.076     9.2651    104.067     39.856  38.181436     4.1744      9.073   157.6770 5.5443e+01     7.9087      1.714      2.487    22.9338 0.0000e+00
      1.770      0.066     9.1854    103.478     39.996  38.288103     4.0144      9.074   157.9375 5.4070e+01     8.1777      1.731      2.511    22.9489 0.0000e+00
      1.792      0.068     9.0742    102.766     40.091  38.357162     3.9229      9.076   158.4514 5.2883e+01     8.3205      1.762      2.555    22.9729 0.0000e+00
      1.811      0.075     8.9879    101.861     40.135  38.381819     3.9013      9.077   158.8149 5.1913e+01     8.3372      1.777      2.578    22.9463 0.0000e+00
      1.829      0.079     8.9383    100.868     40.163  38.395825     3.8777      9.077   159.1485 5.0788e+01     8.5504      1.791      2.598    22.8845 0.0000e+00
      1.851      0.074     8.9059     99.851     40.111  38.336108     3.8450      9.078   159.4735 4.9586e+01     8.9857      1.815      2.632    22.8570 0.0000e+00
      1.876      0.065     8.8497     98.846     40.006  38.230889     3.8313      9.080   159.5618 4.8491e+01     9.2618      1.840      2.669    22.8306 0.0000e+00
      1.896      0.055     8.7699     97.937     39.971  38.202400     3.8279      9.080   159.7003 4.7853e+01     9.2584      1.865      2.704    22.8069 0.0000e+00
      1.906      0.045     8.6855     97.272     40.003  38.245484     3.8039      9.080   160.1151 4.7622e+01     9.1496      1.871      2.714    22.7949 0.0000e+00
      1.911      0.040     8.6001     97.000     40.058  38.307638     3.7746      9.080   160.7046 4.7367e+01     9.1072      1.872      2.715    22.7789 0.0000e+00
      1.916      0.043     8.5125     97.187     40.408  38.636629     3.7654      9.080   161.3218 4.7108e+01     9.1902      1.881      2.726    22.7712 0.0000e+00
      1.920      0.055     8.4281     97.731     41.025  39.177246     3.7673      9.079   162.1572 4.6870e+01     9.2991      1.883      2.731    22.7780 0.0000e+00
      1.926      0.070     8.3621     98.291     41.415  39.450103     3.7140      9.078   163.1475 4.6201e+01     9.2626      1.883      2.731    22.8006 0.0000e+00
      1.949      0.082     8.3342     98.384     41.546  39.460662     3.6037      9.078   163.6588 4.4702e+01     9.0903      1.903      2.759    22.8149 0.0000e+00
      1.988      0.088     8.3512     97.476     41.565  39.368216     3.5325      9.079   163.7796 4.2998e+01     8.9919      1.952      2.832    22.8189 0.0000e+00
      2.023      0.088     8.4162     95.186     41.515  39.220626     3.5265      9.080   163.7476 4.1953e+01     8.9956      1.991      2.888    22.7781 0.0000e+00
      2.043      0.082     8.5053     91.577     41.525  39.135623     3.5405      9.081   163.6170 4.1335e+01     8.9987      2.006      2.909    22.6197 0.0000e+00
      2.058      0.070     8.5509     87.067     41.615  39.101852     3.5349      9.082   163.6627 4.0817e+01     8.8929      2.020      2.930    22.4833 0.0000e+00
      2.069      0.059     8.5112     82.246     41.698  39.065972     3.5169      9.082   163.7834 4.0376e+01     8.7407      2.029      2.943    22.3538 0.0000e+00
      2.080      0.054     8.3278     77.586     41.672  38.955482     3.5142      9.083   163.9586 3.9867e+01     8.6964      2.039      2.957    22.2149 0.0000e+00
      2.092      0.056     8.0131     73.340     41.616  38.781165     3.5271      9.084   164.2315 3.9320e+01     8.7322      2.054      2.978    22.1451 0.0000e+00
      2.105      0.061     7.6238     69.791     41.697  38.671562     3.5321      9.085   164.3301 3.8747e+01     8.7640      2.063      2.992    21.9750 0.0000e+00
      2.121      0.065     7.2081     67.070     41.859  38.645367     3.4993      9.085   164.2905 3.8031e+01     8.7388      2.077      3.012    21.8079 0.0000e+00
      2.143      0.067     6.8050     64.850     42.012  38.654570     3.4630      9.085   164.3550 3.7266e+01     8.7349      2.102      3.049    21.7575 0.0000e+00
      2.164      0.065     6.4340     62.620     42.126  38.655734     3.4599      9.084   164.5072 3.6611e+01     8.7850      2.124      3.081    21.6354 0.0000e+00
      2.181      0.062     6.1488     60.352     42.124  38.595839     3.4448      9.083   164.8412 3.6022e+01     8.8660      2.140      3.104    21.3532 0.0000e+00
      2.196      0.060     5.9444     58.329     42.068  38.501443     3.4050      9.083   165.6394 3.5548e+01     8.9638      2.156      3.127    21.1267 0.0000e+00
      2.207      0.058     5.7869     56.630     42.121  38.466221     3.3795      9.084   166.5866 3.5202e+01     8.9766      2.166      3.142    21.0037 0.0000e+00
      2.217      0.058     5.6035     55.282     42.253  38.487154     3.3777      9.084   167.0880 3.4729e+01     8.9520      2.171      3.149    20.8462 0.0000e+00
      2.232      0.057     5.3884     54.190     42.353  38.500559     3.4827      9.083   167.2266 3.4035e+01     9.0768      2.186      3.170    20.7924 0.0000e+00
      2.252      0.057     5.2127     53.133     42.410  38.501281     3.6915      9.082   167.4027 3.3323e+01     9.3239      2.210      3.204    20.7914 0.0000e+00
      2.271      0.058     5.0691     52.091     42.435  38.495815     3.8217      9.082   167.9269 3.2773e+01     9.4804      2.229      3.233    20.6619 0.0000e+00
      2.284      0.059     4.9631     51.137     42.393  38.434431     3.8421      9.082   168.4887 3.2400e+01     9.5002      2.241      3.251    20.5226 0.0000e+00
      2.293      0.059     4.8866     50.247     42.340  38.330200     3.8717      9.082   168.5170 3.2037e+01     9.5292      2.248      3.261    20.4381 0.0000e+00
      2.305      0.058     4.7948     49.427     42.363  38.250817     3.9550      9.082   168.2686 3.1473e+01     9.6603      2.258      3.274    20.3763 0.0000e+00
      2.323      0.058     4.6979     48.673     42.397  38.172510     4.0169      9.081   168.2380 3.0750e+01     9.7529      2.277      3.302    20.3480 0.0000e+00
      2.343      0.059     4.6171     47.898     42.404  38.081282     4.0294      9.080   168.4916 3.0086e+01     9.7607      2.299      3.334    20.3411 0.0000e+00
      2.360      0.059     4.5398     47.071     42.404  37.972608     4.0308      9.080   168.9258 2.9561e+01     9.7552      2.316      3.358    20.2884 0.0000e+00
      2.373      0.059     4.4770     46.210     42.445  37.873706     4.0413      9.080   169.2720 2.9144e+01     9.9933      2.328      3.377    20.1398 0.0000e+00
      2.383      0.057     4.4272     45.304     42.566  37.837138     4.0734      9.081   169.6659 2.8708e+01    10.5564      2.337      3.390    20.0009 0.0000e+00
      2.396      0.053     4.3644     44.279     42.705  37.847560     4.0948      9.081   170.4185 2.8085e+01    10.9265      2.348      3.407    19.9042 0.0000e+00
      2.413      0.049     4.2986     43.062     42.811  37.872654     4.0917      9.079   171.4887 2.7422e+01    11.0183      2.368      3.434    19.7841 0.0000e+00
      2.429      0.045     4.2338     41.683     42.875  37.886633     4.0777      9.078   172.7975 2.6911e+01    11.2566      2.384      3.458    19.6194 0.0000e+00
      2.441      0.042     4.1696     40.274     42.927  37.889612     4.0584      9.077   173.9388 2.6507e+01    11.6894      2.395      3.474    19.4221 0.0000e+00
      2.449      0.038     4.0908     39.012     43.009  37.908612     4.0575      9.075   174.7916 2.6205e+01    11.9811      2.403      3.485    19.2888 0.0000e+00
      2.454      0.032     3.9819     38.007     43.065  37.925924     4.0756      9.074   175.4513 2.5832e+01    12.0854      2.406      3.489    19.2186 0.0000e+00
      2.462      0.027     3.8539     37.177     43.038  37.908508     4.1032      9.073   175.8926 2.5303e+01    12.4386      2.414      3.501    19.1754 0.0000e+00
      2.472      0.023     3.7200     36.369     42.990  37.888426     4.1242      9.071   176.3417 2.4865e+01    13.0401      2.427      3.520    19.1427 0.0000e+00
      2.479      0.020     3.6038     35.603     42.954  37.873519     4.1132      9.070   176.9237 2.4561e+01    13.3806      2.433      3.529    19.0548 0.0000e+00
      2.482      0.019     3.5182     35.002     42.929  37.855194     4.1033      9.069   177.5951 2.4303e+01    13.4801      2.434      3.531    19.0057 0.0000e+00
      2.484      0.019     3.4475     34.618     43.023  37.920698     4.0792      9.067   178.4362 2.4085e+01    13.4581      2.436      3.533    19.0319 0.0000e+00
      2.485      0.021     3.3683     34.435     43.293  38.094390     4.0139      9.066   179.4360 2.3851e+01    13.3196      2.437      3.534    19.0663 0.0000e+00
      2.489      0.025     3.2896     34.401     43.588  38.241860     3.9631      9.065   180.2186 2.3489e+01    13.2406      2.439      3.538    19.0873 0.0000e+00
      2.498      0.029     3.2335     34.427     43.797  38.307529     3.9398      9.065   180.5859 2.3017e+01    13.1856      2.448      3.550    19.0891 0.0000e+00
      2.510      0.032     3.1979     34.259     43.914  38.317118     3.9399      9.066   180.7798 2.2582e+01    13.1680      2.461      3.571    19.0896 0.0000e+00
      2.521      0.033     3.1884     33.585     43.955  38.294208     3.9558      9.066   181.1001 2.2205e+01    13.2324      2.472      3.586    19.0193 0.0000e+00
      2.530      0.032     3.1959     32.296     43.973  38.284292     3.9490      9.066   181.5329 2.1880e+01    13.2459      2.481      3.598    18.8597 0.0000e+00
      2.537      0.029     3.2160     30.465     44.031  38.324110     3.9248      9.065   181.8839 2.1638e+01    13.1952      2.488      3.609    18.7177 0.0000e+00
      2.543      0.027     3.2228     28.370     44.211  38.458336     3.9208      9.065   182.1596 2.1412e+01    13.2677      2.494      3.617    18.6088 0.0000e+00
      2.548      0.027     3.1640     26.396     44.487  38.638013     3.9501      9.066   182.4572 2.1135e+01    13.7812      2.498      3.624    18.5398 0.0000e+00
      2.553      0.031     3.0444     24.773     44.765  38.783102     3.9957      9.067   182.8154 2.0802e+01    14.5535      2.503      3.630    18.5223 0.0000e+00
      2.559      0.036     2.8635     23.552     44.991  38.879819     4.0155      9.068   183.2210 2.0404e+01    14.9197      2.509      3.638    18.5169 0.0000e+00
      2.568      0.041     2.6510     22.586     45.127  38.918839     4.0138      9.068   183.5751 1.9918e+01    14.9984      2.517      3.651    18.5103 0.0000e+00
      2.581      0.044     2.4640     21.609     45.210  38.937488     4.1331      9.067   183.8275 1.9373e+01    16.0516      2.530      3.670    18.4399 0.0000e+00
      2.598      0.044     2.3153     20.468     45.305  38.978314     4.3759      9.066   184.0356 1.8899e+01    18.0546      2.548      3.696    18.3117 0.0000e+00
      2.613      0.040     2.2103     19.139     45.411  39.031650     4.5195      9.065   184.2846 1.8508e+01    19.1983      2.563      3.719    18.1956 0.0000e+00
      2.623      0.031     2.1359     17.682     45.498  39.074642     4.5218      9.063   184.6877 1.8126e+01    19.3248      2.573      3.731    18.1046 0.0000e+00
      2.629      0.022     2.0491     16.194     45.578  39.117317     4.4615      9.061   185.2097 1.7848e+01    19.5167      2.580      3.742    18.0545 0.0000e+00
      2.633      0.015     1.9437     14.801     45.666  39.166842     4.3818      9.059   185.6048 1.7708e+01    19.9135      2.584      3.748    18.0153 0.0000e+00
      2.632      0.011     1.8174     13.636     45.707  39.165714     4.3565      9.057   185.7658 1.7623e+01    20.1592      2.583      3.745    17.9671 0.0000e+00
      2.630      0.011     1.6768     12.747     45.677  39.103643     4.3723      9.056   185.9516 1.7515e+01    20.2329      2.577      3.739    17.9350 0.0000e+00
      2.631      0.013     1.5338     12.130     45.617  39.050901     4.3648      9.054   186.3027 1.7324e+01    20.2244      2.577      3.738    17.9061 0.0000e+00
      2.637      0.017     1.3947     11.700     45.565  39.035701     4.3407      9.052   186.6553 1.7145e+01    20.1584      2.585      3.750    17.8853 0.0000e+00
      2.645      0.022     1.2865     11.395     45.540  39.046818     4.3304      9.050   187.0310 1.7021e+01    20.1526      2.595      3.764    17.8455 0.0000e+00
      2.652      0.026     1.2018     11.286     45.524  39.058437     4.3898      9.049   187.4902 1.6900e+01    20.2229      2.601      3.772    17.7781 0.0000e+00
      2.657      0.027     1.1471     11.416     45.493  39.049297     4.9180      9.049   187.9913 1.6710e+01    20.5643      2.605      3.778    17.7850 0.0000e+00
      2.663      0.031     1.1094     11.701     45.497  39.063245     5.8391      9.047   188.7887 1.6307e+01    21.0683      2.611      3.786    17.8355 0.0000e+00
      2.672      0.040     1.0744     12.039     45.577  39.100181     6.3296      9.045   190.1614 1.5710e+01    21.2618      2.621      3.801    17.8667 0.0000e+00
      2.679      0.050     1.0610     12.372     45.764  39.115096     6.3874      9.043   191.7691 1.5287e+01    21.2988      2.630      3.814    17.9011 0.0000e+00
      2.687      0.055     1.0773     12.636     46.013  39.116471     6.5715      9.042   192.8270 1.5167e+01    21.9589      2.629      3.814    17.9135 0.0000e+00
      2.707      0.055     1.1088     12.701     46.166  39.116517     6.8985      9.041   193.3151 1.4993e+01    23.1286      2.647      3.839    17.9279 0.0000e+00
      2.737      0.049     1.1399     12.310     46.179  39.115480     7.0710      9.038   193.9708 1.4799e+01    23.7248      2.690      3.902    17.9508 0.0000e+00
      2.756      0.040     1.1793     11.313     46.116  39.103928     7.0757      9.036   194.7329 1.4743e+01    23.7364      2.710      3.930    17.7759 0.0000e+00
      2.760      0.029     1.2140      9.902     46.062  39.103827     7.0805      9.032   195.1297 1.4706e+01    23.6784      2.707      3.926    17.4490 0.0000e+00
      2.756      0.019     1.2355      8.445     46.039  39.114312     7.2200      9.028   195.3270 1.4697e+01    23.5024      2.703      3.921    17.3066 0.0000e+00
      2.753      0.011     1.2057      7.275     46.013  39.103831     7.4733      9.027   195.5693 1.4666e+01    23.2478      2.698      3.912    17.3349 0.0000e+00
      2.753      0.011     1.0986      6.541     46.016  39.104031     7.5960      9.026   195.9084 1.4528e+01    23.0943      2.697      3.912    17.3933 0.0000e+00
      2.758      0.015     0.9497      6.221     46.047  39.116725     7.5719      9.025   196.3304 1.4339e+01    23.0122      2.702      3.919    17.4499 0.0000e+00
      2.767      0.019     0.7962      6.229     46.088  39.130375     7.3564      9.022   196.7134 1.4162e+01    22.8361      2.713      3.935    17.4829 0.0000e+00
      2.775      0.020     0.6800      6.488     46.124  39.142125     6.9713      9.020   197.0985 1.4018e+01    22.6391      2.723      3.949    17.4927 0.0000e+00
      2.781      0.020     0.6116      6.928     46.123  39.131841     6.7691      9.019   197.5443 1.3915e+01    22.6107      2.727      3.956    17.4895 0.0000e+00
      2.784      0.018     0.5844      7.386     46.126  39.132950     6.7511      9.018   197.8872 1.3865e+01    22.6294      2.730      3.960    17.4751 0.0000e+00
      2.787      0.015     0.5888      7.686     46.156  39.155529     6.7288      9.016   198.0613 1.3825e+01    22.7291      2.732      3.962    17.4464 0.0000e+00
      2.790      0.015     0.6140      7.792     46.176  39.150992     6.7233      9.015   198.1006 1.3782e+01    23.0647      2.736      3.968    17.4216 0.0000e+00
      2.793      0.020     0.6627      7.749     46.158  39.078071     6.7518      9.015   198.1909 1.3778e+01    23.3392      2.740      3.974    17.4141 0.0000e+00
      2.796      0.029     0.7150      7.606     46.088  38.908378     6.9573      9.015   198.4646 1.3748e+01    23.5891      2.741      3.976    17.4164 0.0000e+00
      2.801      0.039     0.7429      7.403     46.034  38.685631     9.1987      9.014   198.6562 1.3578e+01    26.0515      2.744      3.980    17.4191 0.0000e+00
      2.812      0.046     0.7516      7.116     46.125  38.542266    13.3022      9.014   198.7003 1.3265e+01    30.6005      2.755      3.996    17.4029 0.0000e+00
      2.829      0.049     0.7469      6.664     46.315  38.507339    15.5822      9.015   198.7399 1.2900e+01    33.1586      2.773      4.021    17.3456 0.0000e+00
      2.850      0.048     0.7325      5.994     46.478  38.516922    16.2822      9.014   198.7051 1.2567e+01    34.0608      2.796      4.056    17.2345 0.0000e+00
      2.867      0.042     0.7172      5.158     46.579  38.531067    21.6913      9.012   198.6245 1.2369e+01    40.8263      2.815      4.083    17.0393 0.0000e+00
      2.876      0.033     0.6965      4.259     46.644  38.551370    31.5685      9.010   198.7111 1.2314e+01    53.0627      2.822      4.093    16.7643 0.0000e+00
      2.879      0.023     0.6593      3.385     46.758  38.635441    36.9449      9.008   198.9775 1.2305e+01    59.6852      2.824      4.095    16.5328 0.0000e+00
      2.879      0.014     0.5920      2.605     46.938  38.786045    37.5410      9.005   199.0924 1.2307e+01    60.3680      2.824      4.095    16.4134 0.0000e+00
      2.880      0.009     0.5072      1.976     47.080  38.912735    39.0167      9.003   198.9823 1.2290e+01    61.2500      2.824      4.096    16.3442 0.0000e+00
      2.883      0.006     0.4167      1.545     47.210  39.024958    54.7794      9.002   198.9363 1.2239e+01    69.6998      2.827      4.100    16.3113 0.0000e+00
      2.886      0.006     0.3285      1.322     47.413  39.191016    83.6708      9.001   198.9665 1.2203e+01    85.1281      2.830      4.104    16.3087 0.0000e+00
      2.888      0.006     0.2505      1.287     47.653  39.397452    99.4530      8.998   199.0032 1.2207e+01    93.6315      2.832      4.107    16.3079 0.0000e+00
      2.888      0.006     0.1864      1.394     47.962  39.680582   101.2037      8.996   199.1225 1.2217e+01    95.7916      2.832      4.108    16.3240 0.0000e+00
      2.888      0.006     0.1444      1.584     48.317  40.012379   104.9961      8.994   199.2049 1.2207e+01   111.4843      2.832      4.108    16.3334 0.0000e+00
      2.889      0.007     0.1227      1.806     48.711  40.362979   111.7148      8.992   199.2243 1.2183e+01   140.1062      2.833      4.109    16.3199 0.0000e+00
      2.891      0.008     0.1214      2.041     49.012  40.619522   115.1551      8.989   199.3567 1.2153e+01   155.6348      2.835      4.112    16.3261 0.0000e+00
      2.894      0.009     0.1335      2.285     48.958  40.575622   112.9663      8.987   199.5153 1.2116e+01   156.2826      2.838      4.116    16.3566 0.0000e+00
      2.897      0.009     0.1543      2.510     48.759  40.403386    85.2507      8.985   199.5934 1.2094e+01   148.0751      2.841      4.120    16.4100 0.0000e+00
      2.900      0.008     0.1765      2.688     48.599  40.250587    34.4015      8.983   199.6126 1.2106e+01   132.8471      2.844      4.124    16.4360 0.0000e+00
      2.902      0.007     0.1985      2.808     48.394  40.060883     6.6701      8.982   199.5761 1.2139e+01   124.3425      2.846      4.127    16.4342 0.0000e+00
      2.903      0.006     0.2245      2.881     48.248  39.950138     4.0661      8.980   199.5819 1.2161e+01   121.0120      2.847      4.129    16.4392 0.0000e+00
      2.904      0.005     0.2470      2.924     48.177  39.927014     2.8991      8.978   199.6825 1.2145e+01    92.7836      2.848      4.131    16.4328 0.0000e+00
      2.906      0.004     0.2652      2.947     48.053  39.844805     1.1755      8.976   199.7594 1.2133e+01    41.2121      2.850      4.132    16.4103 0.0000e+00
      2.906      0.004     0.2768      2.967     47.912  39.717746     0.2626      8.975   199.8234 1.2203e+01    13.1365      2.850      4.133    16.3714 0.0000e+00
      2.907      0.003     0.2826      2.985     47.865  39.660005     0.2016      8.974   199.9402 1.2305e+01    10.7144      2.851      4.135    16.3816 0.0000e+00
      2.909      0.003     0.2869      2.995     47.943  39.717800     0.2377      8.972   200.0535 1.2347e+01    11.2777      2.852      4.137    16.4447 0.0000e+00
      2.909      0.002     0.2877      3.005     48.089  39.845370     0.3002      8.969   200.1603 1.2360e+01    12.6371      2.853      4.137    16.4700 0.0000e+00
      2.910      0.002     0.2899      3.022     48.194  39.933183     0.3323      8.967   200.1995 1.2376e+01    13.3842      2.853      4.138    16.4476 0.0000e+00
      2.910      0.001     0.2926      3.037     48.234  39.954521     0.3428      8.965   200.1830 1.2374e+01    13.4801      2.853      4.138    16.4194 0.0000e+00
      2.910      0.001     0.2927      3.053     48.276  39.976418     0.3453      8.962   200.3052 1.2371e+01    13.4545      2.854      4.139    16.4110 0.0000e+00
      2.910      0.001     0.2936      3.081     48.314  40.007523     0.3211      8.960   200.4732 1.2375e+01    13.1428      2.853      4.138    16.4275 0.0000e+00
      2.911      0.001     0.2956      3.112     48.305  40.013296     0.2909      8.958   200.4922 1.2380e+01    12.6158      2.854      4.139    16.4329 0.0000e+00
      2.911      0.001     0.2973      3.150     48.268  39.982776     0.2800      8.957   200.4495 1.2395e+01    12.3082      2.854      4.140    16.4137 0.0000e+00
      2.911      0.000     0.2980      3.212     48.268  39.955832     0.2806      8.956   200.5597 1.2388e+01    12.2582      2.854      4.140    16.3940 0.0000e+00
      2.911 2.2015e-08     0.3013      3.276     48.291  39.941334     0.2651      8.955   200.7912 1.2376e+01    11.9774      2.855      4.140    16.3912 0.0000e+00
      2.911 2.4216e-07     0.3049      3.325     48.301  39.934365     0.2417      8.954   200.8402 1.2383e+01    11.4078      2.854      4.140    16.4185 0.0000e+00
      2.911 6.1471e-07     0.3063      3.370     48.294  39.935024     0.2310      8.952   200.7209 1.2369e+01    11.0753      2.855      4.140    16.4287 0.0000e+00
      2.910      0.000     0.3145      3.388     48.215  39.885841     0.2189      8.949   200.6394 1.2356e+01    10.9971      2.854      4.139    16.3864 0.0000e+00
      2.910      0.000     0.3224      3.388     48.155  39.847429     0.1874      8.946   200.6298 1.2368e+01    10.7700      2.854      4.139    16.3432 0.0000e+00
      2.911      0.001     0.3248      3.413     48.167  39.851379     0.1404      8.945   200.6906 1.2361e+01    10.3787      2.855      4.140    16.3265 0.0000e+00
      2.911      0.001     0.3319      3.456     48.145  39.806679     0.1169      8.944   200.9442 1.2342e+01    10.1267      2.855      4.141    16.3373 0.0000e+00
      2.911      0.001     0.3331      3.485     48.123  39.751168     0.1114      8.942   201.2873 1.2315e+01    10.0796      2.855      4.141    16.3621 0.0000e+00
      2.911      0.001     0.3299      3.502     48.159  39.751319     0.0991      8.941   201.4828 1.2265e+01     9.9459      2.855      4.141    16.3774 0.0000e+00
      2.912      0.001     0.3335      3.520     48.251  39.808467     0.1018      8.940   201.5875 1.2231e+01     9.6709      2.855      4.141    16.3727 0.0000e+00
      2.912      0.000     0.3394      3.535     48.343  39.870944     0.1107      8.938   201.6928 1.2250e+01     9.4875      2.856      4.142    16.3410 0.0000e+00
      2.912      0.000     0.3424      3.553     48.356  39.872080     0.1058      8.936   201.8102 1.2296e+01     9.4028      2.856      4.142    16.2934 0.0000e+00
      2.912      0.000     0.3431      3.548     48.303  39.822188     0.0847      8.935   201.9737 1.2324e+01     9.0570      2.855      4.141    16.2619 0.0000e+00
      2.912     -0.001     0.3462      3.468     48.249  39.775404     0.0641      8.934   202.2937 1.2329e+01     8.4493      2.856      4.142    16.2469 0.0000e+00
      2.912     -0.004     0.3469      3.353     48.209  39.750660     0.0641      8.931   202.7545 1.2334e+01     8.1355      2.855      4.141    16.2319 0.0000e+00
      2.912     -0.008     0.3484      3.242     48.050  39.649947     0.0603      8.929   203.3295 1.2341e+01     8.2689      2.855      4.141    16.2230 0.0000e+00
      2.911     -0.014     0.3532      3.123     47.714  39.446209     0.0931      8.928   203.9968 1.2366e+01    10.1303      2.855      4.140    16.2173 0.0000e+00
      2.907     -0.023     0.3413      3.013     47.332  39.254705     0.6527      8.927   204.6280 1.2384e+01    31.1528      2.852      4.137    16.2113 0.0000e+00
      2.901     -0.040     0.3281      2.913     46.978  39.111578     1.6909      8.924   205.1104 1.2304e+01    69.7915      2.847      4.128    16.2175 0.0000e+00
      2.892     -0.063     0.3201      2.828     46.704  39.048546     2.2660      8.921   205.2690 1.2147e+01    90.8626      2.836      4.113    16.2392 0.0000e+00
      2.880     -0.083     0.3047      2.814     46.717  39.254332     2.3633      8.917   205.0840 1.2259e+01    92.1350      2.827      4.101    16.3068 0.0000e+00
      2.858     -0.092     0.2947      2.936     47.414  40.013421     2.8339      8.914   205.1098 1.3098e+01    85.0399      2.812      4.079    16.4564 0.0000e+00
      2.815     -0.085     0.2837      3.271     48.385  40.865040     3.6947      8.910   205.6676 1.4309e+01    71.8236      2.765      4.010    16.6248 0.0000e+00
      2.769     -0.067     0.2722      3.914     48.901  41.173876     4.1741      8.907   206.3214 1.4925e+01    64.7401      2.705      3.923    16.7825 0.0000e+00
      2.745     -0.045     0.2672      4.826     49.085  41.145315     4.1856      8.907   206.9059 1.4812e+01    65.1160      2.683      3.891    17.0027 0.0000e+00
      2.749     -0.025     0.2760      5.730     48.804  40.773330     3.6000      8.906   207.4006 1.4272e+01    75.8903      2.689      3.899    17.2567 0.0000e+00
      2.770     -0.006     0.3030      6.325     47.974  40.039780     2.4954      8.903   207.5714 1.3426e+01    95.6757      2.715      3.938    17.2963 0.0000e+00
      2.790      0.007     0.3649      6.452     47.238  39.447519     1.8918      8.901   207.5083 1.2986e+01   106.4539      2.750      3.988    17.1082 0.0000e+00
      2.785      0.011     0.4685      6.150     47.085  39.324112     1.8777      8.901   207.4971 1.3250e+01   107.2829      2.738      3.972    16.8928 0.0000e+00
      2.766      0.006     0.5686      5.606     47.362  39.499635     2.3163      8.900   207.5222 1.3385e+01   105.3922      2.702      3.920    16.7229 0.0000e+00
      2.763     -0.000     0.6322      4.958     47.679  39.665823     3.1168      8.898   207.5542 1.3110e+01   101.6629      2.703      3.921    16.6980 0.0000e+00
      2.773     -0.002     0.6431      4.245     47.879  39.746795     3.5494      8.898   207.6262 1.2946e+01    99.4953      2.722      3.948    16.7637 0.0000e+00
      2.780      0.001     0.6040      3.535     48.039  39.843925     3.5939      8.898   207.6175 1.3066e+01    98.9277      2.728      3.957    16.7817 0.0000e+00
      2.781      0.004     0.5469      2.930     48.165  39.951677     3.6380      8.896   207.6214 1.3245e+01    95.5178      2.728      3.957    16.7159 0.0000e+00
      2.778      0.002     0.4863      2.503     48.166  39.970733     3.7160      8.893   207.7589 1.3345e+01    89.2488      2.724      3.950    16.5860 0.0000e+00
      2.775     -0.002     0.4151      2.252     48.258  40.074360     3.7634      8.891   207.9039 1.3369e+01    85.7433      2.720      3.945    16.4787 0.0000e+00
      2.774     -0.006     0.3415      2.107     48.355  40.189219     3.7616      8.889   207.9109 1.3349e+01    85.3806      2.719      3.944    16.4532 0.0000e+00
      2.775     -0.009     0.2798      2.005     48.115  40.026769     3.7352      8.886   207.6729 1.3335e+01    85.7511      2.720      3.945    16.4681 0.0000e+00
      2.775     -0.014     0.2378      1.980     47.749  39.760319     3.4949      8.883   207.1769 1.3391e+01    90.3256      2.724      3.949    16.4844 0.0000e+00
      2.773     -0.020     0.2160      2.069     47.473  39.569658     3.0537      8.882   206.6456 1.3551e+01    98.6742      2.721      3.946    16.5141 0.0000e+00
      2.765     -0.029     0.2057      2.233     47.261  39.435046     2.8117      8.880   206.2399 1.3779e+01   103.1737      2.711      3.932    16.5514 0.0000e+00
      2.755     -0.040     0.1931      2.440     47.091  39.338568     2.7830      8.876   205.8850 1.4034e+01   103.4304      2.702      3.918    16.5909 0.0000e+00
      2.744     -0.051     0.1871      2.674     46.971  39.291674     2.8063      8.873   205.7102 1.4309e+01   102.0165      2.691      3.903    16.6302 0.0000e+00
      2.732     -0.061     0.1999      2.924     46.911  39.312358     2.8692      8.873   205.7608 1.4652e+01    99.3320      2.680      3.888    16.6698 0.0000e+00
      2.716     -0.068     0.2153      3.206     46.840  39.334902     2.9012      8.871   205.8078 1.5116e+01    97.8214      2.667      3.868    16.7158 0.0000e+00
      2.694     -0.073     0.2363      3.546     46.722  39.310509     2.9188      8.868   205.7627 1.5641e+01    97.2110      2.643      3.833    16.7638 0.0000e+00
      2.670     -0.077     0.2591      3.981     46.602  39.271359     3.1080      8.865   205.5602 1.6134e+01    91.9175      2.617      3.796    16.8128 0.0000e+00
      2.649     -0.077     0.2819      4.536     46.500  39.242399     3.4485      8.862   205.3377 1.6574e+01    82.2561      2.597      3.767    16.8905 0.0000e+00
      2.631     -0.073     0.3082      5.204     46.401  39.214264     3.6321      8.860   205.3093 1.6979e+01    76.9647      2.580      3.742    16.9903 0.0000e+00
      2.614     -0.064     0.3388      5.927     46.306  39.185100     3.6637      8.859   205.4761 1.7423e+01    76.1051      2.563      3.719    17.0718 0.0000e+00
      2.595     -0.050     0.3796      6.656     46.199  39.143687     3.7811      8.856   205.7190 1.7919e+01    71.8965      2.546      3.692    17.1306 0.0000e+00
      2.579     -0.034     0.4320      7.374     46.093  39.094367     3.9686      8.854   205.8366 1.8246e+01    64.2350      2.526      3.663    17.1926 0.0000e+00
      2.570     -0.017     0.4988      8.093     46.061  39.096526     4.0586      8.853   205.9521 1.8251e+01    60.0559      2.516      3.649    17.2552 0.0000e+00
      2.570     -0.000     0.5691      8.825     46.123  39.169826     4.0699      8.852   206.1686 1.8080e+01    59.3532      2.519      3.652    17.3048 0.0000e+00
      2.577      0.015     0.6390      9.506     46.183  39.219117     4.2224      8.851   206.3041 1.7850e+01    55.4310      2.526      3.664    17.3636 0.0000e+00
      2.587      0.025     0.7067     10.035     46.179  39.184810     4.5116      8.849   206.3854 1.7556e+01    48.3639      2.537      3.679    17.4105 0.0000e+00
      2.597      0.028     0.7738     10.350     46.168  39.135751     4.6620      8.847   206.5494 1.7261e+01    44.5124      2.548      3.695    17.4351 0.0000e+00
      2.607      0.024     0.8455     10.385     46.206  39.133582     4.6595      8.846   206.7381 1.7054e+01    44.0823      2.558      3.709    17.4676 0.0000e+00
      2.614      0.016     0.9158     10.055     46.271  39.158544     4.6554      8.843   206.8600 1.6949e+01    43.8115      2.565      3.719    17.4721 0.0000e+00
      2.617      0.008     0.9681      9.391     46.331  39.183682     4.6711      8.841   206.9914 1.6941e+01    41.7511      2.568      3.725    17.4250 0.0000e+00
      2.616      0.003     1.0009      8.556     46.354  39.183652     4.6911      8.839   207.2076 1.7054e+01    38.0266      2.567      3.723    17.3755 0.0000e+00
      2.612     -0.002     1.0100      7.734     46.338  39.158150     4.6900      8.837   207.4958 1.7184e+01    35.9778      2.561      3.714    17.3428 0.0000e+00
      2.608     -0.008     0.9778      7.059     46.312  39.129170     4.6654      8.836   207.7226 1.7157e+01    35.4592      2.555      3.706    17.3102 0.0000e+00
      2.609     -0.019     0.9078      6.604     46.253  39.087091     4.5689      8.835   207.8854 1.7041e+01    32.4393      2.557      3.709    17.2787 0.0000e+00
      2.612     -0.034     0.8214      6.384     46.138  39.030156     4.4053      8.834   208.0874 1.7046e+01    27.0659      2.564      3.718    17.2577 0.0000e+00
      2.608     -0.052     0.7381      6.367     45.956  38.948511     4.3100      8.831   208.1855 1.7363e+01    24.1540      2.563      3.717    17.2475 0.0000e+00
      2.592     -0.073     0.6709      6.538     45.676  38.798084     4.2737      8.829   208.2112 1.8069e+01    23.8759      2.547      3.695    17.2375 0.0000e+00
      2.564     -0.091     0.6269      6.954     45.341  38.607595     4.0756      8.826   208.3119 1.8910e+01    24.0111      2.515      3.648    17.2366 0.0000e+00
      2.530     -0.101     0.6066      7.678     45.071  38.485774     3.7374      8.823   208.3706 1.9703e+01    24.4223      2.480      3.597    17.2772 0.0000e+00
      2.498     -0.100     0.6056      8.753     44.913  38.467561     3.5632      8.820   208.4055 2.0590e+01    24.6800      2.450      3.554    17.3676 0.0000e+00
      2.465     -0.088     0.6173     10.218     44.847  38.514453     3.5596      8.817   208.5612 2.1433e+01    24.5651      2.415      3.504    17.4689 0.0000e+00
      2.440     -0.067     0.6535     12.081     44.799  38.545197     3.6436      8.813   208.8766 2.1858e+01    23.0327      2.385      3.460    17.5623 0.0000e+00
      2.429     -0.040     0.7207     14.277     44.648  38.458621     3.7964      8.810   209.3790 2.1967e+01    20.1920      2.380      3.452    17.6860 0.0000e+00
      2.425     -0.012     0.8177     16.592     44.406  38.292691     3.8838      8.808   209.9045 2.2038e+01    18.6387      2.379      3.452    17.8269 0.0000e+00
      2.425      0.011     0.9554     18.733     44.212  38.188914     3.9008      8.806   210.2397 2.1928e+01    18.5642      2.374      3.444    17.9476 0.0000e+00
      2.433      0.025     1.1300     20.504     44.156  38.219275     3.9519      8.803   210.4212 2.1469e+01    18.8473      2.381      3.454    18.0312 0.0000e+00
      2.450      0.030     1.3446     21.902     44.219  38.342607     4.0358      8.801   210.6357 2.0945e+01    19.2958      2.404      3.486    18.0638 0.0000e+00
      2.466      0.028     1.5746     23.112     44.258  38.411034     4.0663      8.800   210.9398 2.0636e+01    19.4774      2.423      3.514    18.1002 0.0000e+00
      2.476      0.022     1.7796     24.270     44.254  38.412083     4.0638      8.799   211.1731 2.0561e+01    19.4709      2.431      3.525    18.1760 0.0000e+00
      2.476      0.008     1.9450     25.285     44.346  38.482204     4.0631      8.797   211.1333 2.0676e+01    19.4571      2.430      3.524    18.2774 0.0000e+00
      2.472     -0.013     2.0626     25.927     44.466  38.560809     4.0330      8.794   210.8033 2.0733e+01    19.2767      2.423      3.514    18.3688 0.0000e+00
      2.470     -0.038     2.1691     26.082     44.481  38.537490     3.9830      8.792   210.5388 2.0688e+01    18.9639      2.422      3.511    18.4032 0.0000e+00
      2.467     -0.065     2.2821     25.833     44.412  38.454043     3.9498      8.791   210.6020 2.0958e+01    18.7487      2.425      3.517    18.3971 0.0000e+00
      2.452     -0.094     2.3870     25.248     44.313  38.376798     3.9397      8.790   210.7929 2.1689e+01    18.6557      2.410      3.497    18.3911 0.0000e+00
      2.421     -0.121     2.4550     24.381     44.244  38.365036     3.8605      8.787   210.9540 2.2742e+01    18.0451      2.377      3.448    18.3627 0.0000e+00
      2.378     -0.143     2.4651     23.442     44.244  38.438816     3.7083      8.784   211.1732 2.4098e+01    16.8652      2.334      3.386    18.3081 0.0000e+00
      2.329     -0.157     2.4418     22.765     44.240  38.507461     3.6220      8.781   211.3784 2.5593e+01    16.1402      2.283      3.312    18.2751 0.0000e+00
      2.281     -0.160     2.3875     22.658     44.154  38.497057     3.5996      8.780   211.6286 2.6930e+01    15.9412      2.235      3.240    18.2798 0.0000e+00
      2.240     -0.152     2.2948     23.227     44.012  38.440023     3.5782      8.778   211.9609 2.8095e+01    15.2785      2.195      3.183    18.3393 0.0000e+00
      2.203     -0.137     2.1907     24.293     43.866  38.389078     3.5638      8.776   212.1278 2.9217e+01    14.0707      2.160      3.132    18.4393 0.0000e+00
      2.168     -0.119     2.1120     25.625     43.771  38.388860     3.5503      8.775   212.1836 3.0168e+01    13.3281      2.124      3.081    18.5219 0.0000e+00
      2.138     -0.104     2.0939     27.154     43.733  38.437499     3.5396      8.773   212.2909 3.0804e+01    13.1656      2.094      3.037    18.5878 0.0000e+00
      2.116     -0.095     2.1527     28.880     43.684  38.469614     3.5929      8.770   212.4787 3.1229e+01    13.0286      2.073      3.007    18.6602 0.0000e+00
      2.101     -0.094     2.2583     30.723     43.611  38.459962     3.7032      8.768   212.7340 3.1617e+01    12.8680      2.060      2.988    18.7492 0.0000e+00
      2.085     -0.099     2.3780     32.499     43.544  38.447788     3.7662      8.767   213.0540 3.2111e+01    12.8283      2.048      2.969    18.8501 0.0000e+00
      2.062     -0.106     2.5143     34.025     43.444  38.449383     3.7637      8.766   213.5089 3.2855e+01    12.7881      2.026      2.939    18.9409 0.0000e+00
      2.030     -0.116     2.6717     35.270     43.302  38.479373     3.6568      8.764   214.1037 3.3870e+01    12.2448      1.993      2.891    19.0379 0.0000e+00
      1.991     -0.124     2.8458     36.464     43.180  38.556764     3.4635      8.761   214.7390 3.4900e+01    11.3498      1.952      2.830    19.1006 0.0000e+00
      1.954     -0.128     3.0159     38.050     43.058  38.623863     3.3664      8.757   215.3395 3.5757e+01    10.9157      1.913      2.775    19.1212 0.0000e+00
      1.922     -0.125     3.1535     40.316     42.916  38.656303     3.3734      8.754   215.9450 3.6576e+01    10.9250      1.885      2.734    19.2123 0.0000e+00
      1.891     -0.120     3.2482     43.217     42.787  38.695377     3.3733      8.751   216.4665 3.7406e+01    10.9153      1.854      2.690    19.4161 0.0000e+00
      1.861     -0.115     3.3243     46.649     42.632  38.715752     3.4150      8.748   216.8267 3.8181e+01    10.7989      1.822      2.643    19.6511 0.0000e+00
      1.834     -0.111     3.4431     50.482     42.458  38.712501     3.5192      8.746   217.2030 3.9041e+01    10.6442      1.800      2.609    19.8526 0.0000e+00
      1.808     -0.109     3.6437     54.476     42.343  38.719734     3.5849      8.744   217.5743 3.9992e+01    10.6169      1.775      2.574    20.0360 0.0000e+00
      1.780     -0.107     3.8961     58.408     42.290  38.739898     3.6106      8.742   217.7033 4.0892e+01    10.6744      1.745      2.530    20.2105 0.0000e+00
      1.753     -0.101     4.1925     61.973     42.249  38.766011     3.6296      8.741   217.7298 4.1852e+01    10.4159      1.720      2.494    20.3988 0.0000e+00
      1.724     -0.091     4.5315     64.820     42.178  38.781718     3.6316      8.740   218.0667 4.2872e+01     9.9170      1.690      2.452    20.6064 0.0000e+00
      1.697     -0.074     4.8812     66.960     42.091  38.803002     3.6351      8.739   218.6795 4.3715e+01     9.6989      1.661      2.410    20.7423 0.0000e+00
      1.675     -0.054     5.2365     68.705     42.008  38.833108     3.6545      8.737   219.2015 4.4232e+01     9.7250      1.640      2.378    20.7940 0.0000e+00
      1.663     -0.035     5.5651     70.242     41.921  38.828590     3.6835      8.736   219.6468 4.4289e+01     9.8906      1.626      2.357    20.8638 0.0000e+00
      1.663     -0.020     5.8079     71.623     41.871  38.811942     3.7026      8.736   220.1920 4.3964e+01    10.1642      1.628      2.362    20.9584 0.0000e+00
      1.671     -0.009     5.9678     72.778     41.894  38.822233     3.7030      8.736   220.7165 4.3653e+01    10.3005      1.640      2.380    21.0824 0.0000e+00
      1.675     -0.002     6.1025     73.393     41.946  38.826087     3.7043      8.735   221.1700 4.3567e+01    10.3428      1.645      2.386    21.2327 0.0000e+00
      1.672      0.001     6.2254     73.104     41.982  38.795013     3.7184      8.733   221.4597 4.3635e+01    10.6757      1.640      2.379    21.3289 0.0000e+00
      1.667     -0.000     6.3435     71.812     42.031  38.763725     3.7327      8.733   221.3803 4.3738e+01    11.2848      1.633      2.368    21.3586 0.0000e+00
      1.664     -0.010     6.4597     69.722     42.116  38.764975     3.7267      8.732   221.2424 4.3667e+01    11.5940      1.629      2.362    21.3434 0.0000e+00
      1.667     -0.027     6.5360     67.152     42.150  38.746560     3.7042      8.731   221.4272 4.3358e+01    11.5442      1.633      2.368    21.2844 0.0000e+00
      1.672     -0.051     6.5238     64.407     42.056  38.667922     3.6771      8.730   221.6357 4.3280e+01    11.4341      1.644      2.384    21.2025 0.0000e+00
      1.666     -0.080     6.4127     61.941     41.882  38.575696     3.6575      8.730   221.5268 4.4007e+01    11.3559      1.644      2.385    21.1097 0.0000e+00
      1.637     -0.107     6.2278     60.414     41.708  38.519980     3.6660      8.730   221.3153 4.5473e+01    11.3849      1.612      2.338    21.0066 0.0000e+00
      1.592     -0.125     6.0000     60.367     41.565  38.502080     3.6720      8.729   221.0573 4.7197e+01    11.4082      1.561      2.265    20.9311 0.0000e+00
      1.543     -0.130     5.7428     61.976     41.432  38.486342     3.6635      8.728   220.5575 4.8956e+01    11.2971      1.512      2.194    20.9382 0.0000e+00
      1.498     -0.117     5.4865     64.976     41.296  38.456756     3.7711      8.726   220.1773 5.0472e+01    10.7922      1.464      2.124    21.0327 0.0000e+00
      1.465     -0.091     5.3196     68.879     41.137  38.398329     3.9907      8.725   220.1601 5.1201e+01     9.9842      1.429      2.073    21.1713 0.0000e+00
      1.451     -0.059     5.2927     73.140     40.930  38.287689     4.1134      8.724   220.2627 5.1221e+01     9.5547      1.419      2.058    21.3152 0.0000e+00
      1.448     -0.030     5.4330     77.251     40.737  38.197894     4.1315      8.722   220.2129 5.1149e+01     9.4931      1.419      2.058    21.4448 0.0000e+00
      1.450     -0.012     5.7022     80.957     40.621  38.201160     4.1591      8.721   219.2996 5.1094e+01     9.4103      1.421      2.061    21.5588 0.0000e+00
      1.455     -0.009     6.0470     84.160     40.579  38.263884     4.2058      8.720   217.6528 5.0952e+01     9.3050      1.426      2.069    21.6716 0.0000e+00
      1.460     -0.019     6.4325     86.954     40.594  38.321857     4.2392      8.720   216.4774 5.0993e+01     9.2794      1.433      2.079    21.7656 0.0000e+00
      1.460     -0.036     6.7828     89.361     40.625  38.331061     4.2626      8.721   215.6714 5.1522e+01     9.3056      1.438      2.085    21.8605 0.0000e+00
      1.448     -0.054     7.0926     90.981     40.658  38.311680     4.3555      8.723   214.7895 5.2567e+01     9.2110      1.425      2.066    22.0185 0.0000e+00
      1.423     -0.067     7.3466     91.493     40.671  38.277811     4.5133      8.723   214.1606 5.3813e+01     9.0582      1.396      2.026    22.1729 0.0000e+00
      1.395     -0.074     7.5727     90.968     40.658  38.238778     4.6058      8.723   213.8313 5.4903e+01     9.0299      1.367      1.983    22.2280 0.0000e+00
      1.369     -0.071     7.8112     89.713     40.641  38.220439     4.6165      8.723   213.8194 5.5753e+01     9.0738      1.341      1.945    22.1820 0.0000e+00
      1.350     -0.059     7.9748     88.114     40.525  38.119535     4.5679      8.723   213.9311 5.6304e+01     9.2469      1.321      1.916    22.1044 0.0000e+00
      1.338     -0.040     8.0242     86.535     40.285  37.907160     4.4760      8.721   213.8052 5.6503e+01     9.5171      1.310      1.901    22.0442 0.0000e+00
      1.331     -0.019     7.9747     85.316     40.067  37.746715     4.4215      8.717   213.5018 5.6518e+01     9.6082      1.304      1.892    22.0062 0.0000e+00
      1.329     -0.001     7.8504     84.749     39.934  37.702617     4.4246      8.715   213.1017 5.6425e+01     9.5971      1.302      1.888    22.0129 0.0000e+00
      1.332      0.009     7.6984     85.176     39.899  37.754823     4.5383      8.714   212.2366 5.6047e+01     9.4169      1.304      1.890    22.0317 0.0000e+00
      1.341      0.005     7.5493     86.897     39.961  37.870412     4.7391      8.714   211.1300 5.5432e+01     9.0011      1.313      1.904    22.0273 0.0000e+00
      1.355     -0.010     7.4284     89.638     40.035  37.958067     4.8469      8.715   210.3915 5.4982e+01     8.7369      1.332      1.932    22.0756 0.0000e+00
      1.361     -0.032     7.3522     92.541     40.085  37.989757     4.8515      8.718   209.5012 5.5155e+01     8.6484      1.342      1.947    22.2023 0.0000e+00
      1.350     -0.059     7.3554     94.783     40.134  37.999722     4.8528      8.720   207.9369 5.6133e+01     8.3745      1.330      1.930    22.3232 0.0000e+00
      1.322     -0.086     7.5027     95.917     40.190  38.015044     4.8620      8.721   206.1046 5.7540e+01     7.8845      1.299      1.885    22.3960 0.0000e+00
      1.287     -0.108     7.7708     95.854     40.256  38.048054     4.8635      8.722   204.7273 5.8912e+01     7.6085      1.261      1.828    22.4175 0.0000e+00
      1.252     -0.122     8.0527     94.813     40.313  38.081510     4.8536      8.723   204.0174 6.0199e+01     7.5996      1.227      1.779    22.3906 0.0000e+00
      1.218     -0.126     8.2683     93.163     40.353  38.102251     4.8340      8.724   203.6305 6.1574e+01     7.5717      1.195      1.733    22.3366 0.0000e+00
      1.187     -0.126     8.3781     91.249     40.382  38.108439     4.7760      8.726   203.2335 6.2936e+01     7.6122      1.163      1.687    22.2838 0.0000e+00
      1.157     -0.124     8.3706     89.378     40.389  38.092840     4.6936      8.728   202.8302 6.4211e+01     7.7487      1.134      1.644    22.2487 0.0000e+00
      1.127     -0.122     8.2702     87.794     40.344  38.040529     4.6539      8.729   202.7117 6.5773e+01     7.7870      1.108      1.605    22.2266 0.0000e+00
      1.096     -0.117     8.1200     86.633     40.272  37.983589     4.6457      8.729   202.7480 6.7726e+01     7.7348      1.077      1.560    22.2070 0.0000e+00
      1.062     -0.105     7.9483     86.037     40.231  37.975504     4.6611      8.729   202.6666 6.9747e+01     7.6295      1.041      1.509    22.1807 0.0000e+00
      1.030     -0.086     7.7810     86.138     40.224  38.006279     4.7069      8.729   202.5011 7.1562e+01     7.5037      1.008      1.461    22.1471 0.0000e+00
      1.004     -0.066     7.6441     86.938     40.231  38.038465     4.7410      8.728   201.9521 7.2736e+01     7.4438      0.980      1.421    22.1285 0.0000e+00
      0.989     -0.050     7.5361     88.258     40.237  38.047417     4.7412      8.726   200.9332 7.2760e+01     7.4179      0.963      1.398    22.1438 0.0000e+00
      0.990     -0.041     7.4721     89.709     40.183  37.987598     4.6589      8.726   199.9898 7.2021e+01     7.5316      0.968      1.404    22.1861 0.0000e+00
      0.997     -0.045     7.4731     90.836     40.071  37.886302     4.5201      8.728   199.3223 7.1444e+01     7.7938      0.982      1.424    22.2450 0.0000e+00
      0.995     -0.059     7.5416     91.446     39.989  37.837956     4.4615      8.731   198.7124 7.1887e+01     7.9919      0.983      1.425    22.2833 0.0000e+00
      0.977     -0.080     7.6694     91.729     39.958  37.847287     4.4914      8.733   197.7775 7.3578e+01     8.0832      0.963      1.397    22.2796 0.0000e+00
      0.944     -0.102     7.8163     92.062     39.955  37.872268     4.6484      8.734   196.7100 7.5738e+01     7.8382      0.928      1.347    22.2570 0.0000e+00
      0.905     -0.114     7.9216     92.659     39.951  37.886218     4.9199      8.735   196.0434 7.7964e+01     7.3179      0.887      1.286    22.2524 0.0000e+00
      0.868     -0.111     7.9598     93.438     39.941  37.889073     5.0690      8.737   195.3103 8.0165e+01     7.0874      0.851      1.233    22.3008 0.0000e+00
      0.833     -0.093     7.9609     94.216     39.950  37.906797     5.1107      8.739   194.1265 8.2284e+01     7.1348      0.815      1.182    22.3605 0.0000e+00
      0.805     -0.067     7.9768     94.909     39.948  37.910165     5.4323      8.740   192.8294 8.3816e+01     7.0377      0.782      1.135    22.3931 0.0000e+00
      0.793     -0.039     8.0308     95.504     39.902  37.866342     6.0033      8.741   190.8114 8.4356e+01     6.7669      0.772      1.121    22.4127 0.0000e+00
      0.795     -0.013     8.1030     95.924     39.854  37.821136     6.3058      8.744   187.8819 8.4418e+01     6.6276      0.779      1.130    22.4258 0.0000e+00
      0.803      0.004     8.1713     96.094     39.829  37.807766     6.3261      8.747   185.4580 8.4156e+01     6.6172      0.788      1.143    22.4378 0.0000e+00
      0.810      0.007     8.2279     96.039     39.829  37.831617     6.3161      8.750   183.9603 8.3726e+01     6.5733      0.794      1.152    22.4470 0.0000e+00
      0.817     -0.010     8.2834     95.921     39.827  37.855721     6.2259      8.753   182.9381 8.3107e+01     6.5752      0.800      1.159    22.4454 0.0000e+00
      0.824     -0.043     8.3242     96.002     39.800  37.845427     6.0507      8.757   182.3904 8.2642e+01     6.6741      0.811      1.176    22.4395 0.0000e+00
      0.820     -0.082     8.3355     96.364     39.780  37.834087     5.9381      8.761   182.0700 8.3493e+01     6.8119      0.814      1.181    22.4501 0.0000e+00
      0.793     -0.119     8.3220     96.854     39.787  37.845538     5.9294      8.765   181.6463 8.6036e+01     6.8756      0.787      1.141    22.4863 0.0000e+00
      0.743     -0.145     8.2936     97.326     39.797  37.856973     6.0697      8.769   181.2245 8.9761e+01     6.7612      0.731      1.060    22.5260 0.0000e+00
      0.683     -0.153     8.2944     97.731     39.785  37.845436     6.3201      8.770   180.9278 9.3827e+01     6.5558      0.669      0.971    22.5432 0.0000e+00
      0.628     -0.139     8.3337     98.094     39.765  37.832964     6.4435      8.769   180.7268 9.7635e+01     6.4081      0.612      0.889    22.5484 0.0000e+00
      0.586     -0.106     8.3781     98.437     39.749  37.833091     6.4540      8.768   180.2562 1.0023e+02     6.3747      0.567      0.822    22.5562 0.0000e+00
      0.564     -0.065     8.4210     98.752     39.734  37.847000     6.6142      8.770   179.1954 1.0096e+02     6.4938      0.545      0.791    22.5582 0.0000e+00
      0.564     -0.025     8.4543     99.141     39.723  37.874253     6.9152      8.771   178.1402 1.0048e+02     6.6524      0.550      0.796    22.5559 0.0000e+00
      0.576      0.007     8.4839     99.805     39.710  37.908842     7.0807      8.772   177.6502 9.9629e+01     6.6871      0.565      0.819    22.5603 0.0000e+00
      0.589      0.028     8.5124    100.827     39.697  37.947993     7.0925      8.774   177.3152 9.8929e+01     6.6738      0.579      0.840    22.5795 0.0000e+00
      0.598      0.034     8.5310    102.153     39.667  37.966960     7.0981      8.777   176.4119 9.8304e+01     6.8340      0.588      0.852    22.6165 0.0000e+00
      0.606      0.023     8.5482    103.696     39.602  37.947866     7.1322      8.781   175.0743 9.7209e+01     7.1549      0.593      0.860    22.6624 0.0000e+00
      0.616     -0.003     8.5929    105.319     39.527  37.907557     7.1640      8.785   173.9621 9.5664e+01     7.3434      0.604      0.876    22.7240 0.0000e+00
      0.625     -0.040     8.6734    106.891     39.467  37.860373     7.1655      8.790   172.9454 9.4498e+01     7.3364      0.617      0.894    22.7945 0.0000e+00
      0.623     -0.082     8.7780    108.235     39.438  37.821578     7.1180      8.796   171.9019 9.5233e+01     7.1725      0.620      0.899    22.8533 0.0000e+00
      0.596     -0.123     8.9074    109.062     39.462  37.819218     7.0471      8.804   171.1531 9.8605e+01     6.9330      0.594      0.863    22.9095 0.0000e+00
      0.543     -0.153     9.0416    109.148     39.503  37.831794     7.0245      8.810   170.7751 1.0352e+02     6.8660      0.536      0.777    22.9571 0.0000e+00
      0.481     -0.165     9.1781    108.528     39.540  37.846687     7.0275      8.815   170.6015 1.0892e+02     6.8753      0.470      0.680    22.9717 0.0000e+00
      0.422     -0.156     9.3074    107.448     39.577  37.872346     7.0251      8.818   170.3448 1.1404e+02     6.8066      0.410      0.595    22.9503 0.0000e+00
      0.375     -0.133     9.3940    106.229     39.590  37.888204     7.1197      8.820   169.8221 1.1767e+02     6.6495      0.361      0.524    22.9129 0.0000e+00
      0.348     -0.108     9.4058    105.159     39.603  37.911514     7.3148      8.824   169.0126 1.1906e+02     6.4444      0.333      0.482    22.8764 0.0000e+00
      0.342     -0.089     9.3489    104.412     39.642  37.963837     7.4358      8.828   168.1298 1.1917e+02     6.3769      0.333      0.483    22.8473 0.0000e+00
      0.342     -0.080     9.2490    104.107     39.672  38.013207     7.4516      8.832   167.4935 1.2028e+02     6.3794      0.341      0.496    22.8344 0.0000e+00
      0.327     -0.075     9.1322    104.279     39.696  38.064282     7.4973      8.836   167.3420 1.2308e+02     6.2695      0.327      0.474    22.8416 0.0000e+00
      0.296     -0.072     9.0341    104.889     39.733  38.137220     7.6133      8.837   167.5885 1.2675e+02     6.1075      0.291      0.422    22.8592 0.0000e+00
      0.261     -0.065     8.9625    105.884     39.746  38.197129     7.6971      8.838   167.8069 1.3015e+02     6.0602      0.253      0.367    22.8760 0.0000e+00
      0.234     -0.052     8.9308    107.206     39.711  38.217598     7.7114      8.841   167.7455 1.3149e+02     6.1074      0.222      0.322    22.9000 0.0000e+00
      0.225     -0.032     8.9425    108.788     39.631  38.194412     7.6115      8.845   167.5345 1.3069e+02     5.9952      0.214      0.311    22.9358 0.0000e+00
      0.231     -0.010     8.9872    110.528     39.560  38.170699     7.4133      8.848   167.3209 1.2949e+02     5.7277      0.227      0.329    22.9814 0.0000e+00
      0.242      0.002     9.0650    112.310     39.544  38.184765     7.3052      8.850   166.8839 1.2836e+02     5.6061      0.239      0.347    23.0415 0.0000e+00
      0.248     -0.002     9.1665    113.965     39.513  38.174160     7.3109      8.853   166.2088 1.2727e+02     5.6871      0.244      0.354    23.1132 0.0000e+00
      0.252     -0.022     9.2932    115.259     39.432  38.105960     7.3577      8.855   165.7823 1.2883e+02     5.8869      0.247      0.358    23.1872 0.0000e+00
      0.253     -0.049     9.4342    116.062     39.387  38.058203     7.4131      8.855   165.6851 1.3536e+02     6.0745      0.253      0.366    23.2458 0.0000e+00
      0.239     -0.075     9.5839    116.393     39.385  38.040920     7.4308      8.855   165.8076 1.4531e+02     6.1115      0.244      0.354    23.2794 0.0000e+00
      0.204     -0.097     9.7309    116.278     39.390  38.023892     7.4304      8.858   166.1458 1.5219e+02     6.0946      0.202      0.292    23.3026 0.0000e+00
      0.163     -0.112     9.8418    115.702     39.430  38.042655     7.5164      8.862   166.2463 1.5870e+02     6.0406      0.155      0.224    23.3195 0.0000e+00
      0.129     -0.117     9.9094    114.789     39.480  38.077389     7.6874      8.866   166.0766 1.7402e+02     5.9371      0.127      0.184    23.3141 0.0000e+00
      0.099     -0.107     9.9400    113.764     39.535  38.126549     7.7763      8.871   165.9005 1.9138e+02     5.8682      0.097      0.141    23.2893 0.0000e+00
      0.070     -0.086     9.9392    112.809     39.592  38.192835     7.7670      8.875   165.7519 2.0450e+02     5.8227      0.066      0.097    23.2611 0.0000e+00
      0.046     -0.064     9.8906    112.100     39.617  38.244295     7.7418      8.875   166.1729 2.1323e+02     5.7962      0.043      0.063    23.2334 0.0000e+00
      0.032     -0.045     9.8074    111.720     39.637  38.304594     7.5881      8.873   167.1193 2.1416e+02     5.9246      0.026      0.038    23.2132 0.0000e+00
      0.031     -0.029     9.7181    111.652     39.634  38.350852     7.3146      8.871   167.7299 2.0750e+02     6.2129      0.028      0.041    23.2070 0.0000e+00
      0.035     -0.018     9.6268    111.873     39.589  38.359471     7.1563      8.868   167.8778 1.9577e+02     6.3780      0.037      0.054    23.2197 0.0000e+00
      0.034     -0.018     9.5569    112.311     39.520  38.345425     7.0893      8.866   167.8744 1.8124e+02     6.3495      0.035      0.051    23.2573 0.0000e+00
      0.029     -0.038     9.5174    112.826     39.434  38.308010     6.6881      8.865   167.7754 1.6873e+02     6.1072      0.028      0.041    23.3103 0.0000e+00
      0.023     -0.084     9.4998    113.272     39.379  38.287909     5.9762      8.866   167.6267 1.6253e+02     5.7032      0.021      0.031    23.3725 0.0000e+00
      0.017     -0.152     9.5083    113.520     39.365  38.292808     5.5892      8.868   167.3664 1.6738e+02     5.4967      0.021      0.031    23.4410 0.0000e+00
     -0.007     -0.229     9.5383    113.515     39.360  38.303817     5.5296      8.871   167.3819 1.9133e+02     5.4539      0.010      0.014    23.5098 0.0000e+00
     -0.072     -0.300     9.5743    113.263     39.395  38.357572     5.3382      8.876   171.8584 2.6201e+02     5.3909     -0.051     -0.073    23.5740 0.0000e+00
     -0.186     -0.351     9.6088    112.783     39.450  38.435142     5.0317      8.882   178.5570 3.7080e+02     5.3836     -0.174     -0.253    23.6181 0.0000e+00
     -0.323     -0.373     9.6285    112.098     39.470  38.480261     4.8778      8.889   177.7364 4.3612e+02     5.4350     -0.320     -0.464    23.6351 0.0000e+00
     -0.452     -0.363     9.6240    111.122     39.422  38.458941     4.8099      8.894   171.7456 4.3257e+02     5.4655     -0.455     -0.660    23.6475 0.0000e+00
     -0.548     -0.322     9.5989    109.780     39.307  38.367763     4.1944      8.899   168.8450 4.0631e+02     5.2743     -0.552     -0.801    23.6764 0.0000e+00
     -0.609     -0.258     9.5488    108.132     38.930  38.012443     3.0794      8.904   170.3697 3.8561e+02     4.8991     -0.601     -0.872    23.7083 0.0000e+00
     -0.654     -0.188     9.4891    106.246     35.308  34.480113     2.4809      8.909   173.7472 3.7289e+02     4.7211     -0.641     -0.930    23.7408 0.0000e+00
     -0.692     -0.128     9.4055    104.319     24.787  24.205519     2.3849      8.913   176.7292 3.6104e+02     4.6587     -0.684     -0.991    23.7769 0.0000e+00
     -0.719     -0.083     9.2811    102.810     12.892  12.586730     1.7509      8.915   178.6339 3.4568e+02     3.6663     -0.712     -1.032    23.8024 0.0000e+00
     -0.729     -0.052     9.1406    102.232      7.087   6.915191     0.6003      8.917   180.1719 3.2342e+02     1.8089     -0.717     -1.041    23.8200 0.0000e+00
     -0.730     -0.029     8.9746    102.624      5.071   4.943925    -0.0247      8.920   181.7299 2.9915e+02     0.8174     -0.716     -1.038    23.8266 0.0000e+00
     -0.730     -0.012     8.7998    103.502      3.804   3.703837    -0.0789      8.924   186.0289 2.8148e+02     0.7992     -0.715     -1.038    23.8191 0.0000e+00
     -0.730     -0.003     8.6540    104.492      3.355   3.261328    -0.0797      8.926   194.5518 2.6574e+02     0.8028     -0.716     -1.039    23.8073 0.0000e+00
     -0.730     -0.001     8.6049    105.360      3.563   3.457817    -0.0844      8.929   200.4616 2.5269e+02     0.7252     -0.716     -1.040    23.7845 0.0000e+00
     -0.730     -0.001     8.6707    105.847      4.181   4.052387    -0.0779      8.932   201.5573 2.4387e+02     0.7148     -0.715     -1.038    23.7368 0.0000e+00
     -0.730     -0.001     8.7642    105.968      4.510   4.368767    -0.0677      8.933   201.6052 2.2693e+02     0.7450     -0.716     -1.038    23.6710 0.0000e+00
     -0.731 -9.990e-29     8.8642 -9.990e-29 -9.990e-29 -9.990e-29 -9.990e-29 -9.990e-29 -9.990e-29 2.0374e+02 -9.990e-29     -0.716     -1.039    23.5908 0.0000e+00
     -0.731 -9.990e-29     8.9647 -9.990e-29 -9.990e-29 -9.990e-29 -9.990e-29 -9.990e-29 -9.990e-29 1.8774e+02 -9.990e-29     -0.717     -1.040    23.5150 0.0000e+00
     -0.731 -9.990e-29     9.0156 -9.990e-29 -9.990e-29 -9.990e-29 -9.990e-29 -9.990e-29 -9.990e-29 1.7888e+02 -9.990e-29     -0.717     -1.040    23.4434 0.0000e+00
     -0.731 -9.990e-29     9.0227 -9.990e-29 -9.990e-29 -9.990e-29 -9.990e-29 -9.990e-29 -9.990e-29 1.7518e+02 -9.990e-29     -0.717     -1.040    23.4019 0.0000e+00
