* Sea-Bird SBE19plus  Data File:
* FileName = C:\R\Reservoirs\Data\DataNotYetUploadedToEDI\Raw_CTD\RawDownloads\061322_bvr01_0004.hex
* Software version 2.8.0.119
* Temperature SN = 7809
* Conductivity SN = 7809
* System UpLoad Time = Jun 14 2022 11:45:59
* <ApplicationData>
* <Seaterm232>
* <SoftwareVersion>2.8.0.119</SoftwareVersion>
* <BuildDate>07-Nov-2018</BuildDate>
* </Seaterm232>
* </ApplicationData>
* <InstrumentState>
* <HardwareData DeviceType='SBE19plus' SerialNumber='01907809'>
*
*    <Manufacturer>Sea-Bird Electronics, Inc.</Manufacturer>
*
*    <FirmwareVersion>3.1.8</FirmwareVersion>
*
*    <FirmwareDate>Mar  9 2016 16:22:29</FirmwareDate>
*
*    <CommandSetVersion>1.4</CommandSetVersion>
*
*    <PCBAssembly PCBSerialNum='120721' AssemblyNum='41054J'/>
*
*    <PCBAssembly PCBSerialNum='120715' AssemblyNum='41967A'/>
*
*    <PCBAssembly PCBSerialNum='116699' AssemblyNum='41606'/>
*
*    <PCBAssembly PCBSerialNum='120719' AssemblyNum='41059D'/>
*
*    <MfgDate>28-Apr-2017</MfgDate>
*
*    <InternalSensors>
*
*       <Sensor id='Main Temperature'>
*
*          <type>temperature0</type>
*
*          <SerialNumber>01907809</SerialNumber>
*
*       </Sensor>
*
*       <Sensor id='Main Conductivity'>
*
*          <type>conductivity-0</type>
*
*          <SerialNumber>01907809</SerialNumber>
*
*       </Sensor>
*
*       <Sensor id='Main Pressure'>
*
*          <type>strain-0</type>
*
*          <SerialNumber>10586018</SerialNumber>
*
*       </Sensor>
*
*    </InternalSensors>
*
*    <ExternalSensors>
*
*       <Sensor id='volt 0'>
*
*          <type>pH</type>
*
*          <SerialNumber>27-0363</SerialNumber>
*
*       </Sensor>
*
*       <Sensor id='volt 1'>
*
*          <type>ORP</type>
*
*          <SerialNumber>27-0363</SerialNumber>
*
*       </Sensor>
*
*       <Sensor id='volt 2'>
*
*          <type>OXY</type>
*
*          <SerialNumber>43-0434</SerialNumber>
*
*       </Sensor>
*
*       <Sensor id='volt 3'>
*
*          <type>PAR</type>
*
*          <SerialNumber>1122</SerialNumber>
*
*       </Sensor>
*
*       <Sensor id='volt 4'>
*
*          <type>ECO AFL/FL</type>
*
*          <SerialNumber>FLNTURT-2496</SerialNumber>
*
*       </Sensor>
*
*       <Sensor id='volt 5'>
*
*          <type>ECO-NTU</type>
*
*          <SerialNumber>FLNTURT-2496</SerialNumber>
*
*       </Sensor>
*
*       <Sensor id='serial'>
*
*          <type>not assigned</type>
*
*          <SerialNumber>not assigned</SerialNumber>
*
*       </Sensor>
*
*    </ExternalSensors>
*
* </HardwareData>
* <StatusData DeviceType='SBE19plus' SerialNumber='01907809'>
*
*    <DateTime>2022-06-14T08:44:16</DateTime>
*
*    <LoggingState>not logging</LoggingState>
*
*    <EventSummary numEvents='0'/>
*
*    <Power>
*
*       <vMain>12.6</vMain>
*
*       <vLith>8.5</vLith>
*
*       <iMain>63.2</iMain>
*
*       <iPump>152.9</iPump>
*
*       <iExt01>20.4</iExt01>
*
*       <iExt2345>37.5</iExt2345>
*
*    </Power>
*
*    <MemorySummary>
*
*       <Bytes>105087</Bytes>
*
*       <Samples>4569</Samples>
*
*       <SamplesFree>2856219</SamplesFree>
*
*       <SampleLength>23</SampleLength>
*
*       <Profiles>5</Profiles>
*
*    </MemorySummary>
*
* </StatusData>
* <ConfigurationData DeviceType='SBE19plus' SerialNumber='01907809'>
*
*    <ProfileMode>
*
*       <ScansToAverage>1</ScansToAverage>
*
*       <MinimumCondFreq>5</MinimumCondFreq>
*
*       <PumpDelay>40</PumpDelay>
*
*       <AutoRun>no</AutoRun>
*
*       <IgnoreSwitch>no</IgnoreSwitch>
*
*    </ProfileMode>
*
*    <Battery>
*
*       <Type>alkaline</Type>
*
*       <CutOff>7.5</CutOff>
*
*    </Battery>
*
*    <DataChannels>
*
*       <ExtVolt0>yes</ExtVolt0>
*
*       <ExtVolt1>yes</ExtVolt1>
*
*       <ExtVolt2>yes</ExtVolt2>
*
*       <ExtVolt3>yes</ExtVolt3>
*
*       <ExtVolt4>yes</ExtVolt4>
*
*       <ExtVolt5>yes</ExtVolt5>
*
*       <SBE38>no</SBE38>
*
*       <WETLABS>no</WETLABS>
*
*       <OPTODE>no</OPTODE>
*
*       <SBE63>no</SBE63>
*
*       <SeaFET>no</SeaFET>
*
*       <GTD>no</GTD>
*
*    </DataChannels>
*
*    <EchoCharacters>yes</EchoCharacters>
*
*    <OutputExecutedTag>yes</OutputExecutedTag>
*
*    <OutputFormat>raw HEX</OutputFormat>
*
* </ConfigurationData>
* <CalibrationCoefficients DeviceType='SBE19plus' SerialNumber='01907809'>
*
*    <Calibration format='TEMP1' id='Main Temperature'>
*
*       <SerialNum>01907809</SerialNum>
*
*       <CalDate>25-Sep-21</CalDate>
*
*       <TA0>1.232513e-03</TA0>
*
*       <TA1>2.763223e-04</TA1>
*
*       <TA2>-9.501887e-07</TA2>
*
*       <TA3>1.718014e-07</TA3>
*
*       <TOFFSET>0.000000e+00</TOFFSET>
*
*    </Calibration>
*
*    <Calibration format='WBCOND0' id='Main Conductivity'>
*
*       <SerialNum>01907809</SerialNum>
*
*       <CalDate>25-Sep-21</CalDate>
*
*       <G>-1.004440e+00</G>
*
*       <H>1.264604e-01</H>
*
*       <I>-7.854363e-05</I>
*
*       <J>2.210938e-05</J>
*
*       <CPCOR>-9.570000e-08</CPCOR>
*
*       <CTCOR>3.250000e-06</CTCOR>
*
*       <CSLOPE>1.000000e+00</CSLOPE>
*
*    </Calibration>
*
*    <Calibration format='STRAIN0' id='Main Pressure'>
*
*       <SerialNum>10586018</SerialNum>
*
*       <CalDate>10-Sep-21</CalDate>
*
*       <PA0>4.789196e-02</PA0>
*
*       <PA1>4.853655e-04</PA1>
*
*       <PA2>-3.689276e-12</PA2>
*
*       <PTCA0>5.254946e+05</PTCA0>
*
*       <PTCA1>1.325193e+01</PTCA1>
*
*       <PTCA2>-3.889275e-01</PTCA2>
*
*       <PTCB0>2.516687e+01</PTCB0>
*
*       <PTCB1>3.750000e-04</PTCB1>
*
*       <PTCB2>0.000000e+00</PTCB2>
*
*       <PTEMPA0>-5.401644e+01</PTEMPA0>
*
*       <PTEMPA1>5.390655e+01</PTEMPA1>
*
*       <PTEMPA2>-2.194112e-02</PTEMPA2>
*
*       <POFFSET>-1.280000e-01</POFFSET>
*
*       <PRANGE>1.600000e+02</PRANGE>
*
*    </Calibration>
*
*    <Calibration format='VOLT0' id='Volt 0'>
*
*       <OFFSET>-4.920000e-02</OFFSET>
*
*       <SLOPE>1.248122e+00</SLOPE>
*
*    </Calibration>
*
*    <Calibration format='VOLT0' id='Volt 1'>
*
*       <OFFSET>-4.784000e-02</OFFSET>
*
*       <SLOPE>1.248871e+00</SLOPE>
*
*    </Calibration>
*
*    <Calibration format='VOLT0' id='Volt 2'>
*
*       <OFFSET>-4.864632e-02</OFFSET>
*
*       <SLOPE>1.248714e+00</SLOPE>
*
*    </Calibration>
*
*    <Calibration format='VOLT0' id='Volt 3'>
*
*       <OFFSET>-4.743790e-02</OFFSET>
*
*       <SLOPE>1.248571e+00</SLOPE>
*
*    </Calibration>
*
*    <Calibration format='VOLT0' id='Volt 4'>
*
*       <OFFSET>-4.671263e-02</OFFSET>
*
*       <SLOPE>1.248951e+00</SLOPE>
*
*    </Calibration>
*
*    <Calibration format='VOLT0' id='Volt 5'>
*
*       <OFFSET>-4.871053e-02</OFFSET>
*
*       <SLOPE>1.249136e+00</SLOPE>
*
*    </Calibration>
*
*    <Calibration format='FREQ0' id='external frequency channel'>
*
*       <EXTFREQSF>1.000014e+00</EXTFREQSF>
*
*    </Calibration>
*
* </CalibrationCoefficients>
* <EventCounters DeviceType='SBE19plus' SerialNumber='01907809'>
*
*    <EventSummary numEvents='0'/>
*
* </EventCounters></InstrumentState>
* <Headers>
*
* cast   4 13 Jun 2022 09:45:55 samples 2536 to 3305, avg = 1, stop = mag switch
*
# nquan = 15
# nvalues = 770                         
# units = specified
# name 0 = depFM: Depth [fresh water, m]
# name 1 = dz/dtM: Descent Rate [m/s]
# name 2 = sbeox0Mg/L: Oxygen, SBE 43 [mg/l]
# name 3 = sbeox0PS: Oxygen, SBE 43 [% saturation]
# name 4 = specc: Specific Conductance [uS/cm]
# name 5 = c0uS/cm: Conductivity [uS/cm]
# name 6 = flECO-AFL: Fluorescence, WET Labs ECO-AFL/FL [mg/m^3]
# name 7 = ph: pH
# name 8 = orp: Oxidation Reduction Potential [mV]
# name 9 = par/sat/log: PAR/Logarithmic, Satlantic
# name 10 = turbWETntu0: Turbidity, WET Labs ECO [NTU]
# name 11 = prdM: Pressure, Strain Gauge [db]
# name 12 = prdE: Pressure, Strain Gauge [psi]
# name 13 = tv290C: Temperature [ITS-90, deg C]
# name 14 = flag:  0.000e+00
# span 0 =     -0.714,      8.535       
# span 1 =     -0.393,      0.175       
# span 2 =     0.0455,     9.7930       
# span 3 =      0.426,    122.308       
# span 4 =      1.009,    108.389       
# span 5 =   0.914194,  74.433957       
# span 6 =    -1.6197,     6.1853       
# span 7 =      7.222,      9.758       
# span 8 =  -171.2608,   177.2053       
# span 9 = 1.2330e-01, 2.1884e+03       
# span 10 =    -4.0209,    42.8319      
# span 11 =     -0.701,      8.370      
# span 12 =     -1.016,     12.140      
# span 13 =     9.3264,    27.0643      
# span 14 = 0.0000e+00, 0.0000e+00      
# interval = seconds: 0.25
# start_time = Jun 13 2022 09:45:55 [Instrument's time stamp, header]
# bad_flag = -9.990e-29
# <Sensors count="9" >
#   <sensor Channel="1" >
#     <!-- Count, Temperature -->
#     <TemperatureSensor SensorID="58" >
#       <SerialNumber>7809</SerialNumber>
#       <CalibrationDate>25-Sep-21</CalibrationDate>
#       <A0>1.23251324e-003</A0>
#       <A1>2.76322262e-004</A1>
#       <A2>-9.50188734e-007</A2>
#       <A3>1.71801404e-007</A3>
#       <Slope>1.00000000</Slope>
#       <Offset>0.0000</Offset>
#     </TemperatureSensor>
#   </sensor>
#   <sensor Channel="2" >
#     <!-- Frequency 0, Conductivity -->
#     <ConductivitySensor SensorID="3" >
#       <SerialNumber>7809</SerialNumber>
#       <CalibrationDate>25-Sep-21</CalibrationDate>
#       <UseG_J>1</UseG_J>
#       <!-- Cell const and series R are applicable only for wide range sensors. -->
#       <SeriesR>0.0000</SeriesR>
#       <CellConst>2000.0000</CellConst>
#       <ConductivityType>0</ConductivityType>
#       <Coefficients equation="0" >
#         <A>0.00000000e+000</A>
#         <B>0.00000000e+000</B>
#         <C>0.00000000e+000</C>
#         <D>0.00000000e+000</D>
#         <M>0.0</M>
#         <CPcor>-9.57000000e-008</CPcor>
#       </Coefficients>
#       <Coefficients equation="1" >
#         <G>-1.00443970e+000</G>
#         <H>1.26460406e-001</H>
#         <I>-7.85436262e-005</I>
#         <J>2.21093811e-005</J>
#         <CPcor>-9.57000000e-008</CPcor>
#         <CTcor>3.2500e-006</CTcor>
#         <!-- WBOTC not applicable unless ConductivityType = 1. -->
#         <WBOTC>0.00000000e+000</WBOTC>
#       </Coefficients>
#       <Slope>1.00000000</Slope>
#       <Offset>0.00000</Offset>
#     </ConductivitySensor>
#   </sensor>
#   <sensor Channel="3" >
#     <!-- Count, Pressure, Strain Gauge -->
#     <PressureSensor SensorID="46" >
#       <SerialNumber>7809</SerialNumber>
#       <CalibrationDate>10-Sep-21</CalibrationDate>
#       <PA0>4.78919585e-002</PA0>
#       <PA1>4.85365526e-004</PA1>
#       <PA2>-3.68927597e-012</PA2>
#       <PTEMPA0>-5.40164371e+001</PTEMPA0>
#       <PTEMPA1>5.39065456e+001</PTEMPA1>
#       <PTEMPA2>-2.19411190e-002</PTEMPA2>
#       <PTCA0>5.25494622e+005</PTCA0>
#       <PTCA1>1.32519328e+001</PTCA1>
#       <PTCA2>-3.88927502e-001</PTCA2>
#       <PTCB0>2.51668750e+001</PTCB0>
#       <PTCB1>3.75000000e-004</PTCB1>
#       <PTCB2>0.00000000e+000</PTCB2>
#       <Offset>0.000000</Offset>
#     </PressureSensor>
#   </sensor>
#   <sensor Channel="4" >
#     <!-- A/D voltage 0, Oxygen, SBE 43 -->
#     <OxygenSensor SensorID="38" >
#       <SerialNumber>0434</SerialNumber>
#       <CalibrationDate>25-Sep-21</CalibrationDate>
#       <Use2007Equation>1</Use2007Equation>
#       <CalibrationCoefficients equation="0" >
#         <!-- Coefficients for Owens-Millard equation. -->
#         <Boc>0.0000</Boc>
#         <Soc>0.0000e+000</Soc>
#         <offset>0.0000</offset>
#         <Pcor>0.00e+000</Pcor>
#         <Tcor>0.0000</Tcor>
#         <Tau>0.0</Tau>
#       </CalibrationCoefficients>
#       <CalibrationCoefficients equation="1" >
#         <!-- Coefficients for Sea-Bird equation - SBE calibration in 2007 and later. -->
#         <Soc>4.7287e-001</Soc>
#         <offset>-0.5046</offset>
#         <A>-3.6094e-003</A>
#         <B> 1.1544e-004</B>
#         <C>-1.3802e-006</C>
#         <D0> 2.5826e+000</D0>
#         <D1> 1.92634e-004</D1>
#         <D2>-4.64803e-002</D2>
#         <E> 3.6000e-002</E>
#         <Tau20> 0.7700</Tau20>
#         <H1>-3.3000e-002</H1>
#         <H2> 5.0000e+003</H2>
#         <H3> 1.4500e+003</H3>
#       </CalibrationCoefficients>
#     </OxygenSensor>
#   </sensor>
#   <sensor Channel="5" >
#     <!-- A/D voltage 1, PAR/Logarithmic, Satlantic -->
#     <PARLog_SatlanticSensor SensorID="76" >
#       <SerialNumber>1122</SerialNumber>
#       <CalibrationDate>08-Sep-2021</CalibrationDate>
#       <a0>9.6751e-001</a0>
#       <a1>8.0992e-001</a1>
#       <Im>1.3589e+000</Im>
#       <Multiplier>1.0000e+000</Multiplier>
#     </PARLog_SatlanticSensor>
#   </sensor>
#   <sensor Channel="6" >
#     <!-- A/D voltage 2, pH -->
#     <pH_Sensor SensorID="43" >
#       <SerialNumber>0363</SerialNumber>
#       <CalibrationDate>16-Sep-21</CalibrationDate>
#       <Slope>4.5144</Slope>
#       <Offset>2.4957</Offset>
#     </pH_Sensor>
#   </sensor>
#   <sensor Channel="7" >
#     <!-- A/D voltage 3, Oxidation Reduction Potential -->
#     <OxidationReductionPotentialSensor SensorID="41" >
#       <SerialNumber>0363</SerialNumber>
#       <CalibrationDate>16-Sep-21</CalibrationDate>
#       <B>2.499480</B>
#       <M>-0.496195</M>
#       <Offset>0.0</Offset>
#     </OxidationReductionPotentialSensor>
#   </sensor>
#   <sensor Channel="8" >
#     <!-- A/D voltage 4, Fluorometer, WET Labs ECO-AFL/FL -->
#     <FluoroWetlabECO_AFL_FL_Sensor SensorID="20" >
#       <SerialNumber>FLNTURT-2496</SerialNumber>
#       <CalibrationDate>02-Sep-2021</CalibrationDate>
#       <ScaleFactor>4.80000000e+001</ScaleFactor>
#       <!-- Dark output -->
#       <Vblank>0.0550</Vblank>
#     </FluoroWetlabECO_AFL_FL_Sensor>
#   </sensor>
#   <sensor Channel="9" >
#     <!-- A/D voltage 5, Turbidity Meter, WET Labs, ECO-NTU -->
#     <TurbidityMeter SensorID="67" >
#       <SerialNumber>FLNTURT-2496</SerialNumber>
#       <CalibrationDate>02-Sep-2021</CalibrationDate>
#       <ScaleFactor>197.000000</ScaleFactor>
#       <!-- Dark output -->
#       <DarkVoltage>0.070000</DarkVoltage>
#     </TurbidityMeter>
#   </sensor>
# </Sensors>
# datcnv_date = Jun 14 2022 12:50:06, 7.26.7.129 [datcnv_vars = 14]
# datcnv_in = C:\R\Reservoirs\Data\DataNotYetUploadedToEDI\Raw_CTD\RawDownloads\061322_bvr50_0004.hex C:\R\Reservoirs\Data\DataNotYetUploadedToEDI\Raw_CTD\SBE19plusV2_7809.xmlcon
# datcnv_skipover = 0
# datcnv_ox_hysteresis_correction = yes
# datcnv_ox_tau_correction = yes
# filter_date = Jun 14 2022 12:50:34, 7.26.7.129
# filter_in = C:\R\Reservoirs\Data\DataNotYetUploadedToEDI\Raw_CTD\RawDownloads\061322_bvr50_0004.cnv
# filter_low_pass_tc_A = 0.030
# filter_low_pass_tc_B = 0.150
# filter_low_pass_A_vars = sbeox0Mg/L prdM prdE tv290C
# filter_low_pass_B_vars = depFM dz/dtM sbeox0PS specc c0uS/cm flECO-AFL ph orp par/sat/log turbWETntu0
# alignctd_date = Jun 14 2022 12:51:01, 7.26.7.129
# alignctd_in = C:\R\Reservoirs\Data\DataNotYetUploadedToEDI\Raw_CTD\RawDownloads\061322_bvr50_0004.cnv
# alignctd_adv = dz/dtM 1.000, sbeox0PS 1.000, specc 1.000, c0uS/cm 1.000, flECO-AFL 1.000, ph 1.000, orp 1.000, turbWETntu0 1.000                                                                                                   
# file_type = ascii
*END*
     -0.714 2.6634e-16     6.0304     67.618      1.050   0.953280    -0.0869      8.531   177.2053 1.6819e+02    -0.4649     -0.701     -1.016    20.6037 0.0000e+00
     -0.714 2.9302e-15     6.0438     67.755      1.047   0.950407    -0.1026      8.530   165.3319 1.6809e+02    -0.4693     -0.700     -1.015    20.5592 0.0000e+00
     -0.714 3.2232e-14     6.0586     67.870      1.010   0.915761    -0.1144      8.529   155.5448 1.6814e+02    -0.4375     -0.700     -1.015    20.5080 0.0000e+00
     -0.714 3.5456e-13     6.0774     67.954      1.009   0.914194    -0.1134      8.529   144.2211 1.6774e+02    -0.4215     -0.700     -1.016    20.4628 0.0000e+00
     -0.714 3.9001e-12     6.0984     68.024      1.029   0.931457    -0.1066      8.530   129.6866 1.6685e+02    -0.4131     -0.701     -1.016    20.4156 0.0000e+00
     -0.714 4.2901e-11     6.1151     68.107      1.034   0.934584    -0.0990      8.531   119.0205 1.6638e+02    -0.4036     -0.700     -1.015    20.3706 0.0000e+00
     -0.714 4.7192e-10     6.1327     68.195      1.054   0.951990    -0.0881      8.530   113.1707 1.6661e+02    -0.3758     -0.700     -1.015    20.3246 0.0000e+00
     -0.714 5.1911e-09     6.1444     68.270      1.055   0.952007    -0.0909      8.529   108.1722 1.6703e+02    -0.3839     -0.700     -1.015    20.2802 0.0000e+00
     -0.714 5.7102e-08     6.1551     68.355      1.037   0.934796    -0.0998      8.528   103.4099 1.6696e+02    -0.4333     -0.700     -1.015    20.2356 0.0000e+00
     -0.714 6.2812e-07     6.1680     68.445      1.037   0.933794    -0.0874      8.527   102.3956 1.6491e+02    -0.4268     -0.700     -1.015    20.1922 0.0000e+00
     -0.714      0.000     6.1833     68.515      1.044   0.939894    -0.0751      8.518   131.3565 1.6128e+02    -0.3732     -0.700     -1.015    20.1487 0.0000e+00
     -0.714      0.000     6.1929     68.575      1.192   1.071841    -0.0838      8.511   146.0688 1.5648e+02    -0.3667     -0.700     -1.015    20.1069 0.0000e+00
     -0.714      0.001     6.2063     68.632      2.536   2.275956    -0.1016      8.549   101.2336 1.5504e+02    -0.4167     -0.700     -1.015    20.0636 0.0000e+00
     -0.713      0.004     6.2217     68.707      7.046   6.319164    -0.0983      8.648    78.9075 1.8397e+02    -0.4311     -0.700     -1.015    20.0241 0.0000e+00
     -0.713      0.011     6.2312     68.785     12.926  11.586680    -0.0357      8.763    86.4914 2.2251e+02    -0.4720     -0.700     -1.015    19.9799 0.0000e+00
     -0.713      0.023     6.2426     68.831     14.105  12.644660     0.4304      8.860    77.0347 2.2808e+02    -1.2525     -0.700     -1.014    19.9427 0.0000e+00
     -0.711      0.040     6.2518     68.846     16.227  14.614333     1.2594      8.939    67.0400 2.3657e+02    -2.6614     -0.699     -1.015    19.8933 0.0000e+00
     -0.701      0.063     6.2629     68.836     25.657  23.476603     1.7145      9.003    63.6460 2.6491e+02    -3.3985     -0.691     -1.002    19.8666 0.0000e+00
     -0.683      0.088     6.2795     68.804     32.160  30.206173     1.7212      9.052    62.3258 3.7594e+02    -3.5028     -0.671     -0.973    19.8071 0.0000e+00
     -0.656      0.110     6.2825     68.796     32.606  31.608573     1.2662      9.092    61.3164 5.2811e+02    -3.6841     -0.649     -0.941    19.8085 0.0000e+00
     -0.619      0.128     6.2952     68.854     32.358  32.129633     0.4328      9.126    60.3024 7.9604e+02    -3.9162     -0.611     -0.885    19.7156 0.0000e+00
     -0.576      0.140     6.2443     69.024     32.161  32.449873    -0.0072      9.157    59.1004 1.2516e+03    -4.0209     -0.563     -0.817    20.1245 0.0000e+00
     -0.536      0.145     6.0282     69.480     31.971  32.628356    -0.0261      9.181    56.6779 1.5238e+03    -3.9592     -0.525     -0.760    21.8848 0.0000e+00
     -0.500      0.143     5.8235     70.503     31.771  32.703204     0.0051      9.194    53.2969 1.5843e+03    -3.5462     -0.491     -0.712    23.6737 0.0000e+00
     -0.465      0.134     5.7115     72.272     31.606  32.721265     0.3864      9.206    51.5182 1.7523e+03     1.0072     -0.457     -0.663    24.7658 0.0000e+00
     -0.429      0.122     5.6420     74.887     31.501  32.720218     1.1135      9.224    52.1217 2.0429e+03     9.4887     -0.419     -0.608    25.5202 0.0000e+00
     -0.396      0.112     5.6130     78.360     31.421  32.690709     1.5220      9.248    53.2802 2.1884e+03    14.2206     -0.386     -0.560    26.0586 0.0000e+00
     -0.370      0.107     5.6450     82.485     31.332  32.618152     1.5722      9.275    53.5659 1.8326e+03    14.6318     -0.362     -0.524    26.5162 0.0000e+00
     -0.350      0.110     5.7559     86.871     31.191  32.476962     1.6199      9.301    53.4244 1.2585e+03    13.4359     -0.341     -0.496    26.8059 0.0000e+00
     -0.331      0.120     5.9435     90.749     30.915  32.188191     1.7002      9.321    54.5818 1.3710e+03    11.1355     -0.325     -0.472    26.9569 0.0000e+00
     -0.307      0.135     6.2232     93.414     30.601  31.852795     1.7612      9.336    57.7511 1.9595e+03     9.8760     -0.307     -0.445    27.0343 0.0000e+00
     -0.270      0.147     6.5533     94.724     30.433  31.655009     1.7830      9.350    61.1141 2.0152e+03     9.7876     -0.271     -0.392    27.0507 0.0000e+00
     -0.218      0.154     6.9281     94.719     30.401  31.571876     1.8051      9.369    62.7205 1.6755e+03     9.9985     -0.214     -0.312    27.0558 0.0000e+00
     -0.163      0.152     7.2635     93.542     30.440  31.544927     1.8455      9.390    63.3215 1.6473e+03    10.3075     -0.157     -0.227    27.0598 0.0000e+00
     -0.118      0.141     7.4732     91.573     30.472  31.519261     1.8639      9.405    64.2510 1.7375e+03    10.4160     -0.110     -0.159    27.0402 0.0000e+00
     -0.086      0.120     7.5810     89.235     30.444  31.451641     1.8601      9.417    65.4413 1.4630e+03    10.4220     -0.082     -0.119    27.0219 0.0000e+00
     -0.064      0.091     7.5906     86.823     30.433  31.424646     1.8408      9.428    66.5277 1.0668e+03    10.2768     -0.063     -0.091    26.9312 0.0000e+00
     -0.045      0.062     7.5019     84.559     30.509  31.509820     1.7980      9.440    67.6641 1.0155e+03     9.9249     -0.043     -0.061    26.7975 0.0000e+00
     -0.032      0.039     7.3435     82.571     30.575  31.593934     1.7673      9.450    69.1156 1.2359e+03     9.7197     -0.028     -0.039    26.7022 0.0000e+00
     -0.027      0.023     7.1584     80.860     30.533  31.554124     1.7525      9.458    70.6553 1.3349e+03     9.7086     -0.024     -0.035    26.6367 0.0000e+00
     -0.029      0.013     6.9616     79.387     30.467  31.472278     1.7350      9.464    72.1703 1.3289e+03     9.6891     -0.029     -0.042    26.6082 0.0000e+00
     -0.031      0.006     6.7734     78.128     30.439  31.428477     1.7143      9.469    73.6661 1.3335e+03     9.5859     -0.033     -0.047    26.6259 0.0000e+00
     -0.031      0.003     6.6105     77.110     30.482  31.468277     1.7022      9.474    74.8887 1.2972e+03     9.4859     -0.031     -0.045    26.6693 0.0000e+00
     -0.028      0.003     6.4724     76.402     30.641  31.636506     1.6963      9.477    75.7670 1.3542e+03     9.4696     -0.027     -0.040    26.6822 0.0000e+00
     -0.026      0.003     6.3606     76.102     30.803  31.814198     1.6925      9.480    76.3702 1.3988e+03     9.4571     -0.025     -0.037    26.6434 0.0000e+00
     -0.024      0.003     6.2617     76.184     30.880  31.905034     1.6978      9.484    76.8481 1.2908e+03     9.5401     -0.024     -0.035    26.6105 0.0000e+00
     -0.024      0.003     6.1795     76.427     30.877  31.910657     1.6942      9.486    77.1575 1.2053e+03     9.7556     -0.024     -0.035    26.6054 0.0000e+00
     -0.025      0.004     6.1175     76.605     30.787  31.818795     1.6825      9.487    77.5298 1.1920e+03     9.8775     -0.025     -0.036    26.6134 0.0000e+00
     -0.026      0.008     6.0906     76.606     30.662  31.681907     1.6899      9.492    78.5959 1.2230e+03     9.9200     -0.026     -0.039    26.6338 0.0000e+00
     -0.027      0.013     6.1032     76.360     30.582  31.586886     1.7330      9.500    80.2398 1.1417e+03    10.0300     -0.028     -0.040    26.6563 0.0000e+00
     -0.024      0.020     6.1287     75.954     30.500  31.494051     1.7958      9.508    82.0046 8.0558e+02    10.1834     -0.025     -0.036    26.6716 0.0000e+00
     -0.016      0.027     6.1437     75.723     30.340  31.320181     1.8249      9.513    83.6726 4.7839e+02    10.2371     -0.016     -0.023    26.6745 0.0000e+00
     -0.005      0.031     6.1482     75.859     30.239  31.196328     1.8194      9.518    85.0067 3.3811e+02    10.2012     -0.005     -0.007    26.6589 0.0000e+00
      0.005      0.031     6.1329     76.261     30.328  31.264444     1.8700      9.523    85.9172 2.9070e+02    10.2616      0.004      0.006    26.6302 0.0000e+00
      0.016      0.026     6.0854     76.784     30.517  31.446378     1.9884      9.527    86.5939 2.7027e+02    10.3865      0.017      0.024    26.6223 0.0000e+00
      0.025      0.019     6.0618     77.403     30.683  31.620954     2.0608      9.532    87.3378 2.4858e+02    10.4477      0.028      0.040    26.6194 0.0000e+00
      0.028      0.009     6.0824     78.142     30.771  31.726928     2.0540      9.537    88.2005 2.3670e+02    10.4207      0.030      0.043    26.5804 0.0000e+00
      0.027      0.001     6.1250     78.872     30.803  31.776773     1.9470      9.544    88.9370 2.3794e+02    10.1287      0.027      0.038    26.5310 0.0000e+00
      0.024     -0.004     6.1709     79.337     30.794  31.779864     1.7826      9.553    89.4460 2.4330e+02     9.6498      0.022      0.033    26.5042 0.0000e+00
      0.019     -0.004     6.2156     79.340     30.714  31.700931     1.7147      9.561    89.7945 2.4855e+02     9.3783      0.019      0.027    26.5151 0.0000e+00
      0.015      0.001     6.2760     78.877     30.611  31.583167     1.7168      9.568    90.0525 2.4776e+02     9.3062      0.014      0.020    26.5489 0.0000e+00
      0.013      0.008     6.3392     78.041     30.556  31.497120     1.7825      9.574    90.5006 2.4125e+02     9.4606      0.011      0.017    26.5785 0.0000e+00
      0.017      0.015     6.3819     76.951     30.511  31.421262     1.9351      9.579    91.2556 2.3048e+02     9.8785      0.015      0.022    26.5976 0.0000e+00
      0.026      0.020     6.3795     75.827     30.470  31.363287     2.0309      9.581    92.0386 2.1915e+02    10.1924      0.026      0.037    26.6068 0.0000e+00
      0.036      0.022     6.3401     74.916     30.533  31.430082     2.0418      9.581    92.6551 2.1006e+02    10.2491      0.036      0.052    26.5938 0.0000e+00
      0.045      0.021     6.2790     74.465     30.677  31.594913     2.0331      9.582    92.8601 2.0400e+02    10.1883      0.044      0.065    26.5332 0.0000e+00
      0.050      0.018     6.1896     74.627     30.762  31.707956     2.0093      9.584    91.5916 2.0260e+02    10.0728      0.050      0.073    26.4742 0.0000e+00
      0.050      0.017     6.0955     75.259     30.753  31.719174     1.9786      9.585    77.7477 2.0431e+02     9.9111      0.049      0.071    26.4513 0.0000e+00
      0.049      0.020     6.0150     75.977     30.568  31.540388     1.9536      9.584    51.7806 2.0654e+02     9.8050      0.047      0.069    26.4521 0.0000e+00
      0.052      0.026     5.9686     76.454     30.108  31.067801     1.9312      9.579    36.1735 2.0821e+02     9.7465      0.049      0.072    26.4833 0.0000e+00
      0.060      0.029     5.9803     76.570     29.564  30.506247     1.9075      9.573    33.1595 2.0934e+02     9.6815      0.057      0.082    26.5355 0.0000e+00
      0.072      0.024     6.0413     76.333     29.278  30.202614     1.8925      9.569    32.2884 2.1759e+02     9.7025      0.068      0.099    26.5696 0.0000e+00
      0.088      0.008     6.1067     75.828     29.296  30.185913     1.8913      9.568    33.1261 2.5380e+02     9.7613      0.086      0.125    26.5909 0.0000e+00
      0.101     -0.018     6.1469     75.275     29.456  30.304253     1.8838      9.570    46.5568 3.7683e+02     9.7442      0.106      0.152    26.5890 0.0000e+00
      0.097     -0.054     6.1569     75.025     29.726  30.555700     1.8444      9.577    72.8469 5.5164e+02     9.5973      0.103      0.149    26.5832 0.0000e+00
      0.075     -0.094     6.1336     75.207     30.100  30.943930     1.7889      9.587    89.6095 7.9299e+02     9.3862      0.078      0.113    26.5991 0.0000e+00
      0.039     -0.132     6.0974     75.665     30.387  31.258050     1.7629      9.598    93.4152 1.1735e+03     9.3089      0.043      0.062    26.5217 0.0000e+00
     -0.006     -0.160     6.0502     76.279     30.360  31.247375     1.7621      9.607    94.4263 1.4438e+03     9.3459     -0.002     -0.004    26.4143 0.0000e+00
     -0.059     -0.176     6.0298     76.983     29.925  30.814890     1.7459      9.608    95.1241 1.6259e+03     9.4249     -0.058     -0.083    26.3721 0.0000e+00
     -0.112     -0.183     6.0535     77.797     29.323  30.212965     1.7171      9.607    97.2911 1.9088e+03     9.5462     -0.112     -0.161    26.3843 0.0000e+00
     -0.160     -0.187     6.0854     78.747     29.071  29.928570     1.6971      9.613   100.4951 1.9286e+03     9.6504     -0.159     -0.230    26.4305 0.0000e+00
     -0.201     -0.187     6.1353     79.705     29.287  30.038784     1.6880      9.623   102.9741 1.7686e+03     9.7289     -0.198     -0.288    26.4598 0.0000e+00
     -0.242     -0.178     6.1906     80.538     29.660  30.277537     1.6805      9.632   104.6370 1.8473e+03     9.6416     -0.234     -0.339    26.4670 0.0000e+00
     -0.292     -0.158     6.2439     81.120     29.870  30.406175     1.6565      9.637   105.8875 1.9598e+03     9.3801     -0.283     -0.411    26.5309 0.0000e+00
     -0.347     -0.129     6.3266     81.305     29.742  30.262759     1.6390      9.636   106.7374 1.9777e+03     9.2657     -0.344     -0.500    26.5471 0.0000e+00
     -0.392     -0.097     6.4341     81.001     29.393  29.938118     1.6448      9.634   107.6856 2.0093e+03     9.3175     -0.395     -0.573    26.3001 0.0000e+00
     -0.410     -0.063     6.5419     80.230     29.138  29.714033     1.6426      9.634   108.6621 2.0531e+03     9.3226     -0.412     -0.597    25.9851 0.0000e+00
     -0.405     -0.032     6.6113     79.156     29.073  29.645358     1.6287      9.636   109.1661 2.0904e+03     9.4292     -0.400     -0.579    25.8449 0.0000e+00
     -0.393     -0.009     6.6284     78.007     29.093  29.614894     1.6269      9.639   109.4771 2.1048e+03     9.7196     -0.382     -0.553    25.8471 0.0000e+00
     -0.386      0.005     6.5963     77.000     29.141  29.599176     1.6384      9.642   109.9280 2.1069e+03     9.9298     -0.375     -0.543    25.9124 0.0000e+00
     -0.388      0.008     6.5160     76.275     29.175  29.581992     1.6507      9.646   110.4020 2.1068e+03     9.9900     -0.379     -0.551    26.0123 0.0000e+00
     -0.393      0.006     6.4211     75.854     29.165  29.533824     1.6837      9.648   111.0785 2.1048e+03     9.8662     -0.387     -0.561    26.0214 0.0000e+00
     -0.395      0.003     6.3364     75.705     29.120  29.460463     1.7296      9.649   111.9121 2.1064e+03     9.5945     -0.390     -0.565    25.8912 0.0000e+00
     -0.392      0.002     6.2640     75.780     29.075  29.392235     1.7477      9.650   112.6510 2.1141e+03     9.4375     -0.386     -0.560    25.7667 0.0000e+00
     -0.387      0.002     6.2146     75.943     29.047  29.342764     1.7527      9.652   113.2151 2.1198e+03     9.4368     -0.378     -0.550    25.6833 0.0000e+00
     -0.383      0.000     6.1889     76.015     29.030  29.306007     1.7567      9.655   113.5708 2.1222e+03     9.5173     -0.375     -0.544    25.6206 0.0000e+00
     -0.383     -0.004     6.1818     75.877     29.008  29.264735     1.7467      9.658   114.0260 2.1229e+03     9.6263     -0.374     -0.543    25.5759 0.0000e+00
     -0.387     -0.009     6.1969     75.481     28.986  29.224052     1.7401      9.661   114.7612 2.1182e+03     9.6952     -0.378     -0.548    25.5378 0.0000e+00
     -0.393     -0.013     6.2201     74.828     28.972  29.194424     1.7439      9.664   115.5777 2.1097e+03     9.7357     -0.385     -0.559    25.5030 0.0000e+00
     -0.398     -0.015     6.2330     73.937     28.951  29.160048     1.7514      9.668   116.4117 2.1043e+03     9.7055     -0.391     -0.568    25.4681 0.0000e+00
     -0.402     -0.015     6.2271     72.874     28.927  29.125335     1.7554      9.671   117.2738 2.1037e+03     9.5690     -0.395     -0.573    25.4354 0.0000e+00
     -0.404     -0.014     6.1973     71.779     28.905  29.091641     1.7499      9.674   118.2579 2.1037e+03     9.4522     -0.396     -0.574    25.4051 0.0000e+00
     -0.407     -0.013     6.1468     70.714     28.896  29.069596     1.7521      9.676   119.1899 2.1027e+03     9.4542     -0.398     -0.578    25.3747 0.0000e+00
     -0.411     -0.012     6.0757     69.677     28.889  29.048926     1.7652      9.679   119.4220 2.1007e+03     9.6273     -0.403     -0.585    25.3519 0.0000e+00
     -0.415     -0.010     5.9835     68.714     28.885  29.031872     1.7670      9.681   119.0856 2.0963e+03     9.8714     -0.407     -0.591    25.3380 0.0000e+00
     -0.419     -0.006     5.8941     67.833     28.917  29.053547     1.7487      9.682   118.5653 2.0934e+03     9.9464     -0.410     -0.595    25.3178 0.0000e+00
     -0.420     -0.001     5.8119     67.009     28.928  29.057422     1.7347      9.685   118.0346 2.0960e+03     9.9191     -0.414     -0.600    25.2939 0.0000e+00
     -0.420      0.005     5.7251     66.271     28.893  29.015330     1.7395      9.688   117.9173 2.0985e+03     9.9171     -0.413     -0.599    25.2719 0.0000e+00
     -0.418      0.010     5.6487     65.641     28.874  28.988331     1.7740      9.688   118.3519 2.1000e+03     9.9563     -0.410     -0.594    25.2481 0.0000e+00
     -0.413      0.013     5.5808     65.083     28.878  28.984522     1.8273      9.688   119.3310 2.1109e+03    10.0520     -0.407     -0.591    25.2259 0.0000e+00
     -0.408      0.013     5.5118     64.569     28.870  28.969265     1.8513      9.689   120.2910 2.1254e+03    10.1180     -0.401     -0.582    25.2148 0.0000e+00
     -0.401      0.009     5.4508     64.097     28.842  28.930631     1.8636      9.691   120.7533 2.1304e+03    10.1386     -0.392     -0.569    25.2093 0.0000e+00
     -0.397      0.002     5.4023     63.642     28.826  28.897712     1.8768      9.694   121.8231 2.1313e+03    10.1306     -0.388     -0.563    25.1919 0.0000e+00
     -0.397     -0.006     5.3591     63.193     28.837  28.888162     1.8606      9.698   123.7619 2.1303e+03    10.0561     -0.389     -0.564    25.1760 0.0000e+00
     -0.402     -0.013     5.3165     62.751     28.848  28.878525     1.8340      9.702   124.8359 2.1189e+03     9.9549     -0.393     -0.571    25.1683 0.0000e+00
     -0.410     -0.018     5.2809     62.313     28.832  28.844555     1.8212      9.706   124.5706 2.0988e+03     9.9311     -0.402     -0.582    25.1521 0.0000e+00
     -0.417     -0.019     5.2464     61.900     28.800  28.794344     1.8480      9.709   124.0817 2.0818e+03     9.9736     -0.409     -0.592    25.1216 0.0000e+00
     -0.423     -0.014     5.2128     61.525     28.801  28.778508     1.9002      9.713   123.8290 2.0736e+03     9.9902     -0.415     -0.602    25.0814 0.0000e+00
     -0.429     -0.006     5.1809     61.172     28.817  28.779832     1.9195      9.716   122.3753 2.0743e+03     9.9613     -0.422     -0.611    25.0442 0.0000e+00
     -0.430      0.005     5.1460     60.827     28.798  28.746944     1.9141      9.718   118.8098 2.0804e+03     9.9322     -0.425     -0.616    25.0147 0.0000e+00
     -0.426      0.022     5.1145     60.519     28.758  28.697775     1.9188      9.714   114.1869 2.0879e+03    10.0476     -0.419     -0.606    24.9853 0.0000e+00
     -0.421      0.045     5.0870     60.353     28.688  28.629041     1.9343      9.705   110.0159 2.1010e+03    10.2971     -0.413     -0.599    24.9538 0.0000e+00
     -0.412      0.072     5.0609     60.436     28.597  28.549772     1.9357      9.702   108.2149 2.1192e+03    10.4216     -0.409     -0.592    24.9289 0.0000e+00
     -0.394      0.100     5.0342     60.710     28.534  28.500004     1.9191      9.707   108.6728 2.1365e+03    10.4256     -0.394     -0.569    24.9022 0.0000e+00
     -0.363      0.127     5.0077     61.011     28.503  28.471042     1.8917      9.711   109.3576 2.1521e+03    10.6530     -0.360     -0.521    24.8820 0.0000e+00
     -0.321      0.151     4.9883     61.284     28.493  28.453144     1.8545      9.714   109.7834 2.1666e+03    11.1213     -0.313     -0.455    24.8837 0.0000e+00
     -0.275      0.169     4.9951     61.626     28.458  28.410360     1.8269      9.718   111.0686 2.1674e+03    11.4078     -0.270     -0.392    24.9076 0.0000e+00
     -0.226      0.175     5.0219     62.187     28.383  28.334055     1.8164      9.722   113.4535 2.0903e+03    11.4189     -0.221     -0.321    24.9447 0.0000e+00
     -0.176      0.168     5.0476     62.981     28.337  28.291189     1.8179      9.725   115.6461 1.8428e+03    11.3584     -0.172     -0.250    24.9460 0.0000e+00
     -0.127      0.148     5.0696     63.832     28.317  28.272388     1.8205      9.730   116.8438 1.4623e+03    11.2222     -0.124     -0.181    24.9201 0.0000e+00
     -0.084      0.120     5.0930     64.612     28.282  28.233518     1.8142      9.736   117.4379 1.1274e+03    11.0018     -0.077     -0.112    24.9071 0.0000e+00
     -0.055      0.086     5.1386     65.385     28.256  28.201527     1.8083      9.742   118.1837 8.1017e+02    10.9145     -0.048     -0.069    24.9026 0.0000e+00
     -0.041      0.049     5.2112     66.273     28.257  28.202505     1.8163      9.748   119.2358 4.8690e+02    10.9527     -0.036     -0.053    24.9114 0.0000e+00
     -0.038      0.013     5.2852     67.238     28.235  28.181964     1.8194      9.753   119.8342 4.9859e+02    10.6774     -0.035     -0.052    24.9236 0.0000e+00
     -0.043     -0.016     5.3481     68.103     28.266  28.206714     1.8037      9.756   118.1055 8.6332e+02    10.1480     -0.041     -0.060    24.9107 0.0000e+00
     -0.052     -0.026     5.4083     68.917     28.562  28.501747     1.7856      9.758   105.8198 1.1123e+03     9.8463     -0.048     -0.070    24.8925 0.0000e+00
     -0.070     -0.013     5.4822     70.012     28.783  28.769948     1.7662      9.752    93.6369 1.1555e+03     9.7615     -0.064     -0.094    24.8953 0.0000e+00
     -0.092      0.015     5.5696     71.434     28.488  28.597125     1.7439      9.736    88.7627 1.1866e+03     9.8070     -0.095     -0.138    24.9069 0.0000e+00
     -0.101      0.050     5.6435     72.834     28.063  28.313987     1.7242      9.719    73.7304 1.2660e+03     9.9515     -0.112     -0.162    24.8939 0.0000e+00
     -0.076      0.086     5.6977     73.999     27.878  28.199228     1.7199      9.711    60.1274 1.2162e+03    10.0059     -0.086     -0.125    24.8584 0.0000e+00
     -0.026      0.116     5.7800     75.045     27.860  28.160494     1.7248      9.709    57.7379 8.1679e+02     9.9529     -0.023     -0.035    24.9110 0.0000e+00
      0.025      0.135     5.8875     76.164     27.919  28.162550     1.7423      9.710    56.7123 4.1304e+02     9.8565      0.031      0.045    25.1620 0.0000e+00
      0.065      0.138     5.9717     77.357     27.967  28.160613     1.7901      9.712    56.0726 2.6866e+02     9.7632      0.065      0.094    25.5031 0.0000e+00
      0.097      0.127     6.0461     78.479     27.982  28.137000     1.8272      9.716    55.6817 2.2619e+02     9.7466      0.097      0.141    25.6462 0.0000e+00
      0.124      0.108     6.1341     79.401     28.004  28.130533     1.8340      9.719    55.4279 2.1513e+02     9.7928      0.123      0.178    25.5472 0.0000e+00
      0.148      0.092     6.2413     80.034     28.042  28.145761     1.8304      9.723    55.3267 2.2981e+02     9.8090      0.144      0.209    25.4202 0.0000e+00
      0.169      0.081     6.3553     80.329     28.045  28.130926     1.8168      9.725    55.2331 2.7797e+02     9.7724      0.166      0.243    25.3316 0.0000e+00
      0.187      0.073     6.4585     80.258     28.005  28.077920     1.8105      9.727    55.1556 3.6309e+02     9.7608      0.184      0.267    25.2623 0.0000e+00
      0.203      0.067     6.5432     79.793     28.007  28.075316     1.8208      9.728    55.1646 4.8690e+02     9.7704      0.199      0.289    25.2151 0.0000e+00
      0.218      0.066     6.6010     78.965     28.146  28.226209     1.8253      9.729    55.4281 6.1787e+02     9.7524      0.214      0.310    25.1769 0.0000e+00
      0.234      0.073     6.6296     77.946     28.192  28.317695     1.8658      9.728    56.1048 6.6905e+02     9.8841      0.228      0.331    25.1448 0.0000e+00
      0.249      0.087     6.6279     77.013     27.879  28.103960     1.9521      9.724    56.6350 6.5260e+02    10.2018      0.245      0.357    25.1195 0.0000e+00
      0.264      0.104     6.5917     76.534     27.521  27.860625     1.9945      9.720    56.7625 6.4599e+02    10.4167      0.255      0.369    25.1054 0.0000e+00
      0.290      0.119     6.5155     76.885     27.396  27.784418     1.9958      9.720    56.7864 6.1423e+02    10.4663      0.274      0.397    25.1233 0.0000e+00
      0.333      0.129     6.4177     78.058     27.450  27.816471     2.0267      9.723    56.8382 5.4250e+02    10.4601      0.327      0.474    25.1712 0.0000e+00
      0.378      0.134     6.3079     79.528     27.673  27.994587     2.0847      9.727    56.8721 4.7365e+02    10.4785      0.375      0.542    25.3718 0.0000e+00
      0.418      0.134     6.2189     80.776     28.627  28.923767     2.1218      9.730    56.8526 4.2701e+02    10.5179      0.411      0.597    25.6792 0.0000e+00
      0.450      0.130     6.2362     81.880     30.531  30.873699     2.1347      9.733    56.9457 4.0371e+02    10.5268      0.446      0.647    25.7563 0.0000e+00
      0.475      0.123     6.3633     83.939     32.052  32.553306     2.1653      9.734    57.3099 3.8300e+02    10.6199      0.465      0.676    25.6677 0.0000e+00
      0.499      0.118     6.5123     88.384     32.456  33.192953     2.2257      9.732    57.6423 3.5676e+02    10.7895      0.487      0.707    25.5724 0.0000e+00
      0.529      0.115     6.6265     95.084     32.397  33.345823     2.2747      9.729    57.6948 3.3102e+02    10.9035      0.518      0.752    25.4826 0.0000e+00
      0.562      0.113     6.6878    102.449     32.303  33.387540     2.2917      9.728    57.7724 3.1027e+02    10.9399      0.551      0.800    25.4775 0.0000e+00
      0.596      0.110     6.7615    109.161     32.222  33.380548     2.2981      9.728    57.9784 2.9356e+02    10.7864      0.585      0.848    25.7044 0.0000e+00
      0.626      0.105     7.0730    114.663     32.191  33.388200     2.3098      9.729    58.2066 2.7767e+02    10.5163      0.616      0.894    26.1528 0.0000e+00
      0.651      0.099     7.6314    118.726     32.197  33.416720     2.3248      9.730    58.3808 2.6453e+02    10.4066      0.639      0.927    26.5118 0.0000e+00
      0.672      0.094     8.2292    121.237     32.178  33.408400     2.3382      9.732    58.4508 2.5359e+02    10.4504      0.660      0.956    26.7032 0.0000e+00
      0.691      0.092     8.7624    122.308     32.118  33.351010     2.3714      9.734    58.6222 2.4342e+02    10.4645      0.677      0.983    26.8099 0.0000e+00
      0.711      0.092     9.1971    122.203     32.006  33.230052     2.4190      9.735    58.8187 2.3248e+02    10.4068      0.695      1.008    26.8621 0.0000e+00
      0.736      0.094     9.5235    121.298     31.892  33.087143     2.4475      9.738    58.8474 2.2050e+02    10.4022      0.722      1.047    26.8933 0.0000e+00
      0.762      0.097     9.7150    120.013     31.691  32.827704     2.4578      9.741    58.9696 2.0892e+02    10.4426      0.747      1.083    26.9079 0.0000e+00
      0.789      0.101     9.7930    118.628     31.142  32.185333     2.4522      9.742    59.3498 1.9810e+02    10.4168      0.773      1.121    26.9152 0.0000e+00
      0.815      0.105     9.7735    117.264     30.557  31.469878     2.4713      9.742    59.8309 1.8792e+02    10.3637      0.801      1.161    26.9174 0.0000e+00
      0.840      0.108     9.6928    115.900     30.454  31.214200     2.5300      9.741    60.3989 1.7742e+02    10.3467      0.824      1.194    26.8853 0.0000e+00
      0.867      0.112     9.5994    114.451     30.375  30.995639     2.5634      9.736    61.1404 1.6745e+02    10.3823      0.851      1.233    26.7937 0.0000e+00
      0.896      0.116     9.5026    112.868     30.044  30.538673     2.5748      9.727    61.8271 1.5778e+02    10.4519      0.878      1.273    26.6880 0.0000e+00
      0.926      0.118     9.4227    111.171     30.063  30.443466     2.5762      9.718    62.3345 1.4752e+02    10.5404      0.907      1.316    26.5242 0.0000e+00
      0.960      0.115     9.3669    109.500     30.291  30.605096     2.5475      9.711    62.8015 1.3786e+02    10.6329      0.942      1.366    26.2246 0.0000e+00
      0.994      0.109     9.2900    107.992     30.289  30.591027     2.5187      9.706    63.2572 1.2917e+02    10.6471      0.975      1.414    25.9922 0.0000e+00
      1.025      0.101     9.1883    106.681     30.159  30.463532     2.5119      9.705    63.8002 1.2190e+02    10.6095      1.008      1.462    25.8346 0.0000e+00
      1.049      0.091     9.0856    105.719     29.852  30.141267     2.5148      9.704    64.3773 1.1673e+02    10.5201      1.032      1.496    25.5935 0.0000e+00
      1.066      0.083     8.9626    105.215     29.503  29.737366     2.5123      9.699    65.0720 1.1292e+02    10.3520      1.046      1.518    25.4665 0.0000e+00
      1.081      0.079     8.8391    104.921     29.366  29.510227     2.5068      9.687    66.1773 1.0907e+02    10.2167      1.059      1.537    25.4946 0.0000e+00
      1.098      0.079     8.7238    104.508     29.239  29.296557     2.5061      9.667    67.6754 1.0497e+02    10.1482      1.077      1.562    25.5021 0.0000e+00
      1.118      0.084     8.6370    103.894     28.941  28.928690     2.5122      9.647    69.1607 1.0104e+02    10.2072      1.096      1.590    25.5030 0.0000e+00
      1.139      0.092     8.6192    103.084     28.703  28.612062     2.5224      9.628    69.9395 9.6501e+01    10.3484      1.115      1.617    25.4259 0.0000e+00
      1.165      0.098     8.6390    101.986     28.692  28.510765     2.5219      9.609    70.1225 9.1410e+01    10.3870      1.142      1.657    25.2264 0.0000e+00
      1.194      0.100     8.6291    100.633     28.663  28.401064     2.5140      9.593    70.2550 8.6587e+01    10.3661      1.171      1.699    25.0763 0.0000e+00
      1.223      0.099     8.5900     99.181     28.567  28.236359     2.5264      9.579    70.5084 8.1988e+01    10.4041      1.199      1.740    24.9828 0.0000e+00
      1.251      0.097     8.5505     97.743     28.239  27.850369     2.5639      9.568    71.1212 7.8186e+01    10.4698      1.231      1.785    24.8512 0.0000e+00
      1.274      0.093     8.4877     96.432     27.623  27.156771     2.5845      9.557    72.4167 7.5318e+01    10.4783      1.250      1.813    24.6656 0.0000e+00
      1.293      0.088     8.3875     95.133     27.313  26.695519     2.5760      9.545    73.8677 7.2510e+01    10.4383      1.268      1.839    24.5309 0.0000e+00
      1.313      0.083     8.2860     93.558     27.393  26.583288     2.5773      9.533    74.4694 6.9430e+01    10.3954      1.288      1.868    24.4115 0.0000e+00
      1.336      0.078     8.1742     91.612     27.516  26.560093     2.6251      9.520    74.3579 6.6211e+01    10.3012      1.308      1.898    24.3037 0.0000e+00
      1.360      0.075     8.0805     89.339     27.582  26.541621     2.6960      9.505    74.2394 6.3491e+01    10.1193      1.336      1.938    24.2173 0.0000e+00
      1.379      0.072     8.0353     86.973     27.581  26.486590     2.7265      9.488    74.4139 6.1693e+01     9.9724      1.354      1.964    23.8967 0.0000e+00
      1.393      0.070     7.9640     84.788     27.541  26.401705     2.7283      9.470    74.8325 6.0015e+01     9.9256      1.365      1.978    23.4637 0.0000e+00
      1.408      0.069     7.8376     82.905     27.526  26.339167     2.7176      9.453    75.4288 5.8103e+01     9.9974      1.380      2.001    23.2173 0.0000e+00
      1.425      0.070     7.6526     81.452     27.529  26.300807     2.6803      9.433    76.5483 5.6173e+01    10.1571      1.397      2.027    23.0945 0.0000e+00
      1.443      0.075     7.4501     80.427     27.515  26.254744     2.6441      9.408    78.4738 5.4100e+01    10.2172      1.414      2.051    23.0053 0.0000e+00
      1.461      0.083     7.2749     79.700     27.523  26.225850     2.6287      9.379    80.4692 5.2114e+01    10.2118      1.434      2.079    22.9357 0.0000e+00
      1.481      0.089     7.1188     79.198     27.539  26.204925     2.6608      9.352    81.6588 5.0188e+01    10.1942      1.452      2.105    22.8306 0.0000e+00
      1.505      0.093     7.0049     78.833     27.554  26.191833     2.7338      9.327    82.0164 4.7648e+01    10.1069      1.472      2.135    22.7504 0.0000e+00
      1.535      0.096     6.9288     78.477     27.576  26.194276     2.7702      9.305    82.5564 4.4978e+01    10.0448      1.506      2.185    22.7144 0.0000e+00
      1.565      0.096     6.8758     78.083     27.562  26.171057     2.7592      9.285    83.6283 4.3130e+01     9.9897      1.539      2.233    22.6377 0.0000e+00
      1.588      0.097     6.8447     77.669     27.563  26.164601     2.7506      9.266    83.9631 4.1623e+01     9.7139      1.557      2.258    22.5632 0.0000e+00
      1.608      0.100     6.8248     77.266     27.593  26.179585     2.7573      9.246    83.9375 3.9892e+01     9.3066      1.575      2.283    22.5184 0.0000e+00
      1.630      0.105     6.7990     76.948     27.601  26.162074     2.7570      9.223    84.6096 3.8027e+01     9.0948      1.598      2.318    22.4847 0.0000e+00
      1.655      0.110     6.7652     76.680     27.619  26.142975     2.7471      9.200    85.5506 3.6062e+01     8.9643      1.621      2.350    22.4686 0.0000e+00
      1.685      0.115     6.7315     76.319     27.659  26.138750     2.7712      9.179    86.7964 3.3757e+01     8.4114      1.648      2.390    22.4617 0.0000e+00
      1.723      0.117     6.6942     75.817     27.674  26.110934     2.8321      9.158    88.4019 3.1404e+01     7.5680      1.689      2.450    22.4406 0.0000e+00
      1.759      0.117     6.6729     75.195     27.673  26.060109     2.8758      9.139    89.8192 2.9823e+01     7.1707      1.731      2.511    22.3972 0.0000e+00
      1.786      0.117     6.6666     74.464     27.703  26.031207     2.8829      9.120    91.0272 2.8734e+01     7.1258      1.753      2.542    22.3267 0.0000e+00
      1.810      0.117     6.6455     73.615     27.742  26.014926     2.9099      9.100    92.1670 2.7466e+01     7.0599      1.773      2.572    22.2423 0.0000e+00
      1.836      0.116     6.6093     72.629     27.760  25.989937     3.4193      9.080    93.1040 2.6186e+01     6.8522      1.802      2.615    22.1776 0.0000e+00
      1.864      0.115     6.5656     71.535     27.789  25.982527     4.3803      9.063    93.6655 2.4742e+01     6.4583      1.824      2.646    22.0911 0.0000e+00
      1.899      0.115     6.5167     70.398     27.899  26.052054     4.9076      9.048    93.8797 2.3076e+01     6.2263      1.860      2.698    21.9708 0.0000e+00
      1.935      0.114     6.4565     69.303     28.094  26.196732     4.9757      9.033    94.1458 2.1846e+01     6.1640      1.903      2.759    21.8743 0.0000e+00
      1.964      0.111     6.3768     68.288     28.221  26.274003     5.2792      9.019    94.6458 2.1006e+01     5.8077      1.927      2.795    21.8032 0.0000e+00
      1.988      0.107     6.2870     67.286     28.214  26.225704     5.8465      9.005    95.2785 2.0234e+01     5.2667      1.950      2.829    21.7427 0.0000e+00
      2.011      0.102     6.1898     66.125     28.144  26.119750     6.1672      8.993    96.0307 1.9515e+01     5.0188      1.972      2.860    21.6905 0.0000e+00
      2.035      0.097     6.1001     64.675     28.064  26.006962     6.1853      8.983    96.6860 1.8730e+01     4.9628      1.993      2.892    21.6203 0.0000e+00
      2.062      0.096     6.0218     63.065     28.029  25.939405     6.0648      8.973    97.3506 1.7949e+01     4.9651      2.023      2.933    21.5440 0.0000e+00
      2.088      0.097     5.9471     61.563     28.062  25.936683     5.8603      8.961    98.2161 1.7281e+01     5.0127      2.049      2.971    21.4709 0.0000e+00
      2.111      0.098     5.8616     60.403     28.126  25.973997     5.7512      8.947    98.9770 1.6712e+01     4.9918      2.069      3.003    21.3950 0.0000e+00
      2.134      0.096     5.7335     59.691     28.168  26.010252     5.7358      8.936    99.4953 1.6158e+01     4.9510      2.091      3.034    21.3286 0.0000e+00
      2.159      0.092     5.5887     59.338     28.147  25.994750     5.6332      8.926    99.8361 1.5514e+01     4.8273      2.116      3.069    21.2670 0.0000e+00
      2.187      0.092     5.4551     59.186     28.065  25.913339     5.4509      8.914   100.0866 1.4976e+01     4.6241      2.147      3.114    21.2029 0.0000e+00
      2.210      0.096     5.3519     59.145     27.959  25.786469     5.3545      8.900   100.3732 1.4665e+01     4.5428      2.172      3.149    21.1523 0.0000e+00
      2.226      0.101     5.2934     59.156     27.901  25.664957     5.2916      8.886   100.8053 1.4293e+01     4.5276      2.181      3.163    21.1575 0.0000e+00
      2.247      0.106     5.2652     59.061     27.928  25.584884     4.7817      8.874   101.2674 1.3713e+01     4.4408      2.199      3.190    21.1801 0.0000e+00
      2.279      0.113     5.2554     58.608     28.008  25.515342     3.8676      8.863   101.5727 1.3035e+01     4.3135      2.233      3.239    21.1711 0.0000e+00
      2.315      0.122     5.2550     57.567     28.172  25.457727     3.3767      8.852   101.8300 1.2465e+01     4.2517      2.273      3.298    21.1403 0.0000e+00
      2.348      0.130     5.2737     55.770     28.381  25.395019     3.3412      8.842   102.3129 1.2033e+01     4.3089      2.304      3.342    21.0117 0.0000e+00
      2.379      0.135     5.2964     53.114     28.492  25.263835     3.3138      8.833   103.1103 1.1499e+01     4.3218      2.329      3.377    20.8125 0.0000e+00
      2.415      0.138     5.2837     49.487     28.535  25.075485     3.1030      8.824   103.9001 1.0909e+01     4.1001      2.369      3.436    20.5948 0.0000e+00
      2.451      0.141     5.2358     44.915     28.636  24.891986     2.7407      8.817   104.2904 1.0433e+01     3.7805      2.407      3.491    20.2235 0.0000e+00
      2.486      0.144     5.1260     39.612     28.883  24.819391     2.5457      8.811   104.1295 9.9598e+00     3.6342      2.435      3.532    19.7032 0.0000e+00
      2.524      0.143     4.9272     33.697     29.267  24.894522     2.5092      8.803   103.5890 9.4479e+00     3.5950      2.474      3.588    19.3136 0.0000e+00
      2.565      0.136     4.6252     27.368     29.604  24.976152     2.2993      8.794   102.9179 8.9917e+00     3.3748      2.517      3.651    18.9907 0.0000e+00
      2.603      0.126     4.2307     21.035     29.766  24.982213     1.9223      8.785   102.2103 8.6109e+00     3.0555      2.555      3.706    18.4637 0.0000e+00
      2.635      0.116     3.7773     15.175     29.808  24.967637     1.7211      8.775   101.6584 8.2929e+00     2.9452      2.586      3.750    17.9314 0.0000e+00
      2.664      0.107     3.2374     10.174     29.787  24.926617     1.6984      8.763   101.2358 8.0725e+00     2.9297      2.615      3.793    17.5096 0.0000e+00
      2.684      0.102     2.6379      6.259     29.769  24.866489     1.6055      8.752   100.8856 7.9497e+00     2.7654      2.636      3.822    17.1353 0.0000e+00
      2.699      0.104     2.0201      3.486     29.845  24.874356     1.4394      8.742   100.8658 7.7943e+00     2.4959      2.643      3.833    16.8998 0.0000e+00
      2.722      0.111     1.4404      1.760     29.928  24.894908     1.3539      8.732   100.9109 7.5355e+00     2.4038      2.664      3.864    16.8605 0.0000e+00
      2.755      0.121     0.9486      0.897     29.938  24.861415     1.3627      8.722   100.4847 7.2346e+00     2.5066      2.701      3.918    16.8659 0.0000e+00
      2.792      0.132     0.5672      0.579     29.972  24.849601     1.5040      8.712    99.7563 6.9371e+00     2.5094      2.738      3.971    16.7654 0.0000e+00
      2.829      0.143     0.3049      0.521     30.073  24.878778     1.7641      8.702    99.0731 6.6580e+00     2.4373      2.775      4.024    16.6587 0.0000e+00
      2.866      0.148     0.1396      0.577     30.268  24.960610     1.9199      8.693    98.5042 6.4173e+00     2.4545      2.811      4.077    16.5881 0.0000e+00
      2.904      0.145     0.0699      0.646     30.520  25.078397     2.0054      8.683    97.7823 6.2148e+00     2.4782      2.847      4.131    16.5094 0.0000e+00
      2.943      0.136     0.0497      0.649     30.730  25.162007     2.7397      8.674    96.6249 6.0186e+00     2.3819      2.884      4.184    16.4610 0.0000e+00
      2.984      0.126     0.0469      0.603     30.963  25.274258     4.0811      8.665    95.4380 5.8256e+00     2.2468      2.926      4.244    16.3811 0.0000e+00
      3.021      0.117     0.0562      0.583     31.221  25.421445     4.7988      8.657    94.4446 5.6999e+00     2.1769      2.969      4.307    16.2319 0.0000e+00
      3.043      0.111     0.0671      0.632     31.362  25.483836     4.8598      8.648    93.4756 5.6466e+00     2.1859      2.989      4.335    16.0843 0.0000e+00
      3.058      0.107     0.0665      0.760     31.462  25.521528     4.9011      8.639    92.8426 5.5671e+00     2.2534      2.993      4.341    15.9291 0.0000e+00
      3.080      0.108     0.0581      0.956     31.628  25.623593     5.0900      8.629    92.7281 5.4273e+00     2.2750      3.015      4.374    15.8000 0.0000e+00
      3.112      0.115     0.0557      1.184     31.689  25.640402     5.4042      8.620    92.7794 5.2698e+00     2.2416      3.054      4.429    15.7039 0.0000e+00
      3.144      0.125     0.0598      1.398     31.629  25.534586     5.5795      8.612    92.6874 5.1260e+00     2.2256      3.083      4.472    15.6188 0.0000e+00
      3.176      0.131     0.0732      1.578     31.750  25.548331     5.6033      8.602    92.2187 4.9785e+00     2.2524      3.109      4.511    15.5499 0.0000e+00
      3.215      0.132     0.0940      1.726     32.186  25.806496     5.4923      8.593    91.3280 4.8145e+00     2.3274      3.151      4.570    15.5014 0.0000e+00
      3.255      0.133     0.1191      1.816     32.628  26.057303     5.2527      8.585    90.2645 4.6791e+00     2.3799      3.195      4.635    15.4689 0.0000e+00
      3.288      0.134     0.1415      1.828     32.769  26.045450     5.1116      8.575    89.0817 4.5846e+00     2.4097      3.228      4.681    15.3825 0.0000e+00
      3.313      0.132     0.1588      1.776     32.867  25.979945     5.0842      8.564    87.0937 4.4862e+00     2.4829      3.247      4.708    15.2285 0.0000e+00
      3.344      0.127     0.1759      1.679     33.221  26.089094     4.9218      8.554    83.1776 4.3590e+00     2.7527      3.274      4.750    15.0891 0.0000e+00
      3.383      0.122     0.1867      1.562     33.966  26.477617     4.6131      8.544    78.0407 4.2294e+00     3.1440      3.317      4.813    14.9483 0.0000e+00
      3.420      0.121     0.1873      1.450     35.117  27.191220     4.4396      8.532    73.9403 4.1301e+00     3.3191      3.358      4.870    14.7379 0.0000e+00
      3.449      0.121     0.1829      1.360     36.114  27.808047     4.4210      8.519    70.5974 4.0649e+00     3.3334      3.386      4.912    14.5340 0.0000e+00
      3.470      0.117     0.1725      1.289     36.587  28.040566     4.3717      8.507    65.4982 3.9813e+00     3.2820      3.401      4.934    14.2856 0.0000e+00
      3.496      0.112     0.1608      1.226     36.793  28.100813     4.2678      8.495    59.0914 3.8473e+00     3.1421      3.422      4.964    13.9635 0.0000e+00
      3.532      0.114     0.1494      1.175     36.952  28.156046     4.1973      8.482    53.5338 3.7201e+00     3.0421      3.464      5.025    13.6992 0.0000e+00
      3.565      0.123     0.1407      1.123     37.169  28.264583     4.1607      8.467    48.8067 3.6406e+00     3.0291      3.503      5.080    13.4920 0.0000e+00
      3.587      0.132     0.1355      1.081     37.426  28.398834     3.8340      8.451    44.6109 3.5686e+00     2.9169      3.516      5.099    13.2992 0.0000e+00
      3.613      0.134     0.1274      1.055     37.661  28.511414     3.2176      8.436    40.2295 3.4310e+00     2.6760      3.534      5.126    13.1644 0.0000e+00
      3.658      0.131     0.1242      1.015     37.954  28.674854     2.8594      8.424    35.0664 3.2261e+00     2.5076      3.585      5.199    13.0939 0.0000e+00
      3.707      0.127     0.1181      0.973     38.422  28.980327     2.7987      8.414    30.3654 3.0542e+00     2.4181      3.643      5.283    13.0230 0.0000e+00
      3.741      0.121     0.1121      0.950     38.815  29.225407     2.7832      8.402    26.4969 2.9743e+00     2.4131      3.676      5.332    12.9403 0.0000e+00
      3.761      0.107     0.1135      0.929     38.801  29.165753     2.6556      8.389    22.2782 2.9094e+00     2.4134      3.687      5.347    12.8457 0.0000e+00
      3.783      0.092     0.1073      0.906     38.640  29.019720     2.3961      8.377    17.7306 2.8064e+00     2.3196      3.707      5.376    12.7648 0.0000e+00
      3.808      0.082     0.1019      0.900     38.600  28.981116     2.2497      8.365    13.8438 2.7266e+00     2.2691      3.740      5.425    12.7157 0.0000e+00
      3.825      0.081     0.1011      0.894     38.755  29.079348     2.2178      8.352    10.6448 2.7022e+00     2.2468      3.754      5.445    12.6483 0.0000e+00
      3.836      0.085     0.0993      0.874     39.121  29.319922     2.1935      8.341     7.6174 2.6503e+00     2.1526      3.755      5.446    12.5632 0.0000e+00
      3.856      0.090     0.0953      0.878     39.484  29.544317     2.1800      8.330     4.3419 2.5315e+00     2.0187      3.779      5.480    12.5367 0.0000e+00
      3.885      0.097     0.0954      0.888     39.946  29.827268     2.1632      8.319     0.8967 2.4194e+00     1.9259      3.812      5.528    12.5489 0.0000e+00
      3.914      0.107     0.0974      0.874     40.471  30.141815     2.1412      8.306    -2.3755 2.3338e+00     1.9185      3.838      5.567    12.5195 0.0000e+00
      3.943      0.114     0.0906      0.861     40.734  30.241051     2.0297      8.291    -5.4527 2.2586e+00     1.8948      3.868      5.609    12.4754 0.0000e+00
      3.972      0.117     0.0936      0.847     40.885  30.266293     1.8310      8.277    -8.3472 2.1724e+00     1.8103      3.894      5.647    12.4202 0.0000e+00
      4.003      0.116     0.0973      0.837     41.094  30.383522     1.7193      8.263   -11.2162 2.0674e+00     1.7511      3.925      5.693    12.3341 0.0000e+00
      4.035      0.116     0.0922      0.832     41.534  30.707478     1.6939      8.248   -14.1574 1.9834e+00     1.7265      3.959      5.743    12.2520 0.0000e+00
      4.065      0.117     0.0933      0.807     42.210  31.203549     1.6324      8.233   -16.8071 1.9116e+00     1.6828      3.986      5.781    12.1172 0.0000e+00
      4.093      0.118     0.0913      0.780     42.716  31.563239     1.5429      8.218   -19.2489 1.8417e+00     1.5982      4.015      5.823    11.9795 0.0000e+00
      4.119      0.118     0.0892      0.761     43.171  31.886504     1.4930      8.203   -21.9987 1.7842e+00     1.5231      4.038      5.856    11.9483 0.0000e+00
      4.150      0.121     0.0917      0.732     44.135  32.576074     1.4707      8.187   -24.7593 1.7192e+00     1.4924      4.066      5.898    11.9692 0.0000e+00
      4.185      0.126     0.0868      0.701     45.310  33.370274     1.4558      8.171   -27.1593 1.6643e+00     1.5004      4.110      5.961    11.9682 0.0000e+00
      4.215      0.132     0.0831      0.691     45.833  33.626946     1.4797      8.155   -29.4216 1.6398e+00     1.5178      4.133      5.994    11.9378 0.0000e+00
      4.245      0.140     0.0832      0.691     46.058  33.650386     1.5186      8.136   -31.5483 1.6090e+00     1.4974      4.157      6.029    11.9268 0.0000e+00
      4.284      0.149     0.0795      0.690     47.020  34.224173     1.5262      8.115   -33.5138 1.5673e+00     1.4591      4.204      6.097    11.9251 0.0000e+00
      4.324      0.155     0.0742      0.707     48.416  35.111283     1.5135      8.091   -35.2046 1.5208e+00     1.4300      4.240      6.148    11.8535 0.0000e+00
      4.364      0.155     0.0746      0.727     49.127  35.498903     1.4650      8.071   -36.9341 1.4644e+00     1.4527      4.276      6.202    11.6800 0.0000e+00
      4.409      0.146     0.0763      0.723     49.166  35.423145     1.3890      8.053   -39.3684 1.4182e+00     1.5291      4.324      6.272    11.5163 0.0000e+00
      4.455      0.129     0.0737      0.705     49.476  35.590251     1.3524      8.037   -41.8369 1.3904e+00     1.5338      4.371      6.339    11.3957 0.0000e+00
      4.494      0.111     0.0773      0.688     50.348  36.187628     1.3385      8.024   -43.8081 1.3852e+00     1.4756      4.416      6.404    11.2618 0.0000e+00
      4.514      0.096     0.0816      0.678     51.543  37.002127     1.2951      8.013   -45.7371 1.3878e+00     1.4737      4.433      6.430    11.1197 0.0000e+00
      4.521      0.086     0.0803      0.670     53.140  38.081983     1.2360      8.001   -47.6076 1.3770e+00     1.5109      4.430      6.426    10.9985 0.0000e+00
      4.532      0.081     0.0775      0.661     54.564  39.033443     1.2149      7.990   -49.2170 1.3596e+00     1.5156      4.441      6.441    10.9525 0.0000e+00
      4.552      0.080     0.0757      0.646     55.214  39.436832     1.2314      7.980   -50.6551 1.3451e+00     1.4970      4.460      6.469    10.9459 0.0000e+00
      4.581      0.083     0.0749      0.637     55.509  39.597846     1.2275      7.969   -52.1758 1.3320e+00     1.4911      4.490      6.512    10.9016 0.0000e+00
      4.612      0.084     0.0742      0.641     55.625  39.648267     1.1921      7.958   -53.6662 1.3176e+00     1.4778      4.526      6.565    10.8294 0.0000e+00
      4.636      0.079     0.0737      0.651     55.586  39.602465     1.1697      7.947   -54.9082 1.3031e+00     1.4732      4.551      6.600    10.7639 0.0000e+00
      4.651      0.071     0.0714      0.649     55.881  39.805142     1.1654      7.936   -56.1792 1.2938e+00     1.5040      4.561      6.615    10.7061 0.0000e+00
      4.664      0.066     0.0700      0.628     57.327  40.830277     1.1564      7.925   -57.5043 1.2963e+00     1.5075      4.573      6.633    10.6597 0.0000e+00
      4.678      0.070     0.0710      0.622     60.120  42.800000     1.1524      7.912   -58.6268 1.2971e+00     1.4820      4.590      6.657    10.6322 0.0000e+00
      4.688      0.085     0.0728      0.632     62.972  44.781156     1.1588      7.895   -59.5128 1.2829e+00     1.4688      4.598      6.668    10.6176 0.0000e+00
      4.703      0.106     0.0739      0.627     64.792  46.006687     1.1591      7.871   -60.3017 1.2629e+00     1.4852      4.605      6.678    10.6111 0.0000e+00
      4.733      0.127     0.0689      0.622     65.694  46.578753     1.1224      7.846   -61.1095 1.2464e+00     1.5431      4.636      6.724    10.6136 0.0000e+00
      4.776      0.141     0.0678      0.631     66.198  46.875971     1.0480      7.824   -62.0515 1.2276e+00     1.5541      4.684      6.792    10.6048 0.0000e+00
      4.825      0.150     0.0721      0.636     67.244  47.569939     0.9922      7.804   -63.1743 1.1997e+00     1.4813      4.731      6.861    10.5605 0.0000e+00
      4.875      0.155     0.0698      0.646     69.235  48.941580     0.9798      7.783   -64.1892 1.1714e+00     1.4150      4.785      6.940    10.4999 0.0000e+00
      4.913      0.155     0.0680      0.663     71.171  50.262014     0.9821      7.762   -64.8581 1.1542e+00     1.4019      4.825      6.998    10.4465 0.0000e+00
      4.939      0.152     0.0717      0.659     72.096  50.843911     1.0034      7.743   -65.3244 1.1357e+00     1.3905      4.840      7.021    10.3999 0.0000e+00
      4.970      0.150     0.0708      0.652     72.280  50.900500     1.0369      7.724   -65.6970 1.1063e+00     1.3115      4.868      7.061    10.3640 0.0000e+00
      5.013      0.151     0.0710      0.660     72.416  50.946142     1.0468      7.705   -66.0075 1.0728e+00     1.2322      4.915      7.129    10.3457 0.0000e+00
      5.059      0.155     0.0763      0.660     72.460  50.951477     1.0473      7.687   -66.6705 1.0342e+00     1.2175      4.962      7.198    10.3172 0.0000e+00
      5.100      0.157     0.0740      0.640     72.319  50.838052     1.0352      7.671   -67.9484 1.0013e+00     1.3382      5.003      7.256    10.2598 0.0000e+00
      5.139      0.148     0.0719      0.626     72.338  50.843937     1.0088      7.657   -69.5859 9.8239e-01     1.5989      5.038      7.307    10.2005 0.0000e+00
      5.180      0.133     0.0749      0.624     72.413  50.895705     1.0028      7.645   -71.1538 9.6499e-01     1.7396      5.078      7.364    10.1666 0.0000e+00
      5.221      0.120     0.0757      0.625     72.409  50.892833     1.0034      7.634   -72.4512 9.4686e-01     1.7070      5.126      7.434    10.1552 0.0000e+00
      5.248      0.114     0.0712      0.630     72.564  50.999593     0.9757      7.624   -73.6571 9.3196e-01     1.5808      5.155      7.477    10.1441 0.0000e+00
      5.261      0.113     0.0699      0.629     72.817  51.171142     0.9416      7.614   -74.7215 9.2372e-01     1.4089      5.157      7.480    10.1391 0.0000e+00
      5.277      0.112     0.0705      0.624     72.948  51.253545     0.9402      7.605   -75.5976 9.1072e-01     1.3362      5.167      7.494    10.1415 0.0000e+00
      5.308      0.112     0.0694      0.626     73.023  51.297823     0.9512      7.595   -76.5931 8.7609e-01     1.3177      5.202      7.544    10.1399 0.0000e+00
      5.351      0.114     0.0717      0.631     73.159  51.389187     0.9327      7.586   -77.7232 8.3376e-01     1.2535      5.249      7.612    10.1398 0.0000e+00
      5.391      0.119     0.0709      0.641     73.277  51.469741     0.8916      7.577   -78.7654 7.9978e-01     1.2083      5.292      7.676    10.1362 0.0000e+00
      5.419      0.123     0.0696      0.646     73.253  51.446774     0.8703      7.569   -79.6444 7.8626e-01     1.2489      5.319      7.716    10.1269 0.0000e+00
      5.438      0.123     0.0709      0.635     73.064  51.301879     0.8669      7.561   -80.2625 7.8724e-01     1.3008      5.331      7.732    10.1207 0.0000e+00
      5.461      0.121     0.0703      0.615     73.005  51.240906     0.8660      7.552   -80.6464 7.7382e-01     1.3582      5.349      7.759    10.1189 0.0000e+00
      5.496      0.120     0.0726      0.610     73.374  51.471077     0.8682      7.545   -81.1883 7.5251e-01     1.4644      5.388      7.815    10.1185 0.0000e+00
      5.538      0.120     0.0735      0.615     73.805  51.736693     0.8611      7.539   -82.0824 7.2340e-01     1.4914      5.434      7.880    10.1146 0.0000e+00
      5.575      0.120     0.0722      0.610     73.926  51.786958     0.8549      7.534   -83.0263 6.8045e-01     1.4804      5.471      7.935    10.1063 0.0000e+00
      5.603      0.117     0.0685      0.616     73.920  51.761481     0.8684      7.528   -83.8239 6.5918e-01     1.5361      5.496      7.972    10.0944 0.0000e+00
      5.626      0.113     0.0674      0.622     73.913  51.745957     0.8826      7.522   -84.5854 6.5412e-01     1.5835      5.516      8.000    10.0747 0.0000e+00
      5.649      0.112     0.0716      0.625     74.079  51.853100     0.8762      7.517   -85.2635 6.3562e-01     1.5756      5.539      8.032    10.0471 0.0000e+00
      5.676      0.117     0.0665      0.644     74.642  52.231881     0.8659      7.512   -85.8282 6.0977e-01     1.5094      5.565      8.071    10.0189 0.0000e+00
      5.706      0.122     0.0700      0.661     75.277  52.644771     0.8581      7.507   -86.3363 5.8549e-01     1.4661      5.594      8.113    10.0061 0.0000e+00
      5.741      0.127     0.0709      0.659     75.543  52.783485     0.8402      7.502   -86.6753 5.5749e-01     1.4952      5.627      8.163    10.0034 0.0000e+00
      5.780      0.127     0.0687      0.630     75.578  52.766618     0.8247      7.497   -87.0876 5.3170e-01     1.5199      5.669      8.223     9.9963 0.0000e+00
      5.817      0.122     0.0739      0.614     75.689  52.821587     0.8203      7.492   -87.7081 5.1723e-01     1.4923      5.708      8.279     9.9900 0.0000e+00
      5.846      0.114     0.0744      0.629     75.874  52.940352     0.8193      7.487   -88.2416 5.0083e-01     1.4681      5.735      8.318     9.9713 0.0000e+00
      5.871      0.105     0.0768      0.633     76.062  53.060167     0.8137      7.482   -88.7201 4.8246e-01     1.5016      5.758      8.351     9.9321 0.0000e+00
      5.895      0.100     0.0705      0.612     76.268  53.191292     0.8107      7.478   -89.1914 4.6972e-01     1.5551      5.782      8.386     9.9002 0.0000e+00
      5.916      0.099     0.0666      0.590     76.561  53.383334     0.8242      7.475   -89.5513 4.5534e-01     1.5685      5.802      8.416     9.8894 0.0000e+00
      5.938      0.103     0.0726      0.583     76.986  53.668464     0.8280      7.471   -89.8880 4.3699e-01     1.4924      5.821      8.443     9.8856 0.0000e+00
      5.964      0.111     0.0730      0.583     77.439  53.973038     0.8142      7.466   -90.3372 4.2698e-01     1.4204      5.847      8.480     9.8779 0.0000e+00
      5.994      0.118     0.0693      0.591     77.706  54.146258     0.8076      7.460   -90.9387 4.1648e-01     1.4506      5.878      8.525     9.8687 0.0000e+00
      6.028      0.124     0.0657      0.602     77.950  54.303015     0.8151      7.455   -91.5681 3.9541e-01     1.5157      5.910      8.572     9.8609 0.0000e+00
      6.064      0.126     0.0661      0.600     78.575  54.725855     0.8299      7.450   -91.9243 3.7956e-01     1.5583      5.946      8.624     9.8537 0.0000e+00
      6.099      0.125     0.0660      0.600     79.357  55.259963     0.8355      7.445   -92.0621 3.6831e-01     1.5550      5.983      8.677     9.8470 0.0000e+00
      6.130      0.121     0.0657      0.610     79.887  55.619478     0.8248      7.440   -92.4602 3.4770e-01     1.5096      6.012      8.720     9.8382 0.0000e+00
      6.159      0.115     0.0702      0.608     80.209  55.835476     0.8092      7.436   -93.0387 3.2918e-01     1.4545      6.040      8.760     9.8285 0.0000e+00
      6.188      0.108     0.0672      0.595     80.500  56.030760     0.8131      7.432   -93.4634 3.2107e-01     1.4693      6.069      8.803     9.8211 0.0000e+00
      6.215      0.105     0.0672      0.582     80.848  56.266749     0.8308      7.427   -93.8952 3.0444e-01     1.5860      6.095      8.840     9.8147 0.0000e+00
      6.240      0.108     0.0701      0.579     81.056  56.403582     0.8319      7.421   -94.4740 2.8859e-01     1.7038      6.122      8.879     9.8089 0.0000e+00
      6.262      0.112     0.0693      0.579     80.997  56.352152     0.8261      7.415   -95.0410 2.7809e-01     1.7665      6.141      8.908     9.8040 0.0000e+00
      6.286      0.113     0.0678      0.579     80.912  56.279682     0.8279      7.411   -95.5025 2.6164e-01     1.7637      6.158      8.931     9.7993 0.0000e+00
      6.321      0.112     0.0651      0.597     80.942  56.289078     0.8274      7.407   -95.9241 2.4558e-01     1.7045      6.195      8.986     9.7956 0.0000e+00
      6.361      0.111     0.0658      0.622     81.022  56.338793     0.8291      7.403   -96.2666 2.3115e-01     1.6309      6.243      9.055     9.7918 0.0000e+00
      6.392      0.110     0.0660      0.616     81.070  56.372949     0.8314      7.398   -96.5469 2.1654e-01     1.5575      6.273      9.098     9.7850 0.0000e+00
      6.412      0.106     0.0649      0.603     81.171  56.448142     0.8300      7.394   -96.9038 2.1264e-01     1.5004      6.288      9.120     9.7757 0.0000e+00
      6.432      0.101     0.0664      0.599     81.497  56.676645     0.8299      7.390   -97.3118 2.1802e-01     1.4861      6.306      9.146     9.7680 0.0000e+00
      6.457      0.099     0.0733      0.578     81.846  56.913985     0.8224      7.387   -97.6951 2.1597e-01     1.5554      6.333      9.185     9.7639 0.0000e+00
      6.483      0.101     0.0700      0.555     81.943  56.969038     0.8139      7.383   -98.0104 2.0476e-01     1.6895      6.360      9.223     9.7647 0.0000e+00
      6.508      0.106     0.0667      0.551     82.041  57.024887     0.8186      7.379   -98.2854 1.8301e-01     1.7756      6.379      9.251     9.7693 0.0000e+00
      6.539      0.111     0.0701      0.552     82.500  57.335309     0.8287      7.375   -98.6105 1.6536e-01     1.7761      6.412      9.300     9.7720 0.0000e+00
      6.570      0.116     0.0653      0.554     83.097  57.738676     0.8280      7.371   -98.9302 1.6193e-01     1.7302      6.448      9.352     9.7686 0.0000e+00
      6.595      0.117     0.0615      0.569     83.360  57.902591     0.8100      7.367   -99.2253 1.5543e-01     1.6647      6.464      9.377     9.7588 0.0000e+00
      6.624      0.113     0.0628      0.589     83.320  57.857070     0.7944      7.365   -99.5115 1.4128e-01     1.6675      6.491      9.415     9.7496 0.0000e+00
      6.661      0.105     0.0631      0.602     83.285  57.823097     0.7974      7.364   -99.7231 1.3323e-01     1.7297      6.535      9.479     9.7475 0.0000e+00
      6.694      0.095     0.0617      0.601     83.363  57.872713     0.7957      7.361   -99.8898 1.3396e-01     1.7672      6.570      9.528     9.7423 0.0000e+00
      6.715      0.087     0.0644      0.588     83.477  57.949109     0.7739      7.359  -100.1504 1.3346e-01     1.7801      6.588      9.554     9.7276 0.0000e+00
      6.729      0.081     0.0676      0.593     83.531  57.984991     0.7505      7.356  -100.5516 1.2972e-01     1.7489      6.599      9.572     9.7150 0.0000e+00
      6.742      0.076     0.0686      0.606     83.537  57.989146     0.7375      7.353  -100.9553 1.2558e-01     1.6972      6.610      9.588     9.7105 0.0000e+00
      6.757      0.073     0.0698      0.603     83.554  57.999346     0.7339      7.350  -101.3315 1.2357e-01     1.6333      6.623      9.606     9.7083 0.0000e+00
      6.779      0.075     0.0649      0.598     83.534  57.981351     0.7403      7.347  -101.7454 1.2341e-01     1.5576      6.645      9.637     9.7067 0.0000e+00
      6.807      0.084     0.0669      0.593     83.419  57.898525     0.7568      7.345  -102.0872 1.2340e-01     1.4986      6.680      9.688     9.7065 0.0000e+00
      6.828      0.098     0.0710      0.583     83.312  57.823182     0.7747      7.342  -102.3667 1.2339e-01     1.4667      6.703      9.721     9.7067 0.0000e+00
      6.841      0.110     0.0673      0.568     83.326  57.832180     0.7909      7.338  -102.7153 1.2341e-01     1.4452      6.703      9.722     9.7063 0.0000e+00
      6.864      0.120     0.0688      0.566     83.401  57.880355     0.8023      7.334  -103.0328 1.2342e-01     1.4088      6.720      9.747     9.7031 0.0000e+00
      6.906      0.128     0.0671      0.568     83.431  57.897783     0.8120      7.332  -103.2811 1.2344e-01     1.4365      6.772      9.821     9.7000 0.0000e+00
      6.953      0.134     0.0674      0.568     83.370  57.852444     0.8248      7.330  -103.5659 1.2347e-01     1.5072      6.825      9.898     9.7006 0.0000e+00
      6.991      0.135     0.0630      0.578     83.264  57.776549     0.8238      7.328  -103.8959 1.2348e-01     1.5120      6.858      9.947     9.7003 0.0000e+00
      7.023      0.125     0.0643      0.579     83.218  57.741929     0.8006      7.326  -104.1737 1.2349e-01     1.4600      6.886      9.988     9.6979 0.0000e+00
      7.053      0.105     0.0658      0.577     83.236  57.751275     0.7695      7.324  -104.3434 1.2349e-01     1.4251      6.918     10.034     9.6954 0.0000e+00
      7.081      0.084     0.0624      0.567     83.256  57.762585     0.7552      7.322  -104.5701 1.2345e-01     1.4313      6.946     10.074     9.6936 0.0000e+00
      7.101      0.065     0.0676      0.554     83.240  57.751699     0.7610      7.322  -104.9358 1.2347e-01     1.4669      6.966     10.104     9.6925 0.0000e+00
      7.114      0.050     0.0648      0.557     83.231  57.746629     0.7640      7.321  -105.2375 1.2353e-01     1.4465      6.980     10.123     9.6913 0.0000e+00
      7.119      0.042     0.0664      0.559     83.348  57.828247     0.7593      7.320  -105.4654 1.2351e-01     1.3550      6.982     10.126     9.6889 0.0000e+00
      7.120      0.043     0.0653      0.553     83.654  58.040220     0.7539      7.318  -105.7976 1.2352e-01     1.3167      6.981     10.126     9.6866 0.0000e+00
      7.125      0.054     0.0613      0.545     84.003  58.278097     0.7483      7.315  -106.1575 1.2354e-01     1.2911      6.986     10.133     9.6877 0.0000e+00
      7.135      0.071     0.0638      0.536     84.216  58.418970     0.7502      7.314  -106.4614 1.2348e-01     1.3866      6.993     10.143     9.6885 0.0000e+00
      7.156      0.087     0.0642      0.531     84.306  58.473805     0.7600      7.313  -106.8048 1.2340e-01     1.6525      7.011     10.170     9.6884 0.0000e+00
      7.191      0.102     0.0624      0.536     84.348  58.496696     0.7675      7.312  -107.1260 1.2341e-01     1.8079      7.050     10.225     9.6894 0.0000e+00
      7.230      0.113     0.0622      0.534     84.365  58.505279     0.7650      7.311  -107.3337 1.2342e-01     1.7955      7.094     10.289     9.6862 0.0000e+00
      7.260      0.119     0.0609      0.532     84.379  58.514092     0.7554      7.309  -107.5950 1.2337e-01     1.6742      7.122     10.330     9.6811 0.0000e+00
      7.284      0.120     0.0593      0.541     84.420  58.539774     0.7603      7.307  -107.9630 1.2342e-01     1.5371      7.140     10.356     9.6768 0.0000e+00
      7.310      0.118     0.0620      0.552     84.553  58.625336     0.7742      7.305  -108.2550 1.2352e-01     1.5372      7.166     10.393     9.6730 0.0000e+00
      7.343      0.119     0.0608      0.577     84.890  58.850268     0.7814      7.303  -108.4587 1.2356e-01     1.6080      7.200     10.444     9.6706 0.0000e+00
      7.376      0.124     0.0592      0.596     85.357  59.164341     0.7814      7.302  -108.7044 1.2355e-01     1.6410      7.234     10.492     9.6714 0.0000e+00
      7.406      0.129     0.0625      0.582     85.582  59.311902     0.7647      7.300  -108.9884 1.2346e-01     1.6626      7.263     10.534     9.6709 0.0000e+00
      7.438      0.131     0.0617      0.562     85.667  59.364666     0.7464      7.298  -109.2261 1.2339e-01     1.6985      7.293     10.579     9.6658 0.0000e+00
      7.473      0.129     0.0655      0.561     86.217  59.738804     0.7431      7.298  -109.4273 1.2339e-01     1.7338      7.327     10.627     9.6604 0.0000e+00
      7.509      0.125     0.0706      0.572     87.291  60.470643     0.7501      7.297  -109.6143 1.2343e-01     1.7488      7.364     10.681     9.6540 0.0000e+00
      7.544      0.123     0.0656      0.576     88.321  61.165804     0.7559      7.294  -109.8529 1.2343e-01     1.7427      7.401     10.735     9.6491 0.0000e+00
      7.574      0.123     0.0632      0.562     88.986  61.604244     0.7545      7.291  -110.1610 1.2343e-01     1.7284      7.430     10.776     9.6463 0.0000e+00
      7.599      0.122     0.0632      0.542     89.536  61.962130     0.7505      7.288  -110.4133 1.2343e-01     1.7120      7.451     10.806     9.6428 0.0000e+00
      7.626      0.120     0.0654      0.539     90.082  62.318162     0.7489      7.286  -110.6665 1.2343e-01     1.6815      7.475     10.841     9.6370 0.0000e+00
      7.659      0.116     0.0666      0.546     90.439  62.543643     0.7605      7.284  -110.8996 1.2344e-01     1.6328      7.508     10.891     9.6256 0.0000e+00
      7.695      0.111     0.0644      0.549     91.088  62.973956     0.7745      7.282  -110.9947 1.2344e-01     1.5667      7.548     10.948     9.6119 0.0000e+00
      7.729      0.105     0.0607      0.545     92.728  64.092004     0.7674      7.281  -111.1272 1.2338e-01     1.4969      7.585     11.000     9.5998 0.0000e+00
      7.754      0.100     0.0609      0.540     94.466  65.266489     0.7500      7.280  -111.3840 1.2333e-01     1.4390      7.608     11.034     9.5874 0.0000e+00
      7.770      0.095     0.0629      0.540     95.494  65.934392     0.7475      7.279  -111.6052 1.2335e-01     1.4126      7.620     11.051     9.5745 0.0000e+00
      7.787      0.093     0.0626      0.544     96.304  66.451900     0.7534      7.276  -111.7365 1.2337e-01     1.4508      7.633     11.070     9.5643 0.0000e+00
      7.810      0.097     0.0627      0.550     96.799  66.760370     0.7539      7.272  -111.9382 1.2337e-01     1.4914      7.657     11.105     9.5597 0.0000e+00
      7.838      0.105     0.0608      0.543     97.270  67.060136     0.7625      7.268  -112.3230 1.2341e-01     1.4933      7.686     11.148     9.5470 0.0000e+00
      7.869      0.115     0.0620      0.528     98.164  67.662801     0.7904      7.264  -112.6037 1.2342e-01     1.5081      7.717     11.193     9.5190 0.0000e+00
      7.899      0.124     0.0614      0.538     99.143  68.330946     0.8167      7.260  -112.6650 1.2343e-01     1.4993      7.747     11.236     9.4968 0.0000e+00
      7.930      0.129     0.0635      0.555    100.283  69.104692     0.8147      7.256  -112.8064 1.2344e-01     1.4557      7.776     11.277     9.4815 0.0000e+00
      7.964      0.129     0.0632      0.550    101.114  69.650023     0.8076      7.253  -113.0228 1.2338e-01     1.4933      7.808     11.324     9.4662 0.0000e+00
      8.001      0.126     0.0581      0.536    101.444  69.843008     0.8055      7.251  -113.0441 1.2337e-01     1.6465      7.846     11.380     9.4599 0.0000e+00
      8.038      0.125     0.0612      0.538    102.323  70.421685     0.7892      7.250  -112.8920 1.2344e-01     1.7708      7.885     11.435     9.4602 0.0000e+00
      8.068      0.125     0.0653      0.555    103.736  71.374302     0.7687      7.247  -112.9042 1.2349e-01     1.7661      7.916     11.480     9.4559 0.0000e+00
      8.093      0.130     0.0632      0.574    104.806  72.086475     0.7501      7.243  -113.1913 1.2346e-01     1.7267      7.937     11.511     9.4410 0.0000e+00
      8.118      0.138     0.0604      0.565    105.523  72.552835     0.7552      7.239  -113.6104 1.2342e-01     1.7729      7.958     11.542     9.4198 0.0000e+00
      8.151      0.150     0.0610      0.536    106.313  73.074204     0.7969      7.234  -114.0134 1.2343e-01     1.9148      7.990     11.589     9.4071 0.0000e+00
      8.194      0.162     0.0631      0.528    107.138  73.625475     0.8292      7.229  -114.3650 1.2345e-01     2.0414      8.033     11.651     9.4016 0.0000e+00
      8.245      0.168     0.0671      0.538    107.528  73.881508     0.8378      7.228  -114.6775 1.2345e-01     2.0736      8.085     11.727     9.3890 0.0000e+00
      8.298      0.163     0.0665      0.548    107.451  73.819170     0.8514      7.227  -114.8669 1.2340e-01     1.9625      8.140     11.805     9.3741 0.0000e+00
      8.347      0.144     0.0596      0.556    107.098  73.570613     0.8606      7.225  -115.0200 1.2336e-01     1.7572      8.188     11.876     9.3641 0.0000e+00
      8.386      0.114     0.0596      0.556    106.406  73.099858     0.8579      7.223  -115.3240 1.2342e-01     1.6752      8.229     11.934     9.3572 0.0000e+00
      8.412      0.082     0.0623      0.542    105.710  72.638065     0.8601      7.222  -115.7900 1.2347e-01     1.7225      8.256     11.974     9.3519 0.0000e+00
      8.422      0.055     0.0624      0.533    105.561  72.561344     0.8617      7.222  -116.2655 1.2343e-01     1.7484      8.264     11.986     9.3476 0.0000e+00
      8.422      0.036     0.0642      0.538    105.881  72.807551     0.8522      7.223  -116.6857 1.2344e-01     1.7496      8.259     11.979     9.3432 0.0000e+00
      8.420      0.026     0.0645      0.547    106.061  72.946703     0.8377      7.224  -117.0851 1.2345e-01     1.7707      8.255     11.973     9.3452 0.0000e+00
      8.422      0.023     0.0619      0.546    106.002  72.909714     0.8271      7.224  -117.3951 1.2341e-01     1.7651      8.257     11.975     9.3535 0.0000e+00
      8.432      0.025     0.0599      0.531    105.940  72.868569     0.8166      7.223  -117.5942 1.2342e-01     1.7156      8.268     11.992     9.3661 0.0000e+00
      8.446      0.027     0.0617      0.516    105.785  72.766874     0.8096      7.223  -117.7717 1.2348e-01     1.6846      8.284     12.015     9.3828 0.0000e+00
      8.456      0.028     0.0630      0.509    105.488  72.569554     0.8177      7.223  -117.9928 1.2354e-01     1.6979      8.294     12.029     9.3892 0.0000e+00
      8.461      0.026     0.0633      0.509    105.300  72.452215     0.8313      7.223  -118.2885 1.2356e-01     1.7402      8.298     12.035     9.3878 0.0000e+00
      8.465      0.023     0.0607      0.512    105.523  72.618743     0.8413      7.223  -118.5939 1.2353e-01     1.7852      8.301     12.039     9.3890 0.0000e+00
      8.468      0.022     0.0586      0.527    106.258  73.121862     0.8381      7.223  -118.8456 1.2348e-01     1.7983      8.304     12.044     9.3914 0.0000e+00
      8.473      0.023     0.0580      0.546    107.148  73.707025     0.8182      7.223  -119.0948 1.2348e-01     1.7613      8.309     12.051     9.3932 0.0000e+00
      8.479      0.026     0.0584      0.556    107.792  74.103059     0.8087      7.224  -119.2844 1.2353e-01     1.7143      8.315     12.060     9.3996 0.0000e+00
      8.487      0.028     0.0579      0.561    108.224  74.352356     0.8152      7.224  -119.3319 1.2352e-01     1.7078      8.322     12.070     9.4094 0.0000e+00
      8.496      0.028     0.0600      0.559    108.389  74.433957     0.8209      7.225  -119.4105 1.2343e-01     1.7176      8.332     12.084     9.4103 0.0000e+00
      8.505      0.027     0.0633      0.544    108.156  74.263697     0.8274      7.225  -119.9765 1.2348e-01     1.7297      8.341     12.097     9.3967 0.0000e+00
      8.512      0.026     0.0636      0.528    107.589  73.882127     0.8362      7.225  -120.9257 1.2358e-01     1.7511      8.347     12.107     9.3708 0.0000e+00
      8.519      0.023     0.0646      0.519    106.918  73.441877     0.8361      7.225  -121.5958 1.2350e-01     1.7374      8.354     12.116     9.3459 0.0000e+00
      8.524      0.018     0.0648      0.511    106.423  73.133871     0.8260      7.224  -121.7981 1.2341e-01     1.7355      8.359     12.124     9.3308 0.0000e+00
      8.528      0.014     0.0625      0.506    106.014  72.889964     0.8224      7.224  -121.6501 1.2345e-01     1.7968      8.363     12.129     9.3264 0.0000e+00
      8.530      0.011     0.0597      0.507    105.353  72.462313     0.8251      7.224  -121.5277 1.2349e-01     1.8291      8.366     12.133     9.3317 0.0000e+00
      8.532      0.007     0.0598      0.508    104.427  71.838492     0.8264      7.224  -121.6945 1.2348e-01     1.7851      8.368     12.137     9.3405 0.0000e+00
      8.534      0.005     0.0581      0.514    103.653  71.319047     0.8291      7.224  -121.9469 1.2347e-01     1.7422      8.369     12.138     9.3564 0.0000e+00
      8.535      0.003     0.0577      0.532    103.070  70.946283     0.8247      7.226  -122.1702 1.2347e-01     1.7201      8.370     12.139     9.3779 0.0000e+00
      8.535      0.001     0.0581      0.543    102.469  70.571239     0.8062      7.226  -122.3291 1.2352e-01     1.6882      8.370     12.140     9.3912 0.0000e+00
      8.535     -0.001     0.0580      0.526    102.082  70.341793     0.8057      7.226  -122.4054 1.2356e-01     1.6981      8.369     12.139     9.3941 0.0000e+00
      8.534     -0.003     0.0577      0.505    102.027  70.331906     0.8265      7.227  -122.5761 1.2355e-01     1.8751      8.369     12.138     9.3971 0.0000e+00
      8.534     -0.004     0.0611      0.510    101.991  70.324676     0.8330      7.227  -122.9301 1.2348e-01     2.1543      8.369     12.138     9.4118 0.0000e+00
      8.533     -0.005     0.0640      0.536    101.783  70.190871     0.8175      7.227  -123.2449 1.2345e-01     2.2722      8.368     12.137     9.4342 0.0000e+00
      8.530     -0.005     0.0603      0.544    101.573  70.048057     0.7974      7.227  -123.4565 1.2341e-01     2.2418      8.365     12.133     9.4530 0.0000e+00
      8.528     -0.005     0.0564      0.531    101.410  69.931887     0.7899      7.228  -123.6820 1.2336e-01     2.1971      8.363     12.130     9.4664 0.0000e+00
      8.527     -0.006     0.0567      0.510    100.943  69.612043     0.7852      7.229  -123.9067 1.2340e-01     2.0741      8.362     12.128     9.4754 0.0000e+00
      8.527     -0.016     0.0630      0.504     99.626  68.721655     0.7738      7.229  -124.0225 1.2349e-01     1.8811      8.361     12.127     9.4800 0.0000e+00
      8.527     -0.045     0.0629      0.522     96.953  66.915473     0.7605      7.229  -124.0491 1.2354e-01     1.7756      8.362     12.129     9.4807 0.0000e+00
      8.526     -0.100     0.0610      0.536     93.598  64.668092     0.7573      7.232  -124.1431 1.2356e-01     1.7552      8.363     12.129     9.4768 0.0000e+00
      8.517     -0.180     0.0581      0.534     90.767  62.824178     0.7596      7.237  -124.3844 1.2352e-01     1.7030      8.358     12.122     9.4753 0.0000e+00
      8.483     -0.265     0.0551      0.519     88.308  61.258778     0.7474      7.243  -124.9015 1.2349e-01     1.6574      8.337     12.092     9.4850 0.0000e+00
      8.400     -0.337     0.0610      0.512     86.266  59.964219     0.7342      7.249  -125.7487 1.2354e-01     1.6813      8.262     11.982     9.5019 0.0000e+00
      8.264     -0.383     0.0612      0.511     85.100  59.235513     0.7420      7.255  -126.6264 1.2356e-01     1.7186      8.111     11.763     9.5341 0.0000e+00
      8.111     -0.393     0.0620      0.493     84.315  58.733613     0.7744      7.262  -127.1676 1.2350e-01     1.6641      7.941     11.518     9.5994 0.0000e+00
      7.984     -0.370     0.0585      0.483     83.729  58.339873     0.8097      7.267  -127.4746 1.2346e-01     1.5358      7.814     11.334     9.6878 0.0000e+00
      7.899     -0.321     0.0567      0.497     83.568  58.220494     0.8200      7.271  -127.7564 1.2346e-01     1.4653      7.735     11.218     9.7639 0.0000e+00
      7.846     -0.263     0.0601      0.520     83.530  58.179009     0.8151      7.272  -127.9079 1.2345e-01     1.4940      7.689     11.153     9.8088 0.0000e+00
      7.810     -0.213     0.0547      0.548     83.424  58.092202     0.8167      7.273  -127.9297 1.2344e-01     1.5759      7.660     11.110     9.8329 0.0000e+00
      7.772     -0.182     0.0534      0.569     83.389  58.059686     0.8232      7.276  -128.0204 1.2339e-01     1.6019      7.626     11.061     9.8417 0.0000e+00
      7.726     -0.167     0.0563      0.568     83.366  58.039781     0.8266      7.278  -128.2299 1.2335e-01     1.5349      7.579     10.992     9.8329 0.0000e+00
      7.676     -0.162     0.0587      0.559     83.279  57.978502     0.8251      7.279  -128.3976 1.2340e-01     1.4839      7.525     10.913     9.8216 0.0000e+00
      7.631     -0.162     0.0621      0.549     83.239  57.953601     0.8225      7.280  -128.4132 1.2344e-01     1.4974      7.480     10.848     9.8142 0.0000e+00
      7.596     -0.159     0.0659      0.525     83.292  57.992650     0.8197      7.283  -128.3325 1.2348e-01     1.5274      7.449     10.803     9.8094 0.0000e+00
      7.563     -0.153     0.0645      0.508     83.404  58.069749     0.8156      7.285  -128.3685 1.2351e-01     1.5385      7.420     10.760     9.8080 0.0000e+00
      7.523     -0.144     0.0629      0.511     83.673  58.250952     0.8149      7.286  -128.5907 1.2345e-01     1.5292      7.380     10.703     9.8065 0.0000e+00
      7.479     -0.139     0.0638      0.509     84.008  58.469479     0.8105      7.287  -128.6962 1.2337e-01     1.4832      7.333     10.635     9.8092 0.0000e+00
      7.440     -0.136     0.0589      0.509     84.164  58.553450     0.8043      7.289  -128.6973 1.2342e-01     1.4274      7.291     10.574     9.8119 0.0000e+00
      7.412     -0.133     0.0559      0.527     84.129  58.504395     0.8064      7.291  -128.8621 1.2344e-01     1.4353      7.266     10.539     9.8101 0.0000e+00
      7.387     -0.130     0.0591      0.543     83.887  58.320739     0.8115      7.293  -129.1400 1.2337e-01     1.5088      7.247     10.511     9.8084 0.0000e+00
      7.355     -0.129     0.0577      0.533     83.590  58.110437     0.8163      7.294  -129.4757 1.2342e-01     1.5653      7.214     10.463     9.8007 0.0000e+00
      7.317     -0.131     0.0565      0.512     83.508  58.056630     0.8228      7.294  -129.7379 1.2353e-01     1.5371      7.174     10.405     9.7829 0.0000e+00
      7.282     -0.133     0.0598      0.514     83.586  58.114556     0.8229      7.295  -129.8155 1.2356e-01     1.4755      7.140     10.355     9.7659 0.0000e+00
      7.247     -0.130     0.0633      0.525     83.680  58.175983     0.8169      7.297  -129.8982 1.2354e-01     1.4700      7.108     10.309     9.7567 0.0000e+00
      7.211     -0.123     0.0617      0.522     83.683  58.164494     0.8178      7.299  -130.1344 1.2352e-01     1.5045      7.073     10.258     9.7552 0.0000e+00
      7.176     -0.118     0.0562      0.516     83.617  58.102596     0.8248      7.301  -130.4343 1.2350e-01     1.5164      7.035     10.203     9.7587 0.0000e+00
      7.149     -0.119     0.0579      0.513     83.572  58.062409     0.8194      7.302  -130.6849 1.2343e-01     1.5123      7.006     10.161     9.7627 0.0000e+00
      7.130     -0.128     0.0607      0.506     83.567  58.059494     0.8028      7.303  -130.8419 1.2335e-01     1.4885      6.993     10.144     9.7616 0.0000e+00
      7.107     -0.139     0.0593      0.498     83.568  58.067346     0.7982      7.305  -130.9560 1.2333e-01     1.4337      6.976     10.118     9.7516 0.0000e+00
      7.070     -0.149     0.0582      0.496     83.504  58.030387     0.7880      7.308  -131.1177 1.2332e-01     1.4309      6.938     10.064     9.7383 0.0000e+00
      7.020     -0.159     0.0588      0.497     83.442  57.993542     0.7711      7.310  -131.2492 1.2330e-01     1.4889      6.886      9.987     9.7328 0.0000e+00
      6.966     -0.167     0.0574      0.504     83.448  58.002768     0.7691      7.310  -131.4269 1.2333e-01     1.5192      6.828      9.904     9.7349 0.0000e+00
      6.920     -0.171     0.0560      0.515     83.462  58.014988     0.7638      7.311  -131.6310 1.2339e-01     1.4904      6.782      9.836     9.7402 0.0000e+00
      6.883     -0.169     0.0565      0.514     83.461  58.014321     0.7644      7.313  -131.7389 1.2343e-01     1.4479      6.751      9.791     9.7452 0.0000e+00
      6.846     -0.165     0.0562      0.501     83.432  57.994701     0.7858      7.315  -131.9573 1.2346e-01     1.4503      6.716      9.740     9.7486 0.0000e+00
      6.804     -0.161     0.0567      0.493     83.298  57.904732     0.8053      7.317  -132.2067 1.2351e-01     1.4841      6.672      9.676     9.7518 0.0000e+00
      6.762     -0.156     0.0594      0.497     83.072  57.751804     0.8183      7.319  -132.4317 1.2409e-01     1.5494      6.632      9.618     9.7532 0.0000e+00
      6.718     -0.150     0.0593      0.500     82.954  57.669261     0.8260      7.321  -132.8701 1.3022e-01     1.5910      6.589      9.557     9.7532 0.0000e+00
      6.673     -0.144     0.0562      0.487     83.053  57.731988     0.8231      7.323  -133.2912 1.4325e-01     1.5434      6.541      9.487     9.7523 0.0000e+00
      6.638     -0.141     0.0557      0.470     83.173  57.811919     0.8170      7.324  -133.3938 1.5335e-01     1.4867      6.505      9.434     9.7542 0.0000e+00
      6.614     -0.142     0.0560      0.465     83.163  57.810434     0.8184      7.325  -133.3368 1.5698e-01     1.4862      6.487      9.408     9.7595 0.0000e+00
      6.590     -0.146     0.0579      0.473     83.093  57.777517     0.8484      7.326  -133.4613 1.6554e-01     1.5368      6.468      9.382     9.7593 0.0000e+00
      6.552     -0.147     0.0554      0.486     82.993  57.731355     0.9056      7.328  -133.8675 1.7861e-01     1.5854      6.430      9.327     9.7534 0.0000e+00
      6.502     -0.148     0.0526      0.495     82.827  57.633220     0.9441      7.331  -134.2902 1.8008e-01     1.5617      6.376      9.249     9.7497 0.0000e+00
      6.451     -0.150     0.0525      0.494     82.604  57.479743     0.9471      7.333  -134.5276 1.8303e-01     1.4891      6.321      9.168     9.7520 0.0000e+00
      6.411     -0.151     0.0535      0.492     82.399  57.335778     0.9337      7.334  -134.5875 1.9972e-01     1.4598      6.279      9.107     9.7619 0.0000e+00
      6.385     -0.150     0.0555      0.502     82.227  57.225668     0.8987      7.335  -134.5845 2.1030e-01     1.4802      6.263      9.082     9.7797 0.0000e+00
      6.359     -0.149     0.0567      0.501     82.114  57.164122     0.8485      7.337  -134.6630 2.1888e-01     1.4971      6.244      9.056     9.7939 0.0000e+00
      6.321     -0.149     0.0566      0.494     82.090  57.162974     0.8180      7.339  -134.8486 2.3905e-01     1.4928      6.202      8.995     9.7908 0.0000e+00
      6.273     -0.149     0.0542      0.492     82.050  57.148329     0.8134      7.341  -135.0221 2.5830e-01     1.4623      6.151      8.922     9.7856 0.0000e+00
      6.226     -0.144     0.0582      0.484     81.808  56.987066     0.8168      7.344  -135.1251 2.6946e-01     1.4362      6.105      8.854     9.7937 0.0000e+00
      6.185     -0.129     0.0572      0.487     81.083  56.482774     0.8175      7.345  -135.2336 2.8210e-01     1.4506      6.063      8.793     9.8063 0.0000e+00
      6.152     -0.107     0.0548      0.492     80.212  55.875356     0.8229      7.346  -135.3875 2.9911e-01     1.4991      6.029      8.745     9.8157 0.0000e+00
      6.128     -0.088     0.0571      0.478     79.904  55.673245     0.8231      7.349  -135.6087 3.1897e-01     1.5101      6.006      8.711     9.8237 0.0000e+00
      6.115     -0.084     0.0535      0.469     80.075  55.816464     0.8107      7.351  -135.8432 3.2923e-01     1.4475      5.991      8.689     9.8295 0.0000e+00
      6.112     -0.095     0.0550      0.478     80.338  56.020124     0.8067      7.352  -135.9872 3.2193e-01     1.4250      5.994      8.693     9.8291 0.0000e+00
      6.105     -0.115     0.0574      0.482     80.531  56.167914     0.8159      7.354  -136.0584 3.2444e-01     1.4771      5.997      8.699     9.8237 0.0000e+00
      6.074     -0.135     0.0538      0.480     80.574  56.206898     0.8306      7.358  -136.1880 3.4535e-01     1.5312      5.967      8.655     9.8314 0.0000e+00
      6.017     -0.151     0.0514      0.478     80.521  56.174094     0.8521      7.361  -136.4355 3.7816e-01     1.5669      5.903      8.561     9.8523 0.0000e+00
      5.953     -0.161     0.0551      0.476     80.396  56.088682     0.8747      7.362  -136.6416 4.1066e-01     1.5333      5.831      8.457     9.8649 0.0000e+00
      5.904     -0.159     0.0549      0.482     80.175  55.935925     0.8795      7.363  -136.7009 4.3041e-01     1.4315      5.781      8.385     9.8717 0.0000e+00
      5.872     -0.144     0.0538      0.482     79.959  55.787095     0.8771      7.365  -136.8081 4.5732e-01     1.4292      5.758      8.351     9.8780 0.0000e+00
      5.846     -0.125     0.0551      0.468     79.810  55.685693     0.8798      7.366  -137.0778 4.8063e-01     1.5406      5.734      8.318     9.8805 0.0000e+00
      5.818     -0.110     0.0524      0.465     79.682  55.598551     0.8787      7.366  -137.2946 4.8652e-01     1.5823      5.706      8.274     9.8802 0.0000e+00
      5.793     -0.106     0.0553      0.474     79.437  55.431712     0.8717      7.366  -137.3638 4.9757e-01     1.5238      5.680      8.237     9.8804 0.0000e+00
      5.771     -0.111     0.0556      0.477     79.172  55.255346     0.8627      7.369  -137.3123 5.1882e-01     1.4476      5.660      8.209     9.8827 0.0000e+00
      5.746     -0.117     0.0522      0.470     79.135  55.243441     0.8608      7.370  -137.2756 5.3560e-01     1.4131      5.638      8.177     9.8843 0.0000e+00
      5.714     -0.123     0.0519      0.467     79.091  55.224318     0.8565      7.370  -137.4358 5.4666e-01     1.4484      5.607      8.132     9.8846 0.0000e+00
      5.675     -0.130     0.0542      0.478     78.793  55.024151     0.8446      7.371  -137.6146 5.7182e-01     1.4993      5.565      8.072     9.8865 0.0000e+00
      5.637     -0.139     0.0548      0.495     78.536  54.854419     0.8332      7.373  -137.7165 5.9816e-01     1.5154      5.524      8.011     9.8921 0.0000e+00
      5.606     -0.145     0.0526      0.489     78.562  54.885899     0.8269      7.374  -137.8934 6.1324e-01     1.5073      5.498      7.974     9.9028 0.0000e+00
      5.574     -0.145     0.0525      0.470     78.468  54.833536     0.8263      7.375  -138.2051 6.3899e-01     1.4687      5.472      7.935     9.9110 0.0000e+00
      5.532     -0.137     0.0530      0.478     77.936  54.475210     0.8254      7.378  -138.4734 6.7206e-01     1.4584      5.426      7.870     9.9134 0.0000e+00
      5.487     -0.128     0.0576      0.491     77.389  54.107889     0.8329      7.381  -138.4699 7.0653e-01     1.5198      5.377      7.799     9.9200 0.0000e+00
      5.449     -0.122     0.0566      0.493     77.136  53.946753     0.8433      7.383  -138.4218 7.3058e-01     1.5619      5.338      7.742     9.9291 0.0000e+00
      5.424     -0.116     0.0503      0.498     76.991  53.859844     0.8345      7.384  -138.5803 7.2737e-01     1.5225      5.315      7.709     9.9374 0.0000e+00
      5.409     -0.111     0.0544      0.494     76.914  53.818740     0.8092      7.386  -138.7503 7.2614e-01     1.4538      5.309      7.699     9.9460 0.0000e+00
      5.388     -0.108     0.0564      0.482     76.914  53.830615     0.7961      7.387  -138.8424 7.5438e-01     1.4478      5.290      7.672     9.9553 0.0000e+00
      5.356     -0.108     0.0549      0.482     76.780  53.749554     0.8085      7.388  -139.0066 7.8792e-01     1.4850      5.252      7.618     9.9665 0.0000e+00
      5.321     -0.110     0.0567      0.483     76.460  53.536821     0.8423      7.389  -139.2734 8.0845e-01     1.5278      5.215      7.564     9.9759 0.0000e+00
      5.289     -0.110     0.0568      0.466     76.092  53.289513     0.8723      7.389  -139.4864 8.2940e-01     1.5554      5.187      7.522     9.9833 0.0000e+00
      5.260     -0.102     0.0532      0.463     75.730  53.044274     0.8717      7.389  -139.6035 8.5277e-01     1.5114      5.158      7.482     9.9919 0.0000e+00
      5.235     -0.089     0.0539      0.471     75.271  52.729593     0.8678      7.390  -139.7424 8.6977e-01     1.4737      5.131      7.442    10.0000 0.0000e+00
      5.214     -0.076     0.0566      0.462     74.886  52.467689     0.8757      7.391  -139.7891 8.8042e-01     1.5095      5.112      7.415    10.0076 0.0000e+00
      5.196     -0.070     0.0509      0.463     74.982  52.543217     0.8836      7.392  -139.6516 8.8633e-01     1.5690      5.094      7.389    10.0144 0.0000e+00
      5.184     -0.072     0.0511      0.468     75.277  52.754279     0.8891      7.393  -139.6289 8.8698e-01     1.5786      5.080      7.369    10.0196 0.0000e+00
      5.176     -0.080     0.0552      0.458     75.338  52.798304     0.8828      7.393  -139.8586 8.9056e-01     1.5231      5.078      7.364    10.0243 0.0000e+00
      5.162     -0.092     0.0508      0.469     75.277  52.758196     0.8580      7.393  -140.1057 9.1183e-01     1.4781      5.071      7.353    10.0288 0.0000e+00
      5.131     -0.103     0.0516      0.484     75.205  52.713615     0.8229      7.394  -140.2943 9.5083e-01     1.5131      5.036      7.303    10.0359 0.0000e+00
      5.091     -0.112     0.0551      0.479     75.090  52.640080     0.8077      7.396  -140.5040 9.8458e-01     1.5693      4.990      7.238    10.0390 0.0000e+00
      5.055     -0.113     0.0490      0.475     74.708  52.376840     0.8153      7.397  -140.6619 1.0079e+00     1.5430      4.956      7.188    10.0377 0.0000e+00
      5.025     -0.107     0.0528      0.469     74.177  52.005960     0.8154      7.397  -140.7407 1.0344e+00     1.5033      4.928      7.146    10.0389 0.0000e+00
      4.998     -0.097     0.0569      0.462     74.116  51.963722     0.8171      7.397  -140.8545 1.0530e+00     1.4990      4.901      7.107    10.0435 0.0000e+00
      4.977     -0.092     0.0524      0.462     74.424  52.183477     0.8442      7.397  -140.9200 1.0580e+00     1.4911      4.878      7.073    10.0498 0.0000e+00
      4.963     -0.092     0.0546      0.459     74.514  52.251337     0.8761      7.398  -140.9303 1.0611e+00     1.5108      4.865      7.057    10.0530 0.0000e+00
      4.949     -0.097     0.0525      0.445     74.455  52.213042     0.8862      7.398  -141.0638 1.0724e+00     1.5316      4.858      7.047    10.0529 0.0000e+00
      4.924     -0.103     0.0516      0.443     74.474  52.228190     0.8840      7.398  -141.3302 1.0957e+00     1.5032      4.834      7.011    10.0527 0.0000e+00
      4.888     -0.111     0.0523      0.464     74.404  52.180630     0.8830      7.399  -141.5711 1.1273e+00     1.4748      4.793      6.951    10.0557 0.0000e+00
      4.850     -0.121     0.0525      0.479     74.349  52.145716     0.8815      7.399  -141.6531 1.1624e+00     1.4962      4.752      6.892    10.0592 0.0000e+00
      4.820     -0.127     0.0498      0.487     74.489  52.250311     0.8827      7.399  -141.7188 1.1890e+00     1.5565      4.725      6.853    10.0608 0.0000e+00
      4.794     -0.128     0.0477      0.492     74.464  52.239447     0.8805      7.400  -141.8498 1.2096e+00     1.5895      4.706      6.824    10.0621 0.0000e+00
      4.762     -0.124     0.0534      0.491     74.228  52.077836     0.8719      7.401  -142.0326 1.2311e+00     1.5536      4.673      6.777    10.0629 0.0000e+00
      4.725     -0.118     0.0542      0.489     74.125  52.009855     0.8714      7.401  -142.2078 1.2555e+00     1.4982      4.630      6.716    10.0648 0.0000e+00
      4.690     -0.107     0.0546      0.484     73.819  51.798280     0.8734      7.401  -142.2477 1.2919e+00     1.5006      4.597      6.667    10.0706 0.0000e+00
      4.660     -0.088     0.0562      0.479     72.738  51.042817     0.8880      7.403  -142.2566 1.3304e+00     1.5476      4.569      6.627    10.0759 0.0000e+00
      4.635     -0.065     0.0548      0.485     71.662  50.300639     0.9232      7.407  -142.4017 1.3516e+00     1.5540      4.542      6.588    10.0770 0.0000e+00
      4.620     -0.050     0.0550      0.478     71.642  50.313096     0.9407      7.411  -142.5397 1.3533e+00     1.5097      4.525      6.563    10.0797 0.0000e+00
      4.620     -0.050     0.0556      0.464     72.049  50.622373     0.9341      7.413  -142.5480 1.3423e+00     1.4562      4.526      6.565    10.0835 0.0000e+00
      4.630     -0.061     0.0520      0.469     72.204  50.740219     0.9259      7.413  -142.5880 1.3362e+00     1.3860      4.545      6.591    10.0821 0.0000e+00
      4.627     -0.076     0.0560      0.462     72.352  50.849538     0.9086      7.412  -142.6791 1.3642e+00     1.3102      4.552      6.601    10.0870 0.0000e+00
      4.596     -0.094     0.0550      0.444     72.369  50.865313     0.8915      7.412  -142.8747 1.4156e+00     1.2902      4.515      6.548    10.1135 0.0000e+00
      4.547     -0.111     0.0492      0.439     72.190  50.740578     0.8933      7.412  -143.4910 1.4543e+00     1.2808      4.454      6.460    10.1336 0.0000e+00
      4.504     -0.126     0.0546      0.439     72.091  50.674051     0.8896      7.412  -144.0225 1.4759e+00     1.2313      4.411      6.398    10.1333 0.0000e+00
      4.475     -0.131     0.0526      0.457     71.843  50.505169     0.8961      7.411  -143.7938 1.4885e+00     1.2379      4.387      6.362    10.1382 0.0000e+00
      4.453     -0.126     0.0485      0.475     71.158  50.031304     0.9301      7.410  -143.8229 1.5034e+00     1.3265      4.369      6.336    10.1420 0.0000e+00
      4.426     -0.118     0.0504      0.473     70.215  49.386699     0.9511      7.410  -144.5467 1.5344e+00     1.3464      4.345      6.301    10.1402 0.0000e+00
      4.391     -0.112     0.0475      0.466     69.523  48.930136     0.9503      7.411  -145.0592 1.5747e+00     1.2733      4.306      6.246    10.1432 0.0000e+00
      4.356     -0.107     0.0514      0.455     69.331  48.826092     0.9371      7.411  -145.4598 1.6066e+00     1.2969      4.269      6.191    10.1468 0.0000e+00
      4.327     -0.096     0.0552      0.450     69.120  48.699849     0.9250      7.412  -145.9493 1.6252e+00     1.4261      4.242      6.152    10.1496 0.0000e+00
      4.303     -0.074     0.0525      0.451     68.160  48.038298     0.9284      7.414  -145.9012 1.6322e+00     1.5040      4.220      6.120    10.1619 0.0000e+00
      4.283     -0.047     0.0531      0.444     66.810  47.109076     0.9449      7.418  -145.6525 1.6417e+00     1.5550      4.198      6.089    10.1878 0.0000e+00
      4.269     -0.027     0.0506      0.446     66.392  46.855441     0.9663      7.421  -145.9537 1.6448e+00     1.5648      4.181      6.063    10.2124 0.0000e+00
      4.271     -0.024     0.0498      0.463     67.172  47.446244     0.9788      7.423  -146.2728 1.6230e+00     1.4868      4.182      6.064    10.2284 0.0000e+00
      4.288     -0.038     0.0517      0.472     68.170  48.161295     0.9798      7.425  -146.0696 1.6017e+00     1.4651      4.206      6.100    10.2353 0.0000e+00
      4.300     -0.060     0.0493      0.475     68.704  48.521481     0.9783      7.428  -145.7332 1.6005e+00     1.5066      4.229      6.134    10.2449 0.0000e+00
      4.282     -0.083     0.0486      0.470     68.887  48.628586     0.9691      7.431  -145.5620 1.6379e+00     1.5112      4.212      6.110    10.2840 0.0000e+00
      4.234     -0.106     0.0534      0.456     68.915  48.631380     0.9440      7.435  -145.4617 1.7168e+00     1.4864      4.155      6.027    10.3255 0.0000e+00
      4.179     -0.129     0.0524      0.448     68.734  48.491786     0.9241      7.436  -145.2954 1.7745e+00     1.4463      4.090      5.930    10.3296 0.0000e+00
      4.139     -0.151     0.0538      0.451     68.514  48.336741     0.9200      7.436  -145.0137 1.7870e+00     1.4014      4.048      5.871    10.3090 0.0000e+00
      4.120     -0.166     0.0533      0.451     68.413  48.279627     0.9198      7.437  -144.8091 1.8029e+00     1.3878      4.041      5.861    10.2916 0.0000e+00
      4.098     -0.174     0.0507      0.451     68.154  48.118509     0.9213      7.439  -144.8001 1.8694e+00     1.3842      4.032      5.848    10.2813 0.0000e+00
      4.050     -0.178     0.0496      0.459     67.379  47.594288     0.9213      7.441  -144.9918 1.9857e+00     1.3242      3.982      5.775    10.2700 0.0000e+00
      3.980     -0.174     0.0509      0.459     65.535  46.319461     0.9283      7.441  -145.2335 2.1127e+00     1.2428      3.901      5.657    10.2680 0.0000e+00
      3.911     -0.158     0.0509      0.455     63.534  44.949841     0.9559      7.437  -145.3986 2.2263e+00     1.2200      3.828      5.551    10.2821 0.0000e+00
      3.862     -0.128     0.0494      0.459     62.790  44.484726     0.9894      7.432  -145.2672 2.2979e+00     1.2539      3.780      5.481    10.2983 0.0000e+00
      3.838     -0.094     0.0526      0.472     61.391  43.551052     0.9998      7.428  -144.7632 2.3146e+00     1.2754      3.754      5.446    10.3161 0.0000e+00
      3.837     -0.074     0.0510      0.468     59.065  41.970935     0.9897      7.426  -144.3814 2.2825e+00     1.2419      3.756      5.448    10.3330 0.0000e+00
      3.850     -0.074     0.0511      0.451     58.601  41.746175     0.9836      7.427  -144.3509 2.2567e+00     1.1899      3.779      5.480    10.3636 0.0000e+00
      3.852     -0.093     0.0502      0.450     59.677  42.610088     0.9849      7.428  -144.4808 2.3312e+00     1.1939      3.792      5.500    10.4260 0.0000e+00
      3.823     -0.122     0.0536      0.455     60.385  43.155286     0.9886      7.431  -144.4897 2.4879e+00     1.2558      3.760      5.453    10.4679 0.0000e+00
      3.766     -0.153     0.0536      0.464     59.834  42.755898     0.9952      7.434  -144.2860 2.6638e+00     1.2898      3.693      5.357    10.5091 0.0000e+00
      3.703     -0.178     0.0480      0.480     58.818  42.031114     0.9978      7.435  -144.3413 2.8448e+00     1.2630      3.627      5.260    10.6174 0.0000e+00
      3.649     -0.189     0.0504      0.484     58.989  42.194400     1.0042      7.437  -144.8145 3.0102e+00     1.2393      3.572      5.182    10.7213 0.0000e+00
      3.606     -0.182     0.0506      0.474     59.720  42.763901     1.0219      7.441  -145.2755 3.1651e+00     1.2418      3.536      5.128    10.7458 0.0000e+00
      3.566     -0.159     0.0503      0.473     59.183  42.383284     1.0377      7.446  -145.3537 3.3523e+00     1.2590      3.502      5.079    10.7234 0.0000e+00
      3.521     -0.129     0.0543      0.474     56.938  40.763899     1.0529      7.451  -144.6418 3.5553e+00     1.3106      3.453      5.007    10.7078 0.0000e+00
      3.479     -0.097     0.0544      0.469     55.283  39.612447     1.0811      7.452  -143.7233 3.6771e+00     1.3872      3.404      4.937    10.7576 0.0000e+00
      3.455     -0.065     0.0515      0.461     55.477  39.815023     1.1212      7.451  -144.1425 3.6840e+00     1.4683      3.381      4.904    10.8219 0.0000e+00
      3.449     -0.040     0.0525      0.453     55.130  39.598144     1.1537      7.449  -144.6348 3.6505e+00     1.5053      3.380      4.902    10.8126 0.0000e+00
      3.455     -0.029     0.0532      0.464     53.766  38.639259     1.1666      7.445  -143.3951 3.6185e+00     1.4934      3.386      4.911    10.7720 0.0000e+00
      3.466     -0.039     0.0512      0.479     53.300  38.369093     1.1690      7.442  -142.1450 3.5782e+00     1.4279      3.398      4.929    10.8067 0.0000e+00
      3.473     -0.067     0.0519      0.475     53.956  38.932079     1.1661      7.442  -141.8233 3.5942e+00     1.2934      3.414      4.952    10.9014 0.0000e+00
      3.457     -0.103     0.0484      0.469     54.740  39.548074     1.1651      7.442  -141.9143 3.7522e+00     1.2329      3.405      4.936    10.9203 0.0000e+00
      3.412     -0.138     0.0507      0.465     55.080  39.791852     1.1740      7.443  -142.2995 4.0166e+00     1.2775      3.351      4.859    10.9044 0.0000e+00
      3.353     -0.162     0.0548      0.465     55.012  39.723125     1.2065      7.444  -142.6945 4.2958e+00     1.3541      3.287      4.767    10.9781 0.0000e+00
      3.297     -0.170     0.0515      0.466     54.779  39.541614     1.2587      7.446  -143.3347 4.5378e+00     1.4421      3.233      4.688    11.0937 0.0000e+00
      3.247     -0.164     0.0519      0.462     54.375  39.246254     1.2809      7.447  -144.1027 4.7448e+00     1.4533      3.181      4.613    11.1410 0.0000e+00
      3.207     -0.151     0.0509      0.458     53.856  38.879203     1.2829      7.450  -144.2374 4.8991e+00     1.4548      3.139      4.552    11.1229 0.0000e+00
      3.181     -0.141     0.0510      0.468     53.249  38.465093     1.3413      7.454  -143.9305 4.9928e+00     1.5285      3.118      4.523    11.0959 0.0000e+00
      3.159     -0.136     0.0515      0.477     52.257  37.790962     1.4540      7.457  -143.6618 5.1044e+00     1.5590      3.103      4.501    11.0872 0.0000e+00
      3.127     -0.132     0.0513      0.458     51.239  37.133803     1.5226      7.460  -143.2253 5.2746e+00     1.5156      3.070      4.453    11.0828 0.0000e+00
      3.087     -0.124     0.0495      0.430     50.281  36.544347     1.5206      7.463  -142.7831 5.4810e+00     1.4830      3.028      4.393    11.0854 0.0000e+00
      3.044     -0.109     0.0511      0.426     49.034  35.737263     1.5214      7.468  -142.9606 5.6966e+00     1.5058      2.984      4.328    11.1148 0.0000e+00
      3.005     -0.086     0.0543      0.442     47.963  35.048639     1.6908      7.473  -143.4795 5.8521e+00     1.6551      2.939      4.262    11.1414 0.0000e+00
      2.985     -0.058     0.0504      0.457     47.177  34.559654     2.0043      7.473  -143.3777 5.8964e+00     1.8876      2.919      4.234    11.2186 0.0000e+00
      2.983     -0.036     0.0457      0.460     46.584  34.200366     2.1655      7.469  -142.9342 5.8779e+00     1.9934      2.923      4.239    11.3494 0.0000e+00
      2.990     -0.032     0.0455      0.464     46.028  33.875064     2.1760      7.465  -142.8493 5.8313e+00     1.9783      2.930      4.250    11.4375 0.0000e+00
      3.001     -0.049     0.0486      0.471     45.753  33.796885     2.2801      7.463  -142.8685 5.7873e+00     2.1144      2.944      4.270    11.5371 0.0000e+00
      3.005     -0.083     0.0502      0.474     46.364  34.396518     2.4754      7.464  -142.9082 5.8676e+00     2.4098      2.958      4.291    11.6325 0.0000e+00
      2.980     -0.125     0.0499      0.476     46.962  34.911347     2.5817      7.466  -142.9850 6.1636e+00     2.5447      2.936      4.258    11.7035 0.0000e+00
      2.925     -0.161     0.0497      0.477     46.703  34.695447     2.5998      7.471  -142.8509 6.6025e+00     2.4811      2.871      4.164    11.7796 0.0000e+00
      2.859     -0.183     0.0517      0.469     46.059  34.195609     2.7033      7.475  -142.9209 7.0596e+00     2.3580      2.802      4.064    11.9036 0.0000e+00
      2.796     -0.189     0.0507      0.463     45.242  33.623509     2.9088      7.478  -143.1428 7.4782e+00     2.2519      2.741      3.976    12.1293 0.0000e+00
      2.742     -0.183     0.0509      0.467     44.012  32.787404     3.0373      7.482  -142.7812 7.8137e+00     2.2233      2.683      3.891    12.2204 0.0000e+00
      2.704     -0.173     0.0519      0.484     42.872  32.075356     3.0409      7.487  -142.2478 8.0137e+00     2.2175      2.643      3.833    12.1300 0.0000e+00
      2.680     -0.165     0.0501      0.509     42.341  31.861891     2.9109      7.491  -141.7699 8.2059e+00     2.1811      2.631      3.816    12.0875 0.0000e+00
      2.650     -0.156     0.0495      0.524     41.968  31.728303     2.6974      7.494  -141.1338 8.6345e+00     2.1596      2.608      3.783    12.1488 0.0000e+00
      2.601     -0.140     0.0495      0.524     41.015  31.094323     2.5985      7.496  -140.8370 9.2586e+00     2.1962      2.552      3.703    12.2236 0.0000e+00
      2.545     -0.118     0.0512      0.538     39.460  30.029157     2.6059      7.497  -140.6762 9.8617e+00     2.2480      2.492      3.615    12.3705 0.0000e+00
      2.500     -0.091     0.0543      0.577     38.566  29.563538     2.6206      7.496  -139.9639 1.0209e+01     2.2388      2.441      3.541    12.6483 0.0000e+00
      2.481     -0.059     0.0566      0.639     38.649  29.839120     2.7422      7.495  -138.8509 1.0173e+01     2.2216      2.422      3.511    12.8379 0.0000e+00
      2.488     -0.030     0.0544      0.731     38.429  29.748027     2.9778      7.495  -137.8876 9.9876e+00     2.2799      2.439      3.538    12.8937 0.0000e+00
      2.503     -0.017     0.0556      0.844     37.801  29.286348     3.1055      7.495  -137.2643 9.8675e+00     2.3294      2.457      3.564    12.9802 0.0000e+00
      2.514     -0.028     0.0599      0.962     37.561  29.201679     3.0963      7.495  -136.6489 9.8280e+00     2.3069      2.466      3.577    13.3124 0.0000e+00
      2.515     -0.059     0.0650      1.097     37.499  29.294980     2.9325      7.494  -135.7818 9.9898e+00     2.2472      2.473      3.587    13.6971 0.0000e+00
      2.499     -0.102     0.0748      1.259     37.241  29.210158     2.6410      7.494  -134.7808 1.0458e+01     2.2227      2.459      3.567    13.7360 0.0000e+00
      2.459     -0.143     0.0878      1.412     37.067  29.190519     2.4840      7.494  -133.8387 1.1192e+01     2.2493      2.417      3.505    13.6645 0.0000e+00
      2.404     -0.174     0.0995      1.596     36.935  29.184461     2.4579      7.494  -133.1672 1.2130e+01     2.2276      2.360      3.423    13.8455 0.0000e+00
      2.344     -0.194     0.1100      1.916     36.647  29.010246     2.3332      7.494  -132.5980 1.3154e+01     2.2329      2.297      3.332    14.0980 0.0000e+00
      2.286     -0.199     0.1310      2.425     36.314  28.795726     2.1082      7.494  -131.6035 1.4116e+01     2.3470      2.238      3.246    14.1951 0.0000e+00
      2.237     -0.186     0.1443      3.115     36.004  28.619286     1.9935      7.492  -130.0049 1.5039e+01     2.4458      2.193      3.180    14.3781 0.0000e+00
      2.191     -0.159     0.1563      3.911     35.624  28.398367     2.0111      7.491  -128.0681 1.6061e+01     2.5058      2.150      3.119    14.5454 0.0000e+00
      2.145     -0.122     0.1885      4.761     35.201  28.153166     2.1217      7.492  -126.0816 1.7048e+01     2.5603      2.101      3.047    14.5689 0.0000e+00
      2.108     -0.081     0.2391      5.667     34.657  27.809919     2.2982      7.493  -123.9688 1.7639e+01     2.6267      2.058      2.987    14.6300 0.0000e+00
      2.091     -0.046     0.3121      6.611     33.997  27.417643     2.3893      7.491  -121.7957 1.7656e+01     2.7274      2.042      2.963    14.7420 0.0000e+00
      2.096     -0.026     0.3952      7.576     33.744  27.467079     2.4075      7.487  -119.5952 1.7259e+01     2.7874      2.051      2.974    14.8451 0.0000e+00
      2.112     -0.027     0.4772      8.579     33.833  27.774145     2.4769      7.485  -117.3236 1.6774e+01     2.7709      2.071      3.003    14.9870 0.0000e+00
      2.129     -0.051     0.5687      9.701     33.889  27.897962     2.5786      7.484  -115.3231 1.6632e+01     2.7681      2.094      3.037    15.1246 0.0000e+00
      2.126     -0.092     0.6636     11.110     33.891  27.886651     2.6306      7.483  -113.4758 1.7337e+01     2.8216      2.100      3.046    15.2072 0.0000e+00
      2.090     -0.141     0.7505     12.745     33.774  27.764136     2.6476      7.481  -111.5078 1.8919e+01     2.9051      2.060      2.987    15.6997 0.0000e+00
      2.029     -0.183     0.8421     14.281     33.608  27.620960     2.6763      7.480  -109.5107 2.0955e+01     2.9238      1.990      2.886    16.1786 0.0000e+00
      1.960     -0.208     0.9412     15.542     33.499  27.550022     2.9854      7.479  -107.4830 2.3340e+01     2.9453      1.922      2.788    16.1814 0.0000e+00
      1.892     -0.213     1.0812     16.539     33.380  27.476939     3.5728      7.478  -105.1449 2.6045e+01     3.0961      1.855      2.689    16.1436 0.0000e+00
      1.831     -0.204     1.2624     17.283     33.215  27.371202     3.8933      7.478  -102.4071 2.8415e+01     3.2446      1.789      2.594    16.0865 0.0000e+00
      1.786     -0.187     1.4184     17.755     33.050  27.285782     3.9311      7.478   -99.5900 3.0137e+01     3.3405      1.746      2.533    16.0671 0.0000e+00
      1.753     -0.171     1.5383     17.995     32.869  27.204820     4.1048      7.477   -96.8095 3.2179e+01     3.4696      1.723      2.499    16.1223 0.0000e+00
      1.717     -0.159     1.6354     18.131     32.634  27.089620     4.4285      7.475   -93.9985 3.5077e+01     3.6441      1.687      2.445    16.1509 0.0000e+00
      1.674     -0.153     1.7085     18.304     32.298  26.907168     4.6156      7.474   -91.2416 3.8122e+01     3.7762      1.639      2.377    16.1865 0.0000e+00
      1.633     -0.154     1.7521     18.654     31.813  26.646917     4.6360      7.473   -88.5135 4.1139e+01     3.8376      1.601      2.321    16.2646 0.0000e+00
      1.596     -0.157     1.7644     19.262     31.275  26.415081     4.5502      7.471   -85.7925 4.4603e+01     3.9082      1.567      2.271    16.3757 0.0000e+00
      1.557     -0.161     1.7700     20.146     30.760  26.259366     4.3775      7.469   -82.8632 4.8608e+01     3.9800      1.528      2.218    16.4964 0.0000e+00
      1.516     -0.169     1.7766     21.444     30.300  26.158948     4.2704      7.468   -79.5093 5.2832e+01     3.9890      1.487      2.157    16.6274 0.0000e+00
      1.475     -0.179     1.7985     23.382     29.995  26.152033     4.2369      7.467   -76.6448 5.7285e+01     4.0520      1.445      2.097    16.8303 0.0000e+00
      1.431     -0.189     1.8473     26.071     29.827  26.176100     3.9647      7.467   -75.1594 6.3160e+01     4.6386      1.408      2.042    17.1893 0.0000e+00
      1.380     -0.195     1.9066     29.392     29.701  26.133253     3.4346      7.470   -74.7141 7.1025e+01     5.6151      1.356      1.967    17.6813 0.0000e+00
      1.321     -0.195     2.0006     33.071     29.611  26.077718     3.1287      7.475   -75.2179 7.9571e+01     6.1239      1.294      1.877    18.1855 0.0000e+00
      1.264     -0.191     2.1575     36.659     29.568  26.075091     3.0965      7.481   -79.7019 8.7917e+01     6.1791      1.237      1.795    18.6381 0.0000e+00
      1.214     -0.185     2.3995     39.682     29.562  26.101550     3.1199      7.486   -94.5144 9.5299e+01     6.4201      1.186      1.721    18.9587 0.0000e+00
      1.173     -0.178     2.7130     42.002     29.604  26.144146     3.1619      7.491  -119.5770 1.0199e+02     6.8510      1.149      1.665    19.0109 0.0000e+00
      1.136     -0.172     3.0677     43.679     29.627  26.146453     3.1724      7.499  -141.9935 1.1023e+02     7.0855      1.117      1.619    19.0046 0.0000e+00
      1.096     -0.168     3.4172     44.725     29.537  26.066037     3.1540      7.512  -156.1307 1.2078e+02     7.2047      1.076      1.561    19.0958 0.0000e+00
      1.051     -0.164     3.6921     45.208     29.348  25.995787     3.1140      7.528  -166.6992 1.3313e+02     7.7800      1.031      1.496    19.1601 0.0000e+00
      1.004     -0.159     3.9016     45.355     29.105  25.994375     2.9973      7.548  -171.2608 1.4719e+02     8.7469      0.984      1.428    19.1713 0.0000e+00
      0.958     -0.154     4.0622     45.560     28.886  26.049265     2.8421      7.571  -169.4696 1.6184e+02     9.2619      0.937      1.359    19.1217 0.0000e+00
      0.919     -0.149     4.1634     46.351     28.751  26.152757     2.7597      7.596  -165.4330 1.7334e+02     9.2589      0.897      1.300    19.0558 0.0000e+00
      0.889     -0.146     4.1889     48.139     28.678  26.295269     2.7422      7.623  -160.3983 1.8380e+02     9.2230      0.871      1.263    19.1867 0.0000e+00
      0.861     -0.145     4.1528     50.886     28.573  26.378263     2.7467      7.656  -154.7133 1.9938e+02     9.3064      0.849      1.231    19.6422 0.0000e+00
      0.826     -0.147     4.1135     54.276     28.392  26.332525     2.7566      7.699  -148.6629 2.2029e+02     9.4478      0.813      1.179    20.1204 0.0000e+00
      0.784     -0.152     4.1390     58.018     28.373  26.376235     2.7534      7.753  -142.9970 2.4317e+02     9.4987      0.770      1.116    20.4689 0.0000e+00
      0.739     -0.158     4.2702     61.683     28.559  26.589920     2.7415      7.817  -137.8311 2.6587e+02     9.5117      0.724      1.050    20.8627 0.0000e+00
      0.696     -0.163     4.5017     64.787     28.642  26.761243     2.7291      7.886  -132.8366 2.8894e+02     9.6386      0.678      0.985    21.1912 0.0000e+00
      0.659     -0.161     4.7871     67.250     28.592  26.863264     2.7199      7.956  -128.2949 3.1253e+02     9.8374      0.646      0.937    21.4100 0.0000e+00
      0.619     -0.148     5.1203     69.305     28.512  26.936308     2.7049      8.033  -124.0446 3.4643e+02     9.9681      0.612      0.886    21.5058 0.0000e+00
      0.573     -0.127     5.4689     71.240     28.324  26.884014     2.6892      8.118  -119.5619 3.8635e+02     9.9899      0.561      0.815    21.4944 0.0000e+00
      0.531     -0.100     5.7216     73.216     28.160  26.801609     2.7057      8.202  -114.8776 4.1249e+02    10.0314      0.515      0.747    21.6656 0.0000e+00
      0.504     -0.074     5.8932     75.123     28.238  26.890809     2.7461      8.266  -110.3408 4.2275e+02    10.1978      0.488      0.707    21.9876 0.0000e+00
      0.496     -0.051     6.0347     76.747     28.411  27.075171     2.7698      8.304  -106.1788 4.2153e+02    10.2931      0.482      0.699    22.2369 0.0000e+00
      0.502     -0.031     6.1663     77.963     28.603  27.319398     2.7668      8.324  -102.1544 4.1866e+02    10.2266      0.492      0.713    22.4807 0.0000e+00
      0.507     -0.016     6.3239     78.842     29.013  27.815535     2.7605      8.329   -98.0769 4.2413e+02    10.1805      0.503      0.728    22.6470 0.0000e+00
      0.502     -0.007     6.5032     79.627     29.875  28.827240     2.7685      8.319   -93.9608 4.3391e+02    10.2135      0.497      0.720    22.5893 0.0000e+00
      0.491     -0.004     6.6448     80.599     30.821  30.043811     2.7635      8.299   -89.9859 4.4599e+02    10.2160      0.479      0.694    22.6109 0.0000e+00
      0.485     -0.001     6.7324     82.188     31.178  30.798211     2.7499      8.272   -87.1000 4.4852e+02    10.1760      0.470      0.682    22.7397 0.0000e+00
      0.489      0.004     6.7790     84.821     31.143  31.166267     2.7459      8.245   -85.2234 4.3126e+02    10.1735      0.479      0.694    22.8813 0.0000e+00
      0.496      0.012     6.8051     88.516     31.189  31.514975     2.7061      8.223   -82.9545 4.1744e+02    10.3225      0.488      0.706    23.1617 0.0000e+00
      0.501      0.021     6.8124     92.865     31.447  31.971820     2.6353      8.206   -80.2311 4.1307e+02    10.6121      0.491      0.712    23.6465 0.0000e+00
      0.506      0.026     6.8322     97.276     31.710  32.379186     2.5883      8.194   -77.5049 4.0858e+02    10.7371      0.496      0.720    24.3931 0.0000e+00
      0.512      0.026     6.9615    101.323     31.715  32.509906     2.5713      8.188   -74.8568 4.0065e+02    10.6731      0.502      0.729    25.1064 0.0000e+00
      0.519      0.025     7.2155    104.826     31.577  32.474751     2.5297      8.189   -72.4758 3.8696e+02    10.5887      0.508      0.737    25.5794 0.0000e+00
      0.529      0.025     7.5532    107.612     31.500  32.461496     2.4515      8.199   -71.0010 3.7704e+02    10.4678      0.520      0.754    25.8576 0.0000e+00
      0.537      0.025     7.8970    109.488     31.492  32.476532     2.4085      8.220   -70.3615 3.7565e+02    10.4413      0.531      0.769    26.0478 0.0000e+00
      0.541      0.024     8.1968    110.535     31.421  32.402982     2.4014      8.254   -69.3892 3.7595e+02    10.4737      0.532      0.769    26.2554 0.0000e+00
      0.543      0.017     8.4538    110.911     31.179  32.142799     2.4483      8.294   -68.2787 3.7185e+02    10.2789      0.531      0.770    26.4421 0.0000e+00
      0.550     -0.003     8.6737    110.695     30.754  31.676424     2.5592      8.336   -67.2598 3.6377e+02     9.9647      0.536      0.779    26.5451 0.0000e+00
      0.560     -0.038     8.8144    110.044     30.114  30.948275     2.6262      8.382   -66.0174 3.5772e+02     9.8167      0.550      0.797    26.5675 0.0000e+00
      0.564     -0.083     8.8932    108.989     29.562  30.248817     2.6351      8.435   -65.1305 3.6590e+02     9.7887      0.562      0.814    26.5582 0.0000e+00
      0.546     -0.132     8.9280    107.439     29.554  30.065708     2.5917      8.487   -64.5382 4.0545e+02     9.7962      0.547      0.795    26.5488 0.0000e+00
      0.496     -0.172     8.9068    105.481     29.936  30.318892     2.5089      8.537   -64.0191 4.8980e+02     9.8735      0.496      0.719    26.5137 0.0000e+00
      0.424     -0.194     8.8694    103.403     30.303  30.647344     2.4749      8.592   -63.5862 6.0472e+02     9.9712      0.417      0.606    26.4177 0.0000e+00
      0.345     -0.189     8.8264    101.542     30.554  30.930651     2.4723      8.652   -62.5733 7.0380e+02     9.9876      0.332      0.483    26.1963 0.0000e+00
      0.279     -0.163     8.7560    100.198     30.761  31.208606     2.4188      8.710   -60.0325 7.5195e+02     9.9350      0.265      0.382    25.8300 0.0000e+00
      0.241     -0.128     8.6280     99.533     30.750  31.282171     2.3283      8.765   -43.0179 7.6888e+02     9.9158      0.225      0.326    25.5659 0.0000e+00
      0.232     -0.104     8.4558     99.539     30.522  31.122891     2.2844      8.825   -12.9259 7.6275e+02     9.9607      0.221      0.322    25.5248 0.0000e+00
      0.239     -0.100     8.2826    100.016     30.682  31.311548     2.2878      8.890    -8.3430 7.3206e+02     9.9991      0.237      0.344    25.5923 0.0000e+00
      0.240     -0.113     8.1522    100.713     31.258  31.914909     2.2862      8.946   -17.8062 7.2110e+02     9.9707      0.247      0.356    25.7077 0.0000e+00
      0.210     -0.135     8.0740    101.461     31.596  32.331979     2.2649      8.990    -3.1901 7.8165e+02     9.8902      0.223      0.322    25.8609 0.0000e+00
      0.146     -0.159     8.0586    102.201     31.576  32.423757     2.2392      9.027    13.0778 9.5319e+02     9.8119      0.146      0.212    26.0195 0.0000e+00
      0.075     -0.173     8.1034    103.051     31.514  32.454184     2.2335      9.061    16.2736 1.2734e+03     9.7758      0.063      0.091    26.0385 0.0000e+00
      0.023     -0.168     8.1697    104.053     31.571  32.573218     2.2294      9.093    17.8112 1.5513e+03     9.7605      0.018      0.026    25.9901 0.0000e+00
     -0.013     -0.144     8.2145    105.051     31.670  32.721870     2.1226      9.121    19.8825 1.4639e+03     9.7976     -0.012     -0.019    26.1311 0.0000e+00
     -0.044     -0.108     8.2329    105.958     31.751  32.856797     1.9236      9.146    22.1306 1.3486e+03     9.8832     -0.047     -0.068    26.3591 0.0000e+00
     -0.066     -0.071     8.2763    106.823     31.835  33.000072     1.8221      9.170    23.8262 1.6281e+03     9.9412     -0.068     -0.099    26.5096 0.0000e+00
     -0.080     -0.039     8.3536    107.616     31.839  33.059454     1.8263      9.192    25.4131 1.8146e+03     9.9871     -0.080     -0.116    26.5865 0.0000e+00
     -0.085     -0.011     8.4267    108.211     31.743  33.004256     1.8418      9.212    28.4982 1.5968e+03    10.0962     -0.086     -0.125    26.6486 0.0000e+00
     -0.083      0.006     8.4827    108.558     31.628  32.903365     1.8597      9.232    32.0471 1.3956e+03    10.2693     -0.084     -0.122    26.7339 0.0000e+00
     -0.073      0.006     8.5389    108.694     31.588  32.854029     1.8593      9.254    32.3580 1.5942e+03    10.4069     -0.075     -0.110    26.8210 0.0000e+00
     -0.056     -0.008     8.5937    108.610     31.658  32.914941     1.8536      9.274    29.9339 1.7436e+03    10.4611     -0.056     -0.082    26.9166 0.0000e+00
     -0.043     -0.030     8.6299    108.252     31.742  33.005812     1.8323      9.291    18.8268 1.4974e+03    10.2756     -0.032     -0.046    26.9942 0.0000e+00
     -0.053     -0.061     8.6502    107.665     31.718  33.001732     1.7762      9.311    13.7857 1.5039e+03     9.9057     -0.038     -0.055    27.0270 0.0000e+00
     -0.091     -0.107     8.6652    107.069     31.568  32.865652     1.7416      9.336    34.6299 1.6545e+03     9.7815     -0.092     -0.135    27.0022 0.0000e+00
     -0.128     -0.169     8.6669    106.658     31.403  32.691925     1.6968      9.356    55.8411 1.5308e+03    10.5504     -0.133     -0.192    26.9655 0.0000e+00
     -0.158     -0.232     8.6374    106.327     31.282  32.549638     1.2348      9.366    67.5393 1.6036e+03    19.0315     -0.147     -0.213    26.9718 0.0000e+00
     -0.207     -0.278     8.5756    105.768     31.232  32.476638     0.3919      9.378    77.3855 1.9721e+03    34.5109     -0.189     -0.274    27.0183 0.0000e+00
     -0.296     -0.300     8.5128    104.835     31.231  32.443256    -0.0796      9.396    78.2687 2.0684e+03    42.8304     -0.273     -0.396    27.0643 0.0000e+00
     -0.418     -0.300     8.4852    103.660     31.176  32.336174    -0.1545      9.415    73.4852 1.8457e+03    42.8319     -0.414     -0.600    27.0553 0.0000e+00
     -0.532     -0.279     8.4774    102.604     31.095  32.196223    -0.5144      9.428    56.2876 1.6509e+03    34.7686     -0.543     -0.786    27.0151 0.0000e+00
     -0.605     -0.237     8.4400    102.019     31.034  32.082408    -1.1930      9.428    21.6768 1.4079e+03    19.8049     -0.604     -0.875    26.9940 0.0000e+00
     -0.642     -0.181     8.3685    101.524     30.972  31.974357    -1.5763      9.413   -10.2988 9.6111e+02    11.5935     -0.638     -0.925    26.9473 0.0000e+00
     -0.657     -0.122     8.2782     99.444     30.820  31.777292    -1.6197      9.395   -30.9094 5.1498e+02    10.7722     -0.644     -0.934    26.8541 0.0000e+00
     -0.670     -0.076     8.1931     94.429     30.379  31.284588    -1.5852      9.385   -45.6376 3.1204e+02    10.4221     -0.651     -0.944    26.7618 0.0000e+00
     -0.690     -0.049     8.1596     87.394     27.260  28.045768    -1.1913      9.380   -55.6176 2.9619e+02     7.6680     -0.681     -0.988    26.6783 0.0000e+00
     -0.704     -0.034     8.1869     80.179     19.327  19.869758    -0.4945      9.377   -59.3419 2.9657e+02     2.6474     -0.695     -1.007    26.6084 0.0000e+00
     -0.707     -0.024     8.0979     73.915     10.834  11.130131    -0.1280      9.375   -59.0057 2.3431e+02    -0.1013     -0.694     -1.006    26.5462 0.0000e+00
     -0.707     -0.015     7.6516     69.204      6.463   6.633473    -0.1048      9.373   -58.6079 1.8185e+02    -0.3900     -0.694     -1.007    26.4807 0.0000e+00
     -0.707     -0.010     7.0339     67.291      5.451   5.591250    -0.1056      9.373   -58.4896 1.7080e+02    -0.4336     -0.694     -1.006    26.4252 0.0000e+00
     -0.708 -9.990e-29     6.4265 -9.990e-29 -9.990e-29 -9.990e-29 -9.990e-29 -9.990e-29 -9.990e-29 1.6062e+02 -9.990e-29     -0.694     -1.006    26.3820 0.0000e+00
     -0.708 -9.990e-29     5.9222 -9.990e-29 -9.990e-29 -9.990e-29 -9.990e-29 -9.990e-29 -9.990e-29 1.5272e+02 -9.990e-29     -0.694     -1.006    26.3487 0.0000e+00
     -0.708 -9.990e-29     5.5159 -9.990e-29 -9.990e-29 -9.990e-29 -9.990e-29 -9.990e-29 -9.990e-29 1.4906e+02 -9.990e-29     -0.694     -1.006    26.2940 0.0000e+00
     -0.708 -9.990e-29     5.2936 -9.990e-29 -9.990e-29 -9.990e-29 -9.990e-29 -9.990e-29 -9.990e-29 1.4808e+02 -9.990e-29     -0.694     -1.007    26.2521 0.0000e+00
