* Sea-Bird SBE19plus  Data File:
* FileName = C:\R\Reservoirs\Data\DataNotYetUploadedToEDI\Raw_CTD\RawDownloads\061625_fcr10_S7809_0002.hex
* Software version 2.8.0.119
* Temperature SN = 7809
* Conductivity SN = 7809
* System UpLoad Time = Jun 16 2025 17:25:20
* <ApplicationData>
* <Seaterm232>
* <SoftwareVersion>2.8.0.119</SoftwareVersion>
* <BuildDate>07-Nov-2018</BuildDate>
* </Seaterm232>
* </ApplicationData>
* <InstrumentState>
* <HardwareData DeviceType='SBE19plus' SerialNumber='01907809'>
*
*    <Manufacturer>Sea-Bird Electronics, Inc.</Manufacturer>
*
*    <FirmwareVersion>3.1.8</FirmwareVersion>
*
*    <FirmwareDate>Mar  9 2016 16:22:29</FirmwareDate>
*
*    <CommandSetVersion>1.4</CommandSetVersion>
*
*    <PCBAssembly PCBSerialNum='120721' AssemblyNum='41054J'/>
*
*    <PCBAssembly PCBSerialNum='120715' AssemblyNum='41967A'/>
*
*    <PCBAssembly PCBSerialNum='116699' AssemblyNum='41606'/>
*
*    <PCBAssembly PCBSerialNum='120719' AssemblyNum='41059D'/>
*
*    <MfgDate>28-Apr-2017</MfgDate>
*
*    <InternalSensors>
*
*       <Sensor id='Main Temperature'>
*
*          <type>temperature0</type>
*
*          <SerialNumber>01907809</SerialNumber>
*
*       </Sensor>
*
*       <Sensor id='Main Conductivity'>
*
*          <type>conductivity-0</type>
*
*          <SerialNumber>01907809</SerialNumber>
*
*       </Sensor>
*
*       <Sensor id='Main Pressure'>
*
*          <type>strain-0</type>
*
*          <SerialNumber>10586018</SerialNumber>
*
*       </Sensor>
*
*    </InternalSensors>
*
*    <ExternalSensors>
*
*       <Sensor id='volt 0'>
*
*          <type>pH</type>
*
*          <SerialNumber>27-0363</SerialNumber>
*
*       </Sensor>
*
*       <Sensor id='volt 1'>
*
*          <type>ORP</type>
*
*          <SerialNumber>27-0363</SerialNumber>
*
*       </Sensor>
*
*       <Sensor id='volt 2'>
*
*          <type>OXY</type>
*
*          <SerialNumber>43-0434</SerialNumber>
*
*       </Sensor>
*
*       <Sensor id='volt 3'>
*
*          <type>PAR</type>
*
*          <SerialNumber>1122</SerialNumber>
*
*       </Sensor>
*
*       <Sensor id='volt 4'>
*
*          <type>ECO AFL/FL</type>
*
*          <SerialNumber>FLNTURT-2496</SerialNumber>
*
*       </Sensor>
*
*       <Sensor id='volt 5'>
*
*          <type>ECO-NTU</type>
*
*          <SerialNumber>FLNTURT-2496</SerialNumber>
*
*       </Sensor>
*
*       <Sensor id='serial'>
*
*          <type>not assigned</type>
*
*          <SerialNumber>not assigned</SerialNumber>
*
*       </Sensor>
*
*    </ExternalSensors>
*
* </HardwareData>
* <StatusData DeviceType='SBE19plus' SerialNumber='01907809'>
*
*    <DateTime>2025-06-16T17:23:51</DateTime>
*
*    <LoggingState>not logging</LoggingState>
*
*    <EventSummary numEvents='0'/>
*
*    <Power>
*
*       <vMain>12.5</vMain>
*
*       <vLith>8.3</vLith>
*
*       <iMain>63.1</iMain>
*
*       <iPump>131.1</iPump>
*
*       <iExt01>20.6</iExt01>
*
*       <iExt2345>39.0</iExt2345>
*
*    </Power>
*
*    <MemorySummary>
*
*       <Bytes>188094</Bytes>
*
*       <Samples>8178</Samples>
*
*       <SamplesFree>2852610</SamplesFree>
*
*       <SampleLength>23</SampleLength>
*
*       <Profiles>6</Profiles>
*
*    </MemorySummary>
*
* </StatusData>
* <ConfigurationData DeviceType='SBE19plus' SerialNumber='01907809'>
*
*    <ProfileMode>
*
*       <ScansToAverage>1</ScansToAverage>
*
*       <MinimumCondFreq>0</MinimumCondFreq>
*
*       <PumpDelay>45</PumpDelay>
*
*       <AutoRun>no</AutoRun>
*
*       <IgnoreSwitch>no</IgnoreSwitch>
*
*    </ProfileMode>
*
*    <Battery>
*
*       <Type>alkaline</Type>
*
*       <CutOff>7.5</CutOff>
*
*    </Battery>
*
*    <DataChannels>
*
*       <ExtVolt0>yes</ExtVolt0>
*
*       <ExtVolt1>yes</ExtVolt1>
*
*       <ExtVolt2>yes</ExtVolt2>
*
*       <ExtVolt3>yes</ExtVolt3>
*
*       <ExtVolt4>yes</ExtVolt4>
*
*       <ExtVolt5>yes</ExtVolt5>
*
*       <SBE38>no</SBE38>
*
*       <WETLABS>no</WETLABS>
*
*       <OPTODE>no</OPTODE>
*
*       <SBE63>no</SBE63>
*
*       <SeaFET>no</SeaFET>
*
*       <GTD>no</GTD>
*
*    </DataChannels>
*
*    <EchoCharacters>yes</EchoCharacters>
*
*    <OutputExecutedTag>yes</OutputExecutedTag>
*
*    <OutputFormat>raw HEX</OutputFormat>
*
* </ConfigurationData>
* <CalibrationCoefficients DeviceType='SBE19plus' SerialNumber='01907809'>
*
*    <Calibration format='TEMP1' id='Main Temperature'>
*
*       <SerialNum>01907809</SerialNum>
*
*       <CalDate>31-Jan-23</CalDate>
*
*       <TA0>1.218232e-03</TA0>
*
*       <TA1>2.815090e-04</TA1>
*
*       <TA2>-1.578887e-06</TA2>
*
*       <TA3>1.972343e-07</TA3>
*
*       <TOFFSET>0.000000e+00</TOFFSET>
*
*    </Calibration>
*
*    <Calibration format='WBCOND0' id='Main Conductivity'>
*
*       <SerialNum>01907809</SerialNum>
*
*       <CalDate>31-Jan-23</CalDate>
*
*       <G>-1.005652e+00</G>
*
*       <H>1.267963e-01</H>
*
*       <I>-1.561708e-04</I>
*
*       <J>2.645944e-05</J>
*
*       <CPCOR>-9.570000e-08</CPCOR>
*
*       <CTCOR>3.250000e-06</CTCOR>
*
*       <CSLOPE>1.000000e+00</CSLOPE>
*
*    </Calibration>
*
*    <Calibration format='STRAIN0' id='Main Pressure'>
*
*       <SerialNum>10586018</SerialNum>
*
*       <CalDate>20-Jan-23</CalDate>
*
*       <PA0>4.416439e-02</PA0>
*
*       <PA1>4.850502e-04</PA1>
*
*       <PA2>-3.090426e-12</PA2>
*
*       <PTCA0>5.254757e+05</PTCA0>
*
*       <PTCA1>1.050255e+01</PTCA1>
*
*       <PTCA2>-2.922435e-01</PTCA2>
*
*       <PTCB0>2.516687e+01</PTCB0>
*
*       <PTCB1>3.750000e-04</PTCB1>
*
*       <PTCB2>0.000000e+00</PTCB2>
*
*       <PTEMPA0>-5.470820e+01</PTEMPA0>
*
*       <PTEMPA1>5.485421e+01</PTEMPA1>
*
*       <PTEMPA2>-3.446578e-01</PTEMPA2>
*
*       <POFFSET>8.500000e-01</POFFSET>
*
*       <PRANGE>1.600000e+02</PRANGE>
*
*    </Calibration>
*
*    <Calibration format='VOLT0' id='Volt 0'>
*
*       <OFFSET>-4.920000e-02</OFFSET>
*
*       <SLOPE>1.248122e+00</SLOPE>
*
*    </Calibration>
*
*    <Calibration format='VOLT0' id='Volt 1'>
*
*       <OFFSET>-4.784000e-02</OFFSET>
*
*       <SLOPE>1.248871e+00</SLOPE>
*
*    </Calibration>
*
*    <Calibration format='VOLT0' id='Volt 2'>
*
*       <OFFSET>-4.864632e-02</OFFSET>
*
*       <SLOPE>1.248714e+00</SLOPE>
*
*    </Calibration>
*
*    <Calibration format='VOLT0' id='Volt 3'>
*
*       <OFFSET>-4.743790e-02</OFFSET>
*
*       <SLOPE>1.248571e+00</SLOPE>
*
*    </Calibration>
*
*    <Calibration format='VOLT0' id='Volt 4'>
*
*       <OFFSET>-4.671263e-02</OFFSET>
*
*       <SLOPE>1.248951e+00</SLOPE>
*
*    </Calibration>
*
*    <Calibration format='VOLT0' id='Volt 5'>
*
*       <OFFSET>-4.871053e-02</OFFSET>
*
*       <SLOPE>1.249136e+00</SLOPE>
*
*    </Calibration>
*
*    <Calibration format='FREQ0' id='external frequency channel'>
*
*       <EXTFREQSF>1.000014e+00</EXTFREQSF>
*
*    </Calibration>
*
* </CalibrationCoefficients>
* <EventCounters DeviceType='SBE19plus' SerialNumber='01907809'>
*
*    <EventSummary numEvents='0'/>
*
* </EventCounters></InstrumentState>
* <Headers>
*
* cast   2 16 Jun 2025 11:13:35 samples 1349 to 2419, avg = 1, stop = mag switch
*
# nquan = 15
# nvalues = 1071                        
# units = specified
# name 0 = depFM: Depth [fresh water, m]
# name 1 = dz/dtM: Descent Rate [m/s]
# name 2 = sbeox0Mg/L: Oxygen, SBE 43 [mg/l]
# name 3 = sbeox0PS: Oxygen, SBE 43 [% saturation]
# name 4 = specc: Specific Conductance [uS/cm]
# name 5 = c0uS/cm: Conductivity [uS/cm]
# name 6 = flECO-AFL: Fluorescence, WET Labs ECO-AFL/FL [mg/m^3]
# name 7 = ph: pH
# name 8 = orp: Oxidation Reduction Potential [mV]
# name 9 = par/sat/log: PAR/Logarithmic, Satlantic
# name 10 = turbWETntu0: Turbidity, WET Labs ECO [NTU]
# name 11 = prdM: Pressure, Strain Gauge [db]
# name 12 = prdE: Pressure, Strain Gauge [psi]
# name 13 = tv290C: Temperature [ITS-90, deg C]
# name 14 = flag:  0.000e+00
# span 0 =     -0.633,      3.739       
# span 1 =     -0.388,      2.803       
# span 2 =    -0.0183,    13.5055       
# span 3 =      0.071,    142.993       
# span 4 =      1.156,    338.996       
# span 5 =   1.083724, 263.715643       
# span 6 =    -0.3472,    24.8135       
# span 7 =      8.712,     11.039       
# span 8 = -1240.7455,   158.5732       
# span 9 = 1.0985e+00, 2.0681e+03       
# span 10 =    -0.2246,   109.5908      
# span 11 =     -0.622,      3.667      
# span 12 =     -0.903,      5.319      
# span 13 =    13.0063,    24.4325      
# span 14 = 0.0000e+00, 0.0000e+00      
# interval = seconds: 0.25
# start_time = Jun 16 2025 11:13:35 [Instrument's time stamp, header]
# bad_flag = -9.990e-29
# <Sensors count="9" >
#   <sensor Channel="1" >
#     <!-- Count, Temperature -->
#     <TemperatureSensor SensorID="58" >
#       <SerialNumber>7809</SerialNumber>
#       <CalibrationDate>31-Jan-23</CalibrationDate>
#       <A0>1.21823180e-003</A0>
#       <A1>2.81508993e-004</A1>
#       <A2>-1.57888696e-006</A2>
#       <A3>1.97234302e-007</A3>
#       <Slope>1.00000000</Slope>
#       <Offset>0.0000</Offset>
#     </TemperatureSensor>
#   </sensor>
#   <sensor Channel="2" >
#     <!-- Frequency 0, Conductivity -->
#     <ConductivitySensor SensorID="3" >
#       <SerialNumber>7809</SerialNumber>
#       <CalibrationDate>31-Jan-23</CalibrationDate>
#       <UseG_J>1</UseG_J>
#       <!-- Cell const and series R are applicable only for wide range sensors. -->
#       <SeriesR>0.0000</SeriesR>
#       <CellConst>2000.0000</CellConst>
#       <ConductivityType>0</ConductivityType>
#       <Coefficients equation="0" >
#         <A>0.00000000e+000</A>
#         <B>0.00000000e+000</B>
#         <C>0.00000000e+000</C>
#         <D>0.00000000e+000</D>
#         <M>0.0</M>
#         <CPcor>-9.57000000e-008</CPcor>
#       </Coefficients>
#       <Coefficients equation="1" >
#         <G>-1.00565232e+000</G>
#         <H>1.26796307e-001</H>
#         <I>-1.56170788e-004</I>
#         <J>2.64594368e-005</J>
#         <CPcor>-9.57000000e-008</CPcor>
#         <CTcor>3.2500e-006</CTcor>
#         <!-- WBOTC not applicable unless ConductivityType = 1. -->
#         <WBOTC>0.00000000e+000</WBOTC>
#       </Coefficients>
#       <Slope>1.00000000</Slope>
#       <Offset>0.00000</Offset>
#     </ConductivitySensor>
#   </sensor>
#   <sensor Channel="3" >
#     <!-- Count, Pressure, Strain Gauge -->
#     <PressureSensor SensorID="46" >
#       <SerialNumber>7809</SerialNumber>
#       <CalibrationDate>20-Jan-23</CalibrationDate>
#       <PA0>4.41643944e-002</PA0>
#       <PA1>4.85050239e-004</PA1>
#       <PA2>-3.09042623e-012</PA2>
#       <PTEMPA0>-5.47081996e+001</PTEMPA0>
#       <PTEMPA1>5.48542136e+001</PTEMPA1>
#       <PTEMPA2>-3.44657813e-001</PTEMPA2>
#       <PTCA0>5.25475731e+005</PTCA0>
#       <PTCA1>1.05025484e+001</PTCA1>
#       <PTCA2>-2.92243463e-001</PTCA2>
#       <PTCB0>2.51668750e+001</PTCB0>
#       <PTCB1>3.75000000e-004</PTCB1>
#       <PTCB2>0.00000000e+000</PTCB2>
#       <Offset>0.000000</Offset>
#     </PressureSensor>
#   </sensor>
#   <sensor Channel="4" >
#     <!-- A/D voltage 0, Oxygen, SBE 43 -->
#     <OxygenSensor SensorID="38" >
#       <SerialNumber>0434</SerialNumber>
#       <CalibrationDate>18-Feb-23</CalibrationDate>
#       <Use2007Equation>1</Use2007Equation>
#       <CalibrationCoefficients equation="0" >
#         <!-- Coefficients for Owens-Millard equation. -->
#         <Boc>0.0000</Boc>
#         <Soc>0.0000e+000</Soc>
#         <offset>0.0000</offset>
#         <Pcor>0.00e+000</Pcor>
#         <Tcor>0.0000</Tcor>
#         <Tau>0.0</Tau>
#       </CalibrationCoefficients>
#       <CalibrationCoefficients equation="1" >
#         <!-- Coefficients for Sea-Bird equation - SBE calibration in 2007 and later. -->
#         <Soc>5.1878e-001</Soc>
#         <offset>-0.5046</offset>
#         <A>-4.2788e-003</A>
#         <B> 1.5372e-004</B>
#         <C>-2.1853e-006</C>
#         <D0> 2.5826e+000</D0>
#         <D1> 1.92634e-004</D1>
#         <D2>-4.64803e-002</D2>
#         <E> 3.6000e-002</E>
#         <Tau20> 0.9900</Tau20>
#         <H1>-3.3000e-002</H1>
#         <H2> 5.0000e+003</H2>
#         <H3> 1.4500e+003</H3>
#       </CalibrationCoefficients>
#     </OxygenSensor>
#   </sensor>
#   <sensor Channel="5" >
#     <!-- A/D voltage 1, PAR/Logarithmic, Satlantic -->
#     <PARLog_SatlanticSensor SensorID="76" >
#       <SerialNumber>1122</SerialNumber>
#       <CalibrationDate>08-Sep-2021</CalibrationDate>
#       <a0>9.6751e-001</a0>
#       <a1>8.0992e-001</a1>
#       <Im>1.3589e+000</Im>
#       <Multiplier>1.0000e+000</Multiplier>
#     </PARLog_SatlanticSensor>
#   </sensor>
#   <sensor Channel="6" >
#     <!-- A/D voltage 2, pH -->
#     <pH_Sensor SensorID="43" >
#       <SerialNumber>0363</SerialNumber>
#       <CalibrationDate>28-Feb-23</CalibrationDate>
#       <Slope>4.7364</Slope>
#       <Offset>2.5433</Offset>
#     </pH_Sensor>
#   </sensor>
#   <sensor Channel="7" >
#     <!-- A/D voltage 3, Oxidation Reduction Potential -->
#     <OxidationReductionPotentialSensor SensorID="41" >
#       <SerialNumber>0363</SerialNumber>
#       <CalibrationDate>28-Feb-23</CalibrationDate>
#       <B>2.499480</B>
#       <M>-0.496195</M>
#       <Offset>0.0</Offset>
#     </OxidationReductionPotentialSensor>
#   </sensor>
#   <sensor Channel="8" >
#     <!-- A/D voltage 4, Fluorometer, WET Labs ECO-AFL/FL -->
#     <FluoroWetlabECO_AFL_FL_Sensor SensorID="20" >
#       <SerialNumber>FLNTURT-2496</SerialNumber>
#       <CalibrationDate>02-Sep-2021</CalibrationDate>
#       <ScaleFactor>4.80000000e+001</ScaleFactor>
#       <!-- Dark output -->
#       <Vblank>0.0550</Vblank>
#     </FluoroWetlabECO_AFL_FL_Sensor>
#   </sensor>
#   <sensor Channel="9" >
#     <!-- A/D voltage 5, Turbidity Meter, WET Labs, ECO-NTU -->
#     <TurbidityMeter SensorID="67" >
#       <SerialNumber>FLNTURT--2496</SerialNumber>
#       <CalibrationDate>02-Sep-2021</CalibrationDate>
#       <ScaleFactor>197.000000</ScaleFactor>
#       <!-- Dark output -->
#       <DarkVoltage>0.070000</DarkVoltage>
#     </TurbidityMeter>
#   </sensor>
# </Sensors>
# datcnv_date = Jun 16 2025 17:59:17, 7.26.7.129 [datcnv_vars = 14]
# datcnv_in = C:\R\Reservoirs\Data\DataNotYetUploadedToEDI\Raw_CTD\RawDownloads\061625_fcr20_S7809002.hex C:\R\Reservoirs\Data\DataNotYetUploadedToEDI\Raw_CTD\RawDownloads\SBE19plusV2_7809_start20230701.xmlcon
# datcnv_skipover = 0
# datcnv_ox_hysteresis_correction = yes
# datcnv_ox_tau_correction = yes
# filter_date = Jun 16 2025 17:59:59, 7.26.7.129
# filter_in = C:\R\Reservoirs\Data\DataNotYetUploadedToEDI\Raw_CTD\RawDownloads\061625_fcr20_S7809002.cnv
# filter_low_pass_tc_A = 0.030
# filter_low_pass_tc_B = 0.150
# filter_low_pass_A_vars = sbeox0Mg/L prdM prdE tv290C
# filter_low_pass_B_vars = depFM dz/dtM sbeox0PS specc c0uS/cm flECO-AFL ph orp par/sat/log turbWETntu0
# alignctd_date = Jun 16 2025 18:01:22, 7.26.7.129
# alignctd_in = C:\R\Reservoirs\Data\DataNotYetUploadedToEDI\Raw_CTD\RawDownloads\061625_fcr20_S7809002.cnv
# alignctd_adv = dz/dtM 1.000, sbeox0PS 1.000, specc 1.000, c0uS/cm 1.000, flECO-AFL 1.000, ph 1.000, orp 1.000, turbWETntu0 1.000                                                                                                   
# file_type = ascii
*END*
     -0.631 4.7452e-19     8.0799     92.166      1.560   1.462621     0.0335      9.246 -1240.7455 1.4460e+03     4.8245     -0.619     -0.898    21.8731 0.0000e+00
     -0.631 4.3139e-20     8.0830     92.171      1.570   1.471838    -0.0077      9.318 -1240.7455 1.3903e+03     4.7076     -0.619     -0.898    21.8732 0.0000e+00
     -0.631 3.9217e-21     8.0796     92.196      1.598   1.497785    -0.0397      9.358 -1240.7455 1.3352e+03     4.6176     -0.619     -0.898    21.8731 0.0000e+00
     -0.631 3.5652e-22     8.0776     92.218      1.624   1.522979    -0.0281      9.383 -1240.7455 1.3086e+03     4.4540     -0.619     -0.898    21.8732 0.0000e+00
     -0.631 3.2410e-23     8.0780     92.222      1.624   1.523091    -0.0093      9.405 -1240.7455 1.2981e+03     4.2327     -0.620     -0.899    21.8734 0.0000e+00
     -0.631 2.9464e-24     8.0769     92.231      1.599   1.499133    -0.0124      9.424 -1240.7455 1.2941e+03     4.1967     -0.619     -0.898    21.8735 0.0000e+00
     -0.632 2.6786e-25     8.0808     92.251      1.586   1.486675     0.0002      9.432 -1240.7455 1.2960e+03     4.3254     -0.620     -0.899    21.8733 0.0000e+00
     -0.632 2.4351e-26     8.0835     92.257      1.599   1.499145     0.0108      9.425 -1240.7455 1.2988e+03     4.3542     -0.620     -0.899    21.8731 0.0000e+00
     -0.632 2.2137e-27     8.0820     92.247      1.625   1.523226    -0.0089      9.416 -1240.7455 1.3005e+03     4.2379     -0.620     -0.899    21.8732 0.0000e+00
     -0.632 2.0124e-28     8.0830     92.248      1.626   1.524472    -0.0059      9.414 -1240.7455 1.3004e+03     4.2173     -0.620     -0.899    21.8731 0.0000e+00
     -0.632 1.8295e-29     8.0857     92.243      1.615   1.514205     0.0236      9.416 -1240.7455 1.2985e+03     4.3434     -0.620     -0.899    21.8729 0.0000e+00
     -0.632 1.6632e-30     8.0868     92.217      1.627   1.525772     0.0229      9.418 -1240.7455 1.2966e+03     4.4656     -0.619     -0.898    21.8728 0.0000e+00
     -0.632 1.5120e-31     8.0841     92.215      1.640   1.537651     0.0101      9.420 -1240.7455 1.2938e+03     4.5679     -0.620     -0.899    21.8726 0.0000e+00
     -0.632 1.3745e-32     8.0848     92.230      1.633   1.531153     0.0109      9.428 -1240.7455 1.2904e+03     4.6576     -0.619     -0.898    21.8725 0.0000e+00
     -0.632 1.2495e-33     8.0870     92.233      1.612   1.510547     0.0066      9.447 -1240.7455 1.2878e+03     4.6620     -0.620     -0.899    21.8723 0.0000e+00
     -0.632 1.1360e-34     8.0804     92.247      1.577   1.478517     0.0006      9.470 -1240.7455 1.2851e+03     4.5862     -0.620     -0.900    21.8722 0.0000e+00
     -0.632 1.0327e-35     8.0815     92.260      1.557   1.460595    -0.0116      9.482 -1240.7455 1.2826e+03     4.5277     -0.620     -0.900    21.8721 0.0000e+00
     -0.632 9.3880e-37     8.0852     92.255      1.582   1.483876    -0.0080      9.472 -1240.7455 1.2806e+03     4.5694     -0.620     -0.899    21.8721 0.0000e+00
     -0.632 8.5345e-38     8.0822     92.240      1.607   1.506636     0.0187      9.437 -1240.7455 1.2771e+03     4.6803     -0.620     -0.899    21.8720 0.0000e+00
     -0.632 7.7590e-39     8.0856     92.235      1.581   1.482427     0.0210      9.391 -1240.7455 1.2701e+03     4.6725     -0.620     -0.899    21.8721 0.0000e+00
     -0.632 7.0535e-40     8.0868     92.242      1.540   1.444536     0.0114      9.366 -1240.7455 1.2636e+03     4.5432     -0.619     -0.898    21.8722 0.0000e+00
     -0.632 6.4125e-41     8.0861     92.253      1.523   1.428544     0.0273      9.370 -1240.7455 1.2613e+03     4.4840     -0.620     -0.899    21.8721 0.0000e+00
     -0.632 5.8295e-42     8.0839     92.259      1.510   1.415754     0.0290      9.381 -1240.7455 1.2615e+03     4.4005     -0.620     -0.899    21.8722 0.0000e+00
     -0.632 5.2995e-43     8.0834     92.248      1.511   1.416573    -0.0006      9.381 -1240.7455 1.2627e+03     4.2523     -0.620     -0.899    21.8722 0.0000e+00
     -0.632 4.8176e-44     8.0847     92.247      1.534   1.438444    -0.0063      9.379 -1240.7455 1.2640e+03     4.3313     -0.620     -0.899    21.8723 0.0000e+00
     -0.632 4.3797e-45     8.0849     92.262      1.522   1.426826     0.0182      9.384 -1240.7455 1.2648e+03     4.5356     -0.619     -0.898    21.8722 0.0000e+00
     -0.632 3.9815e-46     8.0879     92.262      1.496   1.402787     0.0130      9.394 -1240.7455 1.2674e+03     4.5358     -0.620     -0.900    21.8720 0.0000e+00
     -0.632 3.6196e-47     8.0843     92.246      1.495   1.401159    -0.0199      9.395 -1240.7455 1.2721e+03     4.5391     -0.620     -0.900    21.8718 0.0000e+00
     -0.632 3.2931e-48     8.0842     92.238      1.501   1.407137    -0.0125      9.381 -1240.7455 1.2756e+03     4.6785     -0.620     -0.899    21.8717 0.0000e+00
     -0.632 3.2803e-49     8.0874     92.244      1.506   1.411726     0.0271      9.370 -1240.7455 1.2766e+03     4.7518     -0.620     -0.899    21.8716 0.0000e+00
     -0.632 3.4501e-49     8.0871     92.251      1.486   1.393297     0.0340      9.370 -1240.7455 1.2761e+03     4.7073     -0.620     -0.899    21.8716 0.0000e+00
     -0.632 3.4984e-48     8.0846     92.250      1.466   1.374347     0.0052      9.377 -1240.7455 1.2749e+03     4.5845     -0.620     -0.899    21.8714 0.0000e+00
     -0.632 3.8456e-47     8.0835     92.234      1.464   1.372624    -0.0047      9.384 -1240.7455 1.2741e+03     4.4629     -0.620     -0.899    21.8712 0.0000e+00
     -0.632 4.2301e-46     8.0853     92.223      1.464   1.372468     0.0221      9.391 -1240.7455 1.2758e+03     4.3306     -0.620     -0.900    21.8711 0.0000e+00
     -0.632 4.6531e-45     8.0856     92.240      1.464   1.372453     0.0207      9.397 -1240.7455 1.2806e+03     4.1797     -0.620     -0.899    21.8709 0.0000e+00
     -0.632 5.1184e-44     8.0865     92.265      1.464   1.372452    -0.0218      9.392 -1240.7455 1.2940e+03     4.1416     -0.620     -0.899    21.8709 0.0000e+00
     -0.632 5.6303e-43     8.0840     92.281      1.464   1.372450    -0.0252      9.387 -1240.7455 1.3284e+03     4.3827     -0.620     -0.899    21.8709 0.0000e+00
     -0.632 6.1933e-42     8.0817     92.276      1.464   1.372435    -0.0117      9.384 -1240.7455 1.3860e+03     4.7718     -0.620     -0.900    21.8705 0.0000e+00
     -0.632 6.8127e-41     8.0847     92.260      1.464   1.372265    -0.0256      9.377 -1240.7455 1.4477e+03     4.9182     -0.620     -0.900    21.8701 0.0000e+00
     -0.632 7.4939e-40     8.0871     92.256      1.462   1.370400    -0.0093      9.369 -1240.7455 1.4915e+03     4.9229     -0.620     -0.899    21.8701 0.0000e+00
     -0.632 8.2433e-39     8.0890     92.256      1.440   1.349877     0.0273      9.362 -1240.7455 1.5173e+03     5.0331     -0.620     -0.900    21.8698 0.0000e+00
     -0.632 9.0676e-38     8.0888     92.252      1.402   1.314157     0.0256      9.346 -1240.7455 1.5329e+03     5.0548     -0.621     -0.900    21.8695 0.0000e+00
     -0.632 9.9744e-37     8.0857     92.252      1.406   1.318554    -0.0049      9.330 -1240.7455 1.5392e+03     4.9130     -0.620     -0.900    21.8696 0.0000e+00
     -0.632 1.0972e-35     8.0862     92.260      1.429   1.339692    -0.0337      9.325 -1240.7455 1.5372e+03     4.8904     -0.620     -0.899    21.8697 0.0000e+00
     -0.632 1.2069e-34     8.0865     92.269      1.404   1.316375    -0.0321      9.310 -1240.7455 1.5373e+03     5.0201     -0.620     -0.900    21.8695 0.0000e+00
     -0.632 1.3276e-33     8.0858     92.289      1.376   1.289985    -0.0106      9.281 -1240.7455 1.5419e+03     5.0461     -0.620     -0.899    21.8693 0.0000e+00
     -0.632 1.4604e-32     8.0853     92.304      1.359   1.273983    -0.0149      9.265 -1240.7455 1.5410e+03     4.9662     -0.620     -0.899    21.8691 0.0000e+00
     -0.632 1.6064e-31     8.0872     92.293      1.333   1.249581    -0.0172      9.267 -1240.7455 1.5368e+03     4.9761     -0.620     -0.900    21.8691 0.0000e+00
     -0.632 1.7670e-30     8.0869     92.280      1.332   1.248306     0.0043      9.273 -1240.7455 1.5362e+03     5.0969     -0.620     -0.899    21.8691 0.0000e+00
     -0.632 1.9437e-29     8.0888     92.280      1.343   1.258564     0.0032      9.282 -1240.7455 1.5381e+03     5.1628     -0.620     -0.900    21.8690 0.0000e+00
     -0.632 2.1381e-28     8.0925     92.280      1.330   1.246934    -0.0140      9.297 -1240.7455 1.5426e+03     5.1584     -0.620     -0.899    21.8691 0.0000e+00
     -0.632 2.3519e-27     8.0890     92.269      1.316   1.234359    -0.0045      9.303 -1240.7455 1.5497e+03     5.2488     -0.620     -0.899    21.8690 0.0000e+00
     -0.632 2.5871e-26     8.0879     92.247      1.315   1.233206     0.0100      9.298 -1240.7455 1.5572e+03     5.2990     -0.620     -0.900    21.8687 0.0000e+00
     -0.632 2.8458e-25     8.0886     92.245      1.315   1.232998    -0.0053      9.281 -1240.7455 1.5597e+03     5.1844     -0.621     -0.900    21.8689 0.0000e+00
     -0.632 3.1304e-24     8.0886     92.265      1.314   1.231846    -0.0151      9.258 -1240.7455 1.5543e+03     5.1958     -0.620     -0.899    21.8687 0.0000e+00
     -0.632 3.4434e-23     8.0885     92.277      1.300   1.219272     0.0007      9.234 -1240.7455 1.5496e+03     5.3344     -0.620     -0.899    21.8686 0.0000e+00
     -0.632 3.7878e-22     8.0847     92.280      1.288   1.207651     0.0026      9.202 -1240.7455 1.5520e+03     5.3239     -0.621     -0.900    21.8683 0.0000e+00
     -0.632 4.1666e-21     8.0840     92.284      1.299   1.218015    -0.0092      9.177 -1240.7455 1.5559e+03     5.2049     -0.620     -0.900    21.8679 0.0000e+00
     -0.632 4.5832e-20     8.0885     92.296      1.299   1.217900    -0.0089      9.187 -1240.7455 1.5565e+03     5.1935     -0.620     -0.899    21.8680 0.0000e+00
     -0.632 5.0415e-19     8.0882     92.314      1.287   1.206269     0.0061      9.229 -1240.7455 1.5540e+03     5.2889     -0.620     -0.900    21.8677 0.0000e+00
     -0.632 5.5457e-18     8.0889     92.322      1.285   1.204061     0.0310      9.289 -1240.7455 1.5549e+03     5.2646     -0.620     -0.899    21.8676 0.0000e+00
     -0.632 6.1003e-17     8.0888     92.320      1.271   1.191203     0.0259      9.337 -1240.7455 1.5662e+03     5.1390     -0.620     -0.899    21.8674 0.0000e+00
     -0.632 6.7103e-16     8.0894     92.317      1.256   1.177478     0.0024      9.359 -1240.7455 1.5795e+03     5.1029     -0.620     -0.900    21.8672 0.0000e+00
     -0.632 7.3813e-15     8.0925     92.309      1.242   1.164800     0.0138      9.372 -1240.7455 1.5843e+03     5.1354     -0.620     -0.900    21.8672 0.0000e+00
     -0.632 8.1194e-14     8.0926     92.294      1.242   1.164600     0.0128      9.391 -1240.7455 1.5814e+03     5.0880     -0.621     -0.900    21.8669 0.0000e+00
     -0.632 8.9314e-13     8.0924     92.295      1.253   1.175059    -0.0260      9.417 -1240.7455 1.5753e+03     4.9391     -0.620     -0.899    21.8667 0.0000e+00
     -0.632 9.8245e-12     8.0916     92.307      1.242   1.164580    -0.0303      9.444 -1240.7455 1.5734e+03     4.9067     -0.620     -0.899    21.8666 0.0000e+00
     -0.632 1.0807e-10     8.0924     92.298      1.243   1.164571    -0.0063      9.464 -1240.7455 1.5806e+03     4.9695     -0.620     -0.900    21.8664 0.0000e+00
     -0.632 1.1888e-09     8.0888     92.268      1.254   1.174955    -0.0191      9.469 -1240.7455 1.5955e+03     4.9470     -0.620     -0.900    21.8663 0.0000e+00
     -0.633 1.3076e-08     8.0895     92.251      1.241   1.163449    -0.0258      9.452 -1240.7455 1.6167e+03     4.9765     -0.621     -0.900    21.8663 0.0000e+00
     -0.633 1.4384e-07     8.0925     92.260      1.229   1.152131     0.0040      9.407 -1240.7455 1.6426e+03     5.1891     -0.621     -0.900    21.8663 0.0000e+00
     -0.632      0.000     8.0913     92.273      1.242   1.164788     0.0071      9.348 -1240.7455 1.6651e+03     5.4678     -0.620     -0.899    21.8662 0.0000e+00
     -0.632      0.000     8.0874     92.278      1.269   1.189812    -0.0210      9.296 -1240.7455 1.6759e+03     5.6137     -0.620     -0.900    21.8663 0.0000e+00
     -0.632      0.000     8.0850     92.278      1.281   1.201327    -0.0358      9.249 -1240.7455 1.6776e+03     5.6211     -0.620     -0.900    21.8661 0.0000e+00
     -0.632      0.002     8.0874     92.286      1.256   1.177342    -0.0209      9.202 -1240.7455 1.6786e+03     5.6599     -0.620     -0.900    21.8660 0.0000e+00
     -0.632      0.023     8.0886     92.302      1.230   1.153167     0.0003      9.165 -1240.7455 1.6827e+03     5.7078     -0.620     -0.900    21.8656 0.0000e+00
     -0.632      0.255     8.0892     92.315      1.240   1.162390    -0.0132      9.162 -1240.7455 1.6884e+03     5.6528     -0.620     -0.899    21.8653 0.0000e+00
     -0.632      2.803     8.0882     92.309      1.240   1.162171    -0.0253      9.181 -1240.7455 1.6927e+03     5.6447     -0.620     -0.900    21.8651 0.0000e+00
     -0.632      2.803     8.0895     92.298      1.228   1.150531     0.0033      9.189 -1240.7455 1.6971e+03     5.7460     -0.620     -0.900    21.8648 0.0000e+00
     -0.632      0.255     8.0907     92.292      1.226   1.148331     0.0088      9.185 -1240.7455 1.7051e+03     5.7503     -0.620     -0.900    21.8646 0.0000e+00
     -0.632      0.023     8.0935     92.281      1.212   1.135567    -0.0258      9.192 -1240.7455 1.7179e+03     5.7303     -0.620     -0.899    21.8645 0.0000e+00
     -0.632      0.002     8.0916     92.271      1.198   1.122890    -0.0248      9.225 -1240.7455 1.7334e+03     5.8120     -0.621     -0.900    21.8643 0.0000e+00
     -0.632      0.000     8.0903     92.258      1.197   1.121737     0.0130      9.275 -1240.7455 1.7466e+03     5.8156     -0.620     -0.900    21.8641 0.0000e+00
     -0.632      0.000     8.0911     92.258      1.197   1.121624     0.0238      9.332 -1240.7455 1.7547e+03     5.7402     -0.621     -0.899    21.8638 0.0000e+00
     -0.632      0.000     8.0886     92.278      1.197   1.121520     0.0223      9.386 -1240.7455 1.7600e+03     5.7544     -0.620     -0.900    21.8635 0.0000e+00
     -0.633 1.4384e-07     8.0893     92.305      1.196   1.120481     0.0367      9.421 -1240.7455 1.7625e+03     5.8500     -0.621     -0.900    21.8633 0.0000e+00
     -0.633 1.3076e-08     8.0869     92.329      1.184   1.109060     0.0236      9.435 -1240.7455 1.7598e+03     5.8371     -0.621     -0.900    21.8630 0.0000e+00
     -0.633 1.1888e-09     8.0865     92.335      1.184   1.110107    -0.0124      9.432 -1240.7455 1.7510e+03     5.7012     -0.620     -0.900    21.8628 0.0000e+00
     -0.633 1.0807e-10     8.0893     92.330      1.209   1.133140    -0.0236      9.401 -1240.7455 1.7375e+03     5.6074     -0.621     -0.900    21.8627 0.0000e+00
     -0.632 9.8245e-12     8.0915     92.328      1.210   1.134185    -0.0031      9.360 -1240.7455 1.7195e+03     5.6249     -0.620     -0.899    21.8626 0.0000e+00
     -0.632 8.9315e-13     8.0946     92.314      1.198   1.122754     0.0275      9.345 -1240.7455 1.6970e+03     5.7088     -0.620     -0.899    21.8624 0.0000e+00
     -0.632 8.1195e-14     8.0950     92.293      1.197   1.121603     0.0213      9.346 -1240.7455 1.6729e+03     5.7677     -0.621     -0.900    21.8623 0.0000e+00
     -0.632 7.3815e-15     8.0932     92.292      1.196   1.120272    -0.0028      9.341 -1240.7455 1.6423e+03     5.8587     -0.620     -0.900    21.8621 0.0000e+00
     -0.632 6.7100e-16     8.0943     92.302      1.181   1.106662     0.0097      9.326 -1240.7455 1.6040e+03     5.9879     -0.621     -0.900    21.8619 0.0000e+00
     -0.632 6.1000e-17     8.0934     92.303      1.156   1.083724     0.0147      9.307 -1240.7455 1.5772e+03     5.9642     -0.620     -0.899    21.8617 0.0000e+00
     -0.632 5.5455e-18     8.0895     92.296      1.169   1.096288    -0.0091      9.297 -1240.7455 1.5734e+03     5.8116     -0.620     -0.899    21.8612 0.0000e+00
     -0.633 5.0415e-19     8.0904     92.284      1.207   1.131884    -0.0025      9.297 -1240.7455 1.5776e+03     5.8165     -0.621     -0.900    21.8610 0.0000e+00
     -0.633 4.5832e-20     8.0922     92.270      1.210   1.134074     0.0196      9.291 -1240.7455 1.5701e+03     5.8865     -0.621     -0.900    21.8607 0.0000e+00
     -0.633 4.1665e-21     8.0919     92.260      1.198   1.122765     0.0082      9.279 -1240.7455 1.5497e+03     5.8381     -0.620     -0.899    21.8604 0.0000e+00
     -0.633 3.7877e-22     8.0915     92.265      1.197   1.121830    -0.0068      9.262 -1240.7455 1.5294e+03     5.8805     -0.621     -0.901    21.8601 0.0000e+00
     -0.632 3.4434e-23     8.0902     92.271      1.198   1.122775     0.0046      9.246 -1240.7455 1.5266e+03     5.8525     -0.620     -0.900    21.8596 0.0000e+00
     -0.632 3.1304e-24     8.0895     92.276      1.210   1.134188     0.0291      9.238 -1240.7455 1.5676e+03     5.5683     -0.620     -0.899    21.8590 0.0000e+00
     -0.632 2.8458e-25     8.0873     92.302      1.209   1.133139     0.0306      9.230 -1240.7455 1.6436e+03     5.3481     -0.620     -0.899    21.8587 0.0000e+00
     -0.632 2.5871e-26     8.0889     92.323      1.184   1.110097    -0.0022      9.226 -1240.7455 1.6812e+03     5.2047     -0.620     -0.899    21.8586 0.0000e+00
     -0.632 2.3519e-27     8.0900     92.322      1.184   1.108947    -0.0012      9.244 -1240.7455 1.6510e+03     4.8934     -0.620     -0.899    21.8582 0.0000e+00
     -0.632 2.1381e-28     8.0884     92.357      1.195   1.119236     0.0351      9.265 -1240.7455 1.6088e+03     4.4887     -0.620     -0.899    21.8579 0.0000e+00
     -0.632 1.9437e-29     8.0922     92.442      1.182   1.107825     0.0291      9.263 -1240.7455 1.5913e+03     4.2396     -0.620     -0.899    21.8578 0.0000e+00
     -0.632 1.7670e-30     8.0958     92.477      1.171   1.097660     0.0007      9.254 -1240.7455 1.5938e+03     4.2379     -0.620     -0.899    21.8579 0.0000e+00
     -0.632 1.6064e-31     8.0925     92.443      1.198   1.123005    -0.0003      9.259 -1240.7455 1.6187e+03     4.1948     -0.620     -0.899    21.8581 0.0000e+00
     -0.632 1.4604e-32     8.0932     92.405      1.239   1.160905     0.0004      9.281 -1240.7455 1.6517e+03     3.8552     -0.620     -0.899    21.8583 0.0000e+00
     -0.632 1.3276e-33     8.1075     92.379      1.255   1.175865    -0.0161      9.318 -1240.7455 1.6701e+03     3.5482     -0.620     -0.899    21.8585 0.0000e+00
     -0.632 1.2069e-34     8.1101     92.344      1.256   1.177205    -0.0162      9.362 -1240.7455 1.6721e+03     3.5224     -0.620     -0.899    21.8591 0.0000e+00
     -0.632 1.0972e-35     8.1034     92.298      1.256   1.177111    -0.0095      9.399 -1240.7455 1.6121e+03     3.5782     -0.621     -0.900    21.8594 0.0000e+00
     -0.632 9.9745e-37     8.1003     92.259      1.253   1.174724    -0.0260      9.423 -1240.7455 1.5166e+03     3.8808     -0.620     -0.899    21.8595 0.0000e+00
     -0.633 9.0675e-38     8.0990     92.244      1.225   1.148343    -0.0245      9.436 -1240.7455 1.5535e+03     4.5508     -0.621     -0.900    21.8598 0.0000e+00
     -0.633 8.2430e-39     8.0961     92.253      1.186   1.111500     0.0082      9.441 -1240.7455 1.7008e+03     4.9848     -0.621     -0.900    21.8600 0.0000e+00
     -0.633 7.4940e-40     8.0908     92.262      1.184   1.109301     0.0286      9.434 -1240.7455 1.7858e+03     5.0627     -0.621     -0.900    21.8603 0.0000e+00
     -0.632 6.8125e-41     8.0875     92.264      1.197   1.121760     0.0141      9.417 -1240.7455 1.8044e+03     5.3212     -0.620     -0.900    21.8603 0.0000e+00
     -0.632 6.1874e-42     8.0854     92.280      1.212   1.135468    -0.0170      9.398 -1240.7455 1.8167e+03     5.7876     -0.620     -0.899    21.8602 0.0000e+00
     -0.632 4.9671e-43     8.0877     92.304      1.225   1.148359    -0.0151      9.379 -1240.7455 1.8275e+03     6.1248     -0.621     -0.900    21.8604 0.0000e+00
     -0.632 -6.780e-43     8.0889     92.300      1.228   1.150934     0.0121      9.362 -1240.7455 1.8325e+03     6.2551     -0.620     -0.900    21.8602 0.0000e+00
     -0.632 -8.017e-42     8.0875     92.280      1.244   1.166609     0.0043      9.341 -1240.7455 1.8364e+03     5.9287     -0.620     -0.899    21.8600 0.0000e+00
     -0.632 -8.823e-41     8.0892     92.278      1.292   1.211207    -0.0100      9.316 -1240.7455 1.8381e+03     5.2874     -0.620     -0.899    21.8600 0.0000e+00
     -0.632 -9.706e-40     8.0936     92.295      1.398   1.310120     0.0148      9.291 -1240.7455 1.8150e+03     5.0264     -0.621     -0.901    21.8598 0.0000e+00
     -0.632 -1.068e-38     8.0920     92.298      1.507   1.412435     0.0208      9.264 -1240.7455 1.7849e+03     5.0274     -0.620     -0.900    21.8596 0.0000e+00
     -0.632 -1.174e-37     8.0892     92.278      1.531   1.434839    -0.0125      9.232 -1240.7455 1.7859e+03     5.0937     -0.620     -0.899    21.8598 0.0000e+00
     -0.632 -1.292e-36     8.0887     92.269      1.484   1.390982    -0.0224      9.200 -1240.7455 1.7968e+03     5.3154     -0.620     -0.900    21.8596 0.0000e+00
     -0.632 -1.421e-35     8.0917     92.276      1.414   1.325548     0.0017      9.182 -1240.7455 1.7994e+03     5.4191     -0.620     -0.900    21.8593 0.0000e+00
     -0.632 -1.563e-34     8.0930     92.285      1.362   1.277102     0.0123      9.177 -1240.7455 1.8009e+03     5.3566     -0.621     -0.900    21.8595 0.0000e+00
     -0.632 -1.719e-33     8.0885     92.294      1.332   1.248607     0.0135      9.178 -1240.7455 1.8021e+03     5.3799     -0.620     -0.900    21.8594 0.0000e+00
     -0.632 -1.891e-32     8.0885     92.303      1.317   1.234388     0.0253      9.183 -1240.7455 1.8147e+03     5.4962     -0.620     -0.899    21.8593 0.0000e+00
     -0.632 -2.081e-31     8.0895     92.307      1.315   1.231859     0.0302      9.183 -1240.7455 1.8438e+03     5.5669     -0.620     -0.899    21.8595 0.0000e+00
     -0.632 -2.289e-30     8.0904     92.305      1.300   1.218036     0.0146      9.177 -1240.7455 1.8748e+03     5.5176     -0.620     -0.899    21.8595 0.0000e+00
     -0.632 -2.517e-29     8.0910     92.304      1.274   1.193936    -0.0218      9.168 -1240.7455 1.8994e+03     5.3781     -0.620     -0.900    21.8598 0.0000e+00
     -0.632 -2.769e-28     8.0922     92.306      1.274   1.193822    -0.0271      9.156 -1240.7455 1.9212e+03     5.3490     -0.620     -0.900    21.8600 0.0000e+00
     -0.632 -3.046e-27     8.0924     92.315      1.298   1.216655     0.0081      9.138 -1240.7455 1.9410e+03     5.3706     -0.620     -0.899    21.8599 0.0000e+00
     -0.632 -3.351e-26     8.0918     92.331      1.298   1.216645     0.0135      9.118 -1240.7455 1.9586e+03     5.2989     -0.620     -0.900    21.8598 0.0000e+00
     -0.632 -3.686e-25     8.0919     92.336      1.273   1.193708    -0.0128      9.107 -1240.7455 1.9724e+03     5.3703     -0.621     -0.900    21.8598 0.0000e+00
     -0.632 -4.054e-24     8.0921     92.322      1.273   1.192679    -0.0178      9.102 -1240.7455 1.9859e+03     5.5494     -0.620     -0.899    21.8599 0.0000e+00
     -0.632 -4.460e-23     8.0925     92.309      1.285   1.204206    -0.0139      9.095 -1240.7455 2.0048e+03     5.5172     -0.620     -0.900    21.8597 0.0000e+00
     -0.632 -4.906e-22     8.0947     92.303      1.287   1.206406    -0.0316      9.084 -1240.7455 2.0236e+03     5.3569     -0.620     -0.900    21.8598 0.0000e+00
     -0.632 -5.396e-21     8.0958     92.298      1.301   1.219273    -0.0237      9.074 -1240.7455 2.0363e+03     5.3537     -0.620     -0.899    21.8598 0.0000e+00
     -0.632 -5.936e-20     8.0931     92.293      1.316   1.233102     0.0066      9.063 -1240.7455 2.0428e+03     5.4101     -0.620     -0.899    21.8597 0.0000e+00
     -0.632 -6.530e-19     8.0923     92.298      1.331   1.246932    -0.0066      9.048 -1240.7455 2.0433e+03     5.3557     -0.620     -0.899    21.8596 0.0000e+00
     -0.632 -7.183e-18     8.0918     92.303      1.344   1.259811    -0.0251      9.032 -1240.7455 2.0383e+03     5.3787     -0.620     -0.900    21.8598 0.0000e+00
     -0.632 -7.901e-17     8.0915     92.295      1.346   1.262139    -0.0014      9.021 -1240.7455 2.0239e+03     5.4838     -0.620     -0.900    21.8599 0.0000e+00
     -0.632 -8.691e-16     8.0906     92.291      1.360   1.275069     0.0225      9.016 -1240.7455 1.9777e+03     5.4657     -0.621     -0.901    21.8598 0.0000e+00
     -0.632 -9.560e-15     8.0911     92.313      1.376   1.289476     0.0060      9.015 -1240.7455 1.8914e+03     5.2959     -0.620     -0.900    21.8601 0.0000e+00
     -0.632 -1.052e-13     8.0929     92.343      1.397   1.309647    -0.0344      9.011 -1240.7455 1.8209e+03     5.1047     -0.620     -0.899    21.8602 0.0000e+00
     -0.632 -1.157e-12     8.0910     92.350      1.417   1.328932    -0.0414      9.010 -1240.7455 1.8090e+03     5.1004     -0.620     -0.899    21.8600 0.0000e+00
     -0.632 -1.272e-11     8.0896     92.338      1.421   1.332625    -0.0208      9.019 -1240.7455 1.8500e+03     5.2097     -0.620     -0.899    21.8599 0.0000e+00
     -0.632 -1.400e-10     8.0924     92.322      1.445   1.354297    -0.0187      9.027 -1240.7455 1.9073e+03     5.2655     -0.620     -0.900    21.8600 0.0000e+00
     -0.632 -1.540e-09     8.0967     92.315      1.495   1.400943    -0.0158      9.013 -1240.7455 1.9249e+03     5.3987     -0.620     -0.900    21.8599 0.0000e+00
     -0.632 -1.694e-08     8.0963     92.322      1.550   1.453232     0.0058      8.980 -1240.7455 1.9222e+03     5.5566     -0.620     -0.900    21.8599 0.0000e+00
     -0.633 -1.863e-07     8.0952     92.324      1.578   1.479785     0.0101      8.948 -1240.7455 1.9222e+03     5.4322     -0.621     -0.900    21.8600 0.0000e+00
     -0.633 -1.863e-07     8.0933     92.316      1.567   1.468627    -0.0140      8.924 -1240.7455 1.8382e+03     4.0992     -0.621     -0.900    21.8600 0.0000e+00
     -0.632 -1.673e-08     8.0918     92.314      1.542   1.445007    -0.0190      8.902 -1240.7455 1.6572e+03     1.8744     -0.620     -0.899    21.8602 0.0000e+00
     -0.632 7.4722e-10     8.0942     92.325      1.545   1.447556    -0.0006      8.889 -1240.7453 1.4740e+03     0.7354     -0.620     -0.900    21.8602 0.0000e+00
     -0.632 2.5014e-08     8.0939     92.339      1.600   1.499453    -0.0001      8.886 -1240.7434 1.3232e+03     0.6096     -0.620     -0.899    21.8603 0.0000e+00
     -0.632 2.7668e-07     8.0928     92.341      1.670   1.565762    -0.0041      8.887 -1240.7226 1.3064e+03     0.9003     -0.620     -0.899    21.8605 0.0000e+00
     -0.632      0.000     8.0921     92.334      1.724   1.615873     0.0005      8.891 -1240.4941 1.4016e+03     1.6199     -0.620     -0.899    21.8606 0.0000e+00
     -0.632      0.000     8.0935     92.329      1.773   1.661953     0.0050      8.894 -1237.9796 1.4550e+03     2.0681     -0.620     -0.899    21.8608 0.0000e+00
     -0.632      0.000     8.0953     92.327      1.927   1.806202     0.0336      8.911 -1210.3205 1.5653e+03     2.1186     -0.620     -0.899    21.8603 0.0000e+00
     -0.632      0.004     8.0958     92.327      3.648   3.423311     0.2809      9.063  -906.0705 1.7475e+03     2.5030     -0.620     -0.899    21.8606 0.0000e+00
     -0.632      0.020     8.0940     92.323     11.027  10.381466     0.7481      9.360  -322.7280 1.8573e+03     3.4366     -0.620     -0.900    21.8589 0.0000e+00
     -0.632      0.055     8.0944     92.296     22.748  21.548921     1.0292      9.577    35.3470 1.8938e+03     4.0821     -0.620     -0.899    21.8590 0.0000e+00
     -0.630      0.107     8.0947     92.245     30.456  29.104617     1.0584      9.666    94.0082 1.8740e+03     4.2267     -0.618     -0.897    21.8550 0.0000e+00
     -0.618      0.161     8.0938     92.220     32.302  31.170539     1.1004      9.744    99.2542 1.8383e+03     5.1168     -0.620     -0.899    21.8576 0.0000e+00
     -0.568      0.206     8.0962     92.333     32.252  31.369434     1.9376      9.834    99.5500 1.8513e+03     6.8166     -0.578     -0.838    21.8511 0.0000e+00
     -0.475      0.231     8.0513     92.602     32.034  31.319494     3.5317      9.926    99.6504 1.8721e+03     7.7332     -0.466     -0.676    22.1186 0.0000e+00
     -0.376      0.235     7.9507     92.935     31.890  31.264730     4.4264     10.006    99.6069 1.8610e+03     7.8986     -0.358     -0.519    22.7474 0.0000e+00
     -0.301      0.217     7.8616     93.274     31.789  31.214887     4.5239     10.075    99.5410 1.8347e+03     7.9625     -0.283     -0.411    23.2849 0.0000e+00
     -0.257      0.180     7.8133     93.610     31.691  31.160963     4.6947     10.137    99.6276 1.8118e+03     7.8910     -0.243     -0.352    23.6750 0.0000e+00
     -0.236      0.133     7.8038     93.952     31.615  31.120273     5.0433     10.192    99.8792 1.8079e+03     7.8879     -0.230     -0.334    23.9290 0.0000e+00
     -0.220      0.089     7.8179     94.275     31.588  31.103573     5.2589     10.238    99.9166 1.8180e+03     7.8911     -0.220     -0.319    24.0286 0.0000e+00
     -0.200      0.054     7.8376     94.531     31.582  31.085918     5.2877     10.279    99.5629 1.8175e+03     7.8614     -0.195     -0.284    24.0938 0.0000e+00
     -0.180      0.025     7.8552     94.675     31.612  31.097089     5.2078     10.316    99.3884 1.8005e+03     7.7676     -0.171     -0.248    24.1580 0.0000e+00
     -0.173      0.002     7.8745     94.613     31.701  31.175184     5.0509     10.347    99.6138 1.7824e+03     7.5425     -0.166     -0.241    24.2291 0.0000e+00
     -0.178     -0.017     7.9016     94.280     31.716  31.205486     4.9886     10.373    99.8792 1.7826e+03     7.4624     -0.169     -0.246    24.2418 0.0000e+00
     -0.196     -0.030     7.9285     93.810     31.619  31.146330     5.0126     10.395    99.9299 1.8031e+03     7.4484     -0.188     -0.273    24.2086 0.0000e+00
     -0.219     -0.030     7.9479     93.410     31.532  31.094333     4.9491     10.413    99.8824 1.8109e+03     7.3729     -0.220     -0.319    24.1758 0.0000e+00
     -0.234     -0.020     7.9519     93.256     31.502  31.084318     4.8036     10.429    99.9929 1.7989e+03     7.4046     -0.234     -0.339    24.1492 0.0000e+00
     -0.235     -0.002     7.9138     93.516     31.497  31.088705     4.7263     10.444   100.0625 1.7970e+03     7.5246     -0.233     -0.337    24.1745 0.0000e+00
     -0.229      0.020     7.8560     94.107     31.486  31.083945     4.7469     10.457    99.9495 1.8037e+03     7.6612     -0.227     -0.329    24.2499 0.0000e+00
     -0.215      0.040     7.8115     94.822     31.487  31.090216     4.8527     10.469    99.9170 1.8022e+03     7.6562     -0.212     -0.308    24.3101 0.0000e+00
     -0.199      0.056     7.7850     95.611     31.494  31.101103     4.9985     10.481   100.0130 1.7977e+03     7.5318     -0.194     -0.282    24.3366 0.0000e+00
     -0.184      0.068     7.8093     96.309     31.476  31.088716     5.0783     10.494   100.0779 1.7780e+03     7.5242     -0.181     -0.262    24.3463 0.0000e+00
     -0.168      0.076     7.8683     96.569     31.451  31.067321     5.1106     10.506   100.0993 1.7304e+03     7.6328     -0.167     -0.241    24.3567 0.0000e+00
     -0.148      0.076     7.9236     96.274     31.411  31.032720     5.1985     10.516   100.1861 1.6622e+03     7.7175     -0.147     -0.214    24.3630 0.0000e+00
     -0.123      0.069     7.9917     95.585     31.360  30.987530     5.3252     10.525   100.2671 1.4602e+03     7.6596     -0.121     -0.176    24.3699 0.0000e+00
     -0.096      0.059     8.0649     94.671     31.332  30.964980     5.3768     10.534   100.3045 1.1661e+03     7.5138     -0.090     -0.131    24.3807 0.0000e+00
     -0.078      0.046     8.0882     93.616     31.312  30.950388     5.3819     10.540   100.3796 1.0753e+03     7.5258     -0.071     -0.103    24.3857 0.0000e+00
     -0.073      0.032     8.0556     92.483     31.296  30.937964     5.4029     10.545   100.4012 1.2200e+03     7.6686     -0.069     -0.101    24.3888 0.0000e+00
     -0.076      0.019     7.9914     91.318     31.296  30.941646     5.4727     10.549   100.3943 1.4030e+03     7.7023     -0.075     -0.108    24.3987 0.0000e+00
     -0.078      0.009     7.9120     90.199     31.284  30.931474     5.5680     10.554   100.4678 1.4411e+03     7.5587     -0.079     -0.113    24.4105 0.0000e+00
     -0.076      0.004     7.8207     89.193     31.231  30.878412     5.5901     10.558   100.5153 1.3433e+03     7.3666     -0.076     -0.110    24.4153 0.0000e+00
     -0.071      0.003     7.7247     88.234     31.159  30.807543     5.5906     10.562   100.5382 1.2748e+03     7.3269     -0.070     -0.101    24.4216 0.0000e+00
     -0.068      0.003     7.6240     87.259     31.124  30.772370     5.6065     10.565   100.6589 1.3229e+03     7.4878     -0.066     -0.095    24.4312 0.0000e+00
     -0.068      0.002     7.5256     86.290     31.123  30.770306     5.5822     10.565   100.8556 1.4009e+03     7.6039     -0.065     -0.096    24.4325 0.0000e+00
     -0.070      0.001     7.4468     85.357     31.137  30.782586     5.5386     10.566   101.0246 1.4221e+03     7.5354     -0.070     -0.100    24.4284 0.0000e+00
     -0.072     -0.001     7.3687     84.499     31.151  30.793978     5.5210     10.569   101.0675 1.4094e+03     7.4796     -0.071     -0.102    24.4300 0.0000e+00
     -0.072     -0.001     7.2853     83.795     31.141  30.781174     5.5765     10.571   101.0291 1.3409e+03     7.5441     -0.070     -0.102    24.4319 0.0000e+00
     -0.071     -0.001     7.2039     83.259     31.117  30.754635     5.6855     10.573   101.0775 1.2906e+03     7.5980     -0.070     -0.101    24.4283 0.0000e+00
     -0.070     -0.001     7.1269     82.863     31.092  30.726830     5.7320     10.576   101.2225 1.3474e+03     7.5507     -0.069     -0.099    24.4246 0.0000e+00
     -0.070     -0.002     7.0507     82.574     31.066  30.698714     5.7063     10.578   101.2333 1.4064e+03     7.5186     -0.068     -0.098    24.4224 0.0000e+00
     -0.070     -0.004     6.9933     82.279     31.037  30.668410     5.6655     10.579   101.0363 1.3921e+03     7.5175     -0.069     -0.099    24.4159 0.0000e+00
     -0.071     -0.007     6.9512     81.919     30.982  30.614155     5.6385     10.582   100.9047 1.3788e+03     7.4685     -0.069     -0.100    24.4110 0.0000e+00
     -0.074     -0.010     6.9169     81.516     30.917  30.550188     5.6462     10.584   100.9332 1.4050e+03     7.3705     -0.072     -0.105    24.4071 0.0000e+00
     -0.077     -0.012     6.8994     81.059     30.897  30.529308     5.6420     10.587   101.0367 1.4782e+03     7.2890     -0.076     -0.111    24.4014 0.0000e+00
     -0.081     -0.012     6.8769     80.547     30.856  30.488570     5.6796     10.589   101.1236 1.5950e+03     7.3711     -0.079     -0.114    24.4011 0.0000e+00
     -0.086     -0.012     6.8439     80.050     30.743  30.374788     5.8260     10.589   100.9512 1.7154e+03     7.5776     -0.084     -0.121    24.4019 0.0000e+00
     -0.090     -0.016     6.8120     79.645     30.667  30.295349     5.9385     10.592   100.5867 1.7880e+03     7.6338     -0.089     -0.130    24.3995 0.0000e+00
     -0.091     -0.026     6.7749     79.378     30.735  30.352698     5.9580     10.597   100.4171 1.8147e+03     7.5043     -0.090     -0.130    24.3982 0.0000e+00
     -0.092     -0.040     6.7286     79.378     30.831  30.433859     5.9451     10.602   100.5345 1.7967e+03     7.4132     -0.090     -0.131    24.3997 0.0000e+00
     -0.097     -0.054     6.6857     79.985     30.793  30.388584     5.8325     10.606   100.6298 1.7528e+03     7.4201     -0.092     -0.133    24.3935 0.0000e+00
     -0.114     -0.066     6.6509     81.489     30.726  30.312738     5.6365     10.610   100.7093 1.7597e+03     7.4851     -0.104     -0.151    24.3916 0.0000e+00
     -0.145     -0.073     6.6290     83.763     30.711  30.277978     5.5156     10.613   100.9797 1.8016e+03     7.4812     -0.142     -0.206    24.3791 0.0000e+00
     -0.176     -0.071     6.6212     86.338     30.674  30.222007     5.4693     10.616   101.1457 1.8232e+03     7.3392     -0.178     -0.259    24.3433 0.0000e+00
     -0.197     -0.055     6.6597     88.695     30.604  30.143412     5.3257     10.619   101.1677 1.8210e+03     7.2704     -0.194     -0.282    24.3374 0.0000e+00
     -0.210     -0.027     6.7917     90.458     30.558  30.088861     5.0943     10.623   101.2456 1.8292e+03     7.4357     -0.208     -0.301    24.3343 0.0000e+00
     -0.217      0.005     7.0039     91.424     30.552  30.069875     4.9939     10.625   101.3134 1.8444e+03     7.6642     -0.219     -0.317    24.2857 0.0000e+00
     -0.210      0.033     7.2416     91.580     30.529  30.040687     5.0114     10.628   101.3856 1.8385e+03     7.6752     -0.213     -0.308    24.2462 0.0000e+00
     -0.189      0.051     7.4497     90.986     30.476  29.989676     5.1549     10.630   101.4296 1.8200e+03     7.5347     -0.187     -0.272    24.2434 0.0000e+00
     -0.162      0.058     7.6056     89.706     30.444  29.960555     5.4565     10.632   101.5012 1.8030e+03     7.5375     -0.157     -0.227    24.2319 0.0000e+00
     -0.139      0.055     7.6907     87.939     30.424  29.942312     5.6528     10.634   101.6497 1.7938e+03     7.6748     -0.133     -0.193    24.2011 0.0000e+00
     -0.124      0.043     7.7014     85.986     30.377  29.895961     5.6810     10.636   101.7619 1.8009e+03     7.7260     -0.119     -0.173    24.1893 0.0000e+00
     -0.118      0.028     7.6524     84.116     30.324  29.844137     5.6229     10.638   101.8257 1.8201e+03     7.5758     -0.114     -0.166    24.1965 0.0000e+00
     -0.118      0.015     7.5366     82.480     30.303  29.823153     5.5159     10.639   101.9049 1.8387e+03     7.3272     -0.115     -0.168    24.2025 0.0000e+00
     -0.121      0.007     7.3786     81.087     30.312  29.832544     5.4862     10.640   102.0303 1.8559e+03     7.2824     -0.120     -0.174    24.2037 0.0000e+00
     -0.123      0.003     7.2075     79.939     30.311  29.830825     5.5220     10.641   102.0512 1.8717e+03     7.4102     -0.122     -0.176    24.2019 0.0000e+00
     -0.121      0.001     7.0447     79.027     30.282  29.802366     5.4993     10.641   101.9854 1.8822e+03     7.4709     -0.120     -0.173    24.2019 0.0000e+00
     -0.118      0.001     6.9100     78.326     30.286  29.805605     5.4030     10.641   102.0954 1.8914e+03     7.4363     -0.115     -0.167    24.2027 0.0000e+00
     -0.116      0.001     6.7917     77.840     30.287  29.806548     5.3240     10.642   102.3494 1.9054e+03     7.3333     -0.112     -0.162    24.2024 0.0000e+00
     -0.116      0.001     6.6959     77.527     30.230  29.750336     5.3180     10.643   102.4750 1.9224e+03     7.3185     -0.113     -0.164    24.2023 0.0000e+00
     -0.119      0.002     6.6214     77.318     30.173  29.696818     5.3463     10.644   102.4955 1.9374e+03     7.4275     -0.116     -0.169    24.2016 0.0000e+00
     -0.121      0.004     6.5611     77.192     30.139  29.666909     5.3580     10.646   102.5970 1.9444e+03     7.4910     -0.119     -0.173    24.2005 0.0000e+00
     -0.121      0.007     6.5220     77.123     30.112  29.642439     5.3594     10.646   102.6703 1.9394e+03     7.5393     -0.120     -0.174    24.1996 0.0000e+00
     -0.117      0.011     6.4986     77.016     30.122  29.654675     5.3630     10.646   102.6068 1.9215e+03     7.6016     -0.115     -0.168    24.1999 0.0000e+00
     -0.111      0.013     6.4809     76.829     30.156  29.688001     5.3766     10.646   102.5179 1.8973e+03     7.6300     -0.108     -0.157    24.2044 0.0000e+00
     -0.105      0.012     6.4687     76.583     30.132  29.664801     5.4080     10.646   102.6275 1.8836e+03     7.6095     -0.102     -0.147    24.2109 0.0000e+00
     -0.101      0.009     6.4674     76.290     30.095  29.627885     5.4180     10.647   102.8998 1.8878e+03     7.5581     -0.098     -0.143    24.2158 0.0000e+00
     -0.099      0.004     6.4591     75.954     30.089  29.622240     5.4063     10.648   103.0573 1.8956e+03     7.6229     -0.095     -0.139    24.2186 0.0000e+00
     -0.099      0.000     6.4414     75.584     30.063  29.596544     5.4241     10.648   103.0689 1.8899e+03     7.7444     -0.097     -0.140    24.2187 0.0000e+00
     -0.102     -0.002     6.4214     75.199     30.037  29.570909     5.4754     10.649   103.0396 1.8782e+03     7.7632     -0.101     -0.146    24.2182 0.0000e+00
     -0.105     -0.003     6.3963     74.805     30.033  29.566008     5.5109     10.650   103.0476 1.8752e+03     7.6798     -0.104     -0.151    24.2184 0.0000e+00
     -0.106     -0.002     6.3683     74.397     30.005  29.537283     5.4953     10.650   103.1657 1.8730e+03     7.5563     -0.105     -0.152    24.2179 0.0000e+00
     -0.105     -0.001     6.3363     73.988     29.945  29.477319     5.4609     10.650   103.3494 1.8554e+03     7.5334     -0.103     -0.148    24.2180 0.0000e+00
     -0.103      0.002     6.3038     73.567     29.881  29.411842     5.4451     10.650   103.4613 1.8224e+03     7.5739     -0.101     -0.146    24.2182 0.0000e+00
     -0.103      0.004     6.2718     73.110     29.852  29.379892     5.4208     10.651   103.4862 1.7902e+03     7.4639     -0.101     -0.146    24.2171 0.0000e+00
     -0.103      0.005     6.2363     72.620     29.883  29.408160     5.3828     10.652   103.4784 1.7797e+03     7.2973     -0.102     -0.147    24.2159 0.0000e+00
     -0.102      0.005     6.2029     72.121     29.915  29.436485     5.3527     10.653   103.4530 1.7840e+03     7.2683     -0.101     -0.146    24.2137 0.0000e+00
     -0.099      0.004     6.1697     71.635     29.886  29.405206     5.3059     10.654   103.4383 1.7875e+03     7.3853     -0.097     -0.141    24.2094 0.0000e+00
     -0.095      0.001     6.1311     71.168     29.827  29.347112     5.2418     10.654   103.4721 1.7894e+03     7.5856     -0.093     -0.135    24.2038 0.0000e+00
     -0.094     -0.002     6.0902     70.737     29.782  29.304941     5.1853     10.654   103.5171 1.7804e+03     7.6401     -0.091     -0.132    24.1992 0.0000e+00
     -0.096     -0.007     6.0475     70.354     29.750  29.275901     5.1384     10.655   103.5527 1.7597e+03     7.5316     -0.094     -0.135    24.1945 0.0000e+00
     -0.100     -0.012     6.0081     69.996     29.721  29.249704     5.1242     10.656   103.6442 1.7356e+03     7.5386     -0.097     -0.141    24.1891 0.0000e+00
     -0.105     -0.015     5.9684     69.625     29.714  29.241915     5.0890     10.656   103.7636 1.7066e+03     7.6220     -0.103     -0.149    24.1864 0.0000e+00
     -0.110     -0.015     5.9308     69.245     29.720  29.245154     4.9868     10.657   103.7915 1.6707e+03     7.6170     -0.108     -0.157    24.1924 0.0000e+00
     -0.115     -0.013     5.8986     68.899     29.704  29.225434     4.9042     10.658   103.8091 1.6298e+03     7.5123     -0.113     -0.163    24.1995 0.0000e+00
     -0.119     -0.010     5.8703     68.604     29.674  29.193756     4.8642     10.657   103.9769 1.5900e+03     7.3470     -0.118     -0.171    24.2013 0.0000e+00
     -0.121     -0.006     5.8391     68.365     29.661  29.179282     4.8864     10.657   104.1848 1.5568e+03     7.3605     -0.120     -0.174    24.2018 0.0000e+00
     -0.120     -0.004     5.8052     68.160     29.664  29.177285     4.9727     10.659   104.2583 1.5298e+03     7.5388     -0.119     -0.173    24.1966 0.0000e+00
     -0.119     -0.003     5.7783     67.963     29.668  29.169598     5.0249     10.660   104.2627 1.5087e+03     7.6230     -0.117     -0.170    24.1864 0.0000e+00
     -0.119     -0.003     5.7523     67.780     29.663  29.149757     5.0029     10.660   104.3241 1.4915e+03     7.5930     -0.115     -0.167    24.1832 0.0000e+00
     -0.120     -0.004     5.7332     67.604     29.653  29.127646     4.8896     10.660   104.3988 1.4750e+03     7.5520     -0.117     -0.170    24.1857 0.0000e+00
     -0.123     -0.007     5.7186     67.422     29.624  29.092525     4.7533     10.661   104.3915 1.4596e+03     7.6058     -0.122     -0.175    24.1779 0.0000e+00
     -0.125     -0.010     5.7027     67.241     29.579  29.042246     4.7117     10.662   104.3217 1.4453e+03     7.6637     -0.124     -0.179    24.1556 0.0000e+00
     -0.127     -0.013     5.6916     67.087     29.572  29.027141     4.7109     10.664   104.2428 1.4300e+03     7.6027     -0.125     -0.181    24.1266 0.0000e+00
     -0.129     -0.014     5.6791     66.981     29.592  29.036727     4.7522     10.665   104.2119 1.4153e+03     7.5511     -0.126     -0.182    24.1064 0.0000e+00
     -0.134     -0.013     5.6650     66.930     29.596  29.031277     4.8611     10.666   104.2933 1.3966e+03     7.6211     -0.130     -0.189    24.0962 0.0000e+00
     -0.141     -0.010     5.6495     66.936     29.597  29.024658     4.9287     10.668   104.3663 1.3714e+03     7.6974     -0.140     -0.203    24.0877 0.0000e+00
     -0.146     -0.006     5.6372     66.987     29.598  29.020123     4.9538     10.669   104.4058 1.3492e+03     7.6538     -0.146     -0.211    24.0750 0.0000e+00
     -0.146     -0.002     5.6304     67.030     29.622  29.039858     4.9564     10.670   104.5130 1.3333e+03     7.5719     -0.145     -0.210    24.0557 0.0000e+00
     -0.142      0.003     5.6275     67.010     29.656  29.072983     4.9943     10.672   104.6310 1.3221e+03     7.6636     -0.140     -0.203    24.0395 0.0000e+00
     -0.139      0.007     5.6297     66.935     29.621  29.040067     5.1115     10.672   104.7136 1.3182e+03     7.8741     -0.136     -0.197    24.0260 0.0000e+00
     -0.138      0.009     5.6366     66.819     29.536  28.959020     5.1834     10.673   104.7369 1.3182e+03     7.9654     -0.135     -0.196    24.0154 0.0000e+00
     -0.137      0.008     5.6436     66.669     29.490  28.917615     5.1899     10.673   104.7404 1.3069e+03     7.8794     -0.135     -0.196    24.0098 0.0000e+00
     -0.134      0.007     5.6409     66.512     29.489  28.920009     5.1653     10.672   104.8416 1.2920e+03     7.6879     -0.132     -0.191    24.0081 0.0000e+00
     -0.131      0.006     5.6335     66.345     29.491  28.924544     5.1264     10.672   105.0144 1.2955e+03     7.5970     -0.128     -0.186    24.0108 0.0000e+00
     -0.129      0.004     5.6242     66.145     29.473  28.909023     5.1198     10.673   105.1093 1.3038e+03     7.6688     -0.127     -0.184    24.0162 0.0000e+00
     -0.129      0.001     5.6087     65.933     29.421  28.859204     5.1018     10.674   105.1280 1.3046e+03     7.6684     -0.126     -0.183    24.0244 0.0000e+00
     -0.129     -0.003     5.5949     65.713     29.390  28.829616     4.9836     10.675   105.1545 1.3063e+03     7.5234     -0.125     -0.182    24.0314 0.0000e+00
     -0.130     -0.004     5.5825     65.482     29.430  28.868408     4.8139     10.675   105.1723 1.3092e+03     7.4184     -0.127     -0.184    24.0352 0.0000e+00
     -0.133     -0.003     5.5634     65.276     29.445  28.884247     4.7561     10.675   105.2564 1.3098e+03     7.4587     -0.131     -0.190    24.0383 0.0000e+00
     -0.137     -0.001     5.5450     65.093     29.388  28.830843     4.7923     10.676   105.3974 1.3084e+03     7.5660     -0.134     -0.195    24.0401 0.0000e+00
     -0.138      0.003     5.5284     64.960     29.348  28.793552     4.8691     10.676   105.4144 1.3070e+03     7.6233     -0.137     -0.198    24.0409 0.0000e+00
     -0.136      0.007     5.5056     64.931     29.371  28.813930     4.9941     10.677   105.3761 1.3045e+03     7.6383     -0.135     -0.196    24.0400 0.0000e+00
     -0.131      0.009     5.4897     64.966     29.390  28.823515     5.0806     10.678   105.4502 1.3005e+03     7.7135     -0.129     -0.187    24.0418 0.0000e+00
     -0.126      0.010     5.4738     65.012     29.358  28.782581     5.1243     10.678   105.5362 1.2983e+03     7.8489     -0.123     -0.178    24.0465 0.0000e+00
     -0.122      0.010     5.4573     65.060     29.347  28.762974     5.2140     10.679   105.5561 1.3003e+03     7.8751     -0.119     -0.172    24.0514 0.0000e+00
     -0.120      0.009     5.4590     65.093     29.367  28.776729     5.3245     10.680   105.6038 1.3060e+03     7.7230     -0.117     -0.170    24.0499 0.0000e+00
     -0.120      0.008     5.4650     65.093     29.352  28.758590     5.3614     10.680   105.6830 1.3112e+03     7.5806     -0.118     -0.171    24.0326 0.0000e+00
     -0.120      0.008     5.4704     65.036     29.328  28.733937     5.3774     10.681   105.7391 1.3137e+03     7.5891     -0.119     -0.172    24.0130 0.0000e+00
     -0.119      0.009     5.4767     64.893     29.327  28.732356     5.4024     10.682   105.7660 1.3147e+03     7.5859     -0.117     -0.170    23.9988 0.0000e+00
     -0.115      0.009     5.4811     64.668     29.334  28.739481     5.4219     10.683   105.8357 1.3154e+03     7.5761     -0.113     -0.164    23.9895 0.0000e+00
     -0.110      0.008     5.4818     64.378     29.352  28.756646     5.4637     10.683   105.9802 1.3206e+03     7.6761     -0.108     -0.156    23.9835 0.0000e+00
     -0.106      0.007     5.4790     64.015     29.345  28.749622     5.4752     10.683   106.1357 1.3329e+03     7.7352     -0.103     -0.150    23.9804 0.0000e+00
     -0.105      0.005     5.4666     63.633     29.314  28.717982     5.4772     10.683   106.1682 1.3551e+03     7.8128     -0.101     -0.147    23.9816 0.0000e+00
     -0.106      0.002     5.4457     63.278     29.287  28.691218     5.4882     10.684   106.0284 1.3797e+03     7.8631     -0.103     -0.150    23.9819 0.0000e+00
     -0.109     -0.003     5.4243     62.954     29.277  28.679725     5.4582     10.684   105.9089 1.3846e+03     7.7617     -0.108     -0.156    23.9810 0.0000e+00
     -0.109     -0.008     5.3901     62.684     29.303  28.705874     5.4387     10.684   105.9278 1.3788e+03     7.7488     -0.108     -0.157    23.9795 0.0000e+00
     -0.109     -0.014     5.3569     62.504     29.353  28.753669     5.4443     10.685   105.9988 1.4420e+03     7.8440     -0.105     -0.151    23.9779 0.0000e+00
     -0.111     -0.022     5.3281     62.497     29.421  28.813635     5.4173     10.687   105.9933 1.6359e+03     7.8537     -0.107     -0.154    23.9755 0.0000e+00
     -0.119     -0.032     5.2997     62.919     29.487  28.860062     5.3627     10.689   105.9473 1.8432e+03     7.7292     -0.116     -0.169    23.9738 0.0000e+00
     -0.127     -0.041     5.2765     64.336     29.515  28.871001     5.3166     10.691   105.9588 1.9291e+03     7.5342     -0.126     -0.182    23.9735 0.0000e+00
     -0.137     -0.041     5.2588     67.232     29.530  28.882443     5.3093     10.692   105.9593 1.9091e+03     7.4779     -0.130     -0.189    23.9754 0.0000e+00
     -0.156     -0.031     5.2537     71.434     29.522  28.871547     5.2573     10.693   105.9537 1.7751e+03     7.5951     -0.150     -0.219    23.9755 0.0000e+00
     -0.177     -0.016     5.2743     76.284     29.525  28.866113     5.1204     10.694   106.0629 1.5618e+03     7.6869     -0.180     -0.262    23.9320 0.0000e+00
     -0.185     -0.001     5.3759     80.961     29.544  28.880152     5.0194     10.693   106.2473 1.4356e+03     7.6650     -0.190     -0.275    23.8892 0.0000e+00
     -0.172      0.013     5.6280     84.680     29.509  28.850996     4.9769     10.693   106.3760 1.4772e+03     7.5360     -0.172     -0.249    23.9030 0.0000e+00
     -0.152      0.023     6.0051     87.061     29.478  28.830741     4.9979     10.692   106.4150 1.5199e+03     7.4935     -0.145     -0.210    23.8992 0.0000e+00
     -0.137      0.026     6.4392     88.062     29.462  28.825548     5.0726     10.691   106.4611 1.4267e+03     7.6293     -0.133     -0.192    23.8728 0.0000e+00
     -0.131      0.021     6.8648     87.791     29.415  28.788216     5.0981     10.691   106.5895 1.3351e+03     7.6743     -0.126     -0.182    23.8657 0.0000e+00
     -0.132      0.013     7.1850     86.518     29.376  28.759941     5.0731     10.691   106.7622 1.3187e+03     7.5606     -0.128     -0.185    23.8765 0.0000e+00
     -0.137      0.006     7.3823     84.632     29.344  28.737396     5.0620     10.691   106.9152 1.3296e+03     7.4831     -0.137     -0.198    23.8971 0.0000e+00
     -0.140      0.002     7.4633     82.554     29.305  28.705925     5.0966     10.691   106.8906 1.3979e+03     7.4886     -0.139     -0.202    23.9143 0.0000e+00
     -0.137      0.001     7.4286     80.594     29.291  28.696573     5.1590     10.691   106.8081 1.5158e+03     7.5253     -0.135     -0.196    23.9282 0.0000e+00
     -0.132      0.002     7.3086     78.897     29.280  28.687758     5.1758     10.690   106.9506 1.5935e+03     7.4836     -0.128     -0.186    23.9449 0.0000e+00
     -0.130      0.004     7.1325     77.479     29.253  28.662773     5.1410     10.690   107.1509 1.5905e+03     7.3257     -0.126     -0.182    23.9631 0.0000e+00
     -0.132      0.004     6.9474     76.314     29.238  28.648186     5.1214     10.690   107.2512 1.5336e+03     7.3239     -0.128     -0.186    23.9739 0.0000e+00
     -0.134      0.004     6.7777     75.404     29.228  28.638249     5.1296     10.690   107.3028 1.4766e+03     7.5641     -0.133     -0.193    23.9792 0.0000e+00
     -0.134      0.004     6.6342     74.715     29.196  28.606044     5.1325     10.690   107.3450 1.4524e+03     7.7359     -0.132     -0.192    23.9824 0.0000e+00
     -0.131      0.003     6.5166     74.172     29.167  28.575926     5.1144     10.689   107.4164 1.4357e+03     7.6936     -0.128     -0.186    23.9847 0.0000e+00
     -0.127      0.002     6.4167     73.725     29.184  28.591231     5.0684     10.689   107.4784 1.4074e+03     7.6335     -0.123     -0.179    23.9869 0.0000e+00
     -0.125      0.000     6.3416     73.386     29.195  28.600812     5.0265     10.689   107.5777 1.3799e+03     7.6915     -0.121     -0.175    23.9870 0.0000e+00
     -0.125     -0.003     6.2863     73.158     29.160  28.564914     5.0161     10.690   107.6706 1.3694e+03     7.6789     -0.122     -0.176    23.9844 0.0000e+00
     -0.129     -0.005     6.2432     72.993     29.132  28.537748     4.9838     10.690   107.6561 1.3879e+03     7.5494     -0.126     -0.183    23.9809 0.0000e+00
     -0.133     -0.005     6.2048     72.848     29.118  28.526048     4.8773     10.689   107.7466 1.4252e+03     7.4225     -0.132     -0.192    23.9789 0.0000e+00
     -0.135     -0.004     6.1756     72.707     29.077  28.486882     4.7523     10.689   107.9893 1.4383e+03     7.3408     -0.133     -0.193    23.9754 0.0000e+00
     -0.135     -0.002     6.1597     72.576     29.036  28.444755     4.7125     10.689   108.1815 1.4169e+03     7.3822     -0.132     -0.192    23.9716 0.0000e+00
     -0.135      0.001     6.1461     72.463     29.056  28.460679     4.7124     10.690   108.2638 1.3991e+03     7.4102     -0.132     -0.192    23.9738 0.0000e+00
     -0.134      0.003     6.1345     72.373     29.089  28.489129     4.6592     10.691   108.2968 1.3992e+03     7.3710     -0.131     -0.191    23.9779 0.0000e+00
     -0.132      0.003     6.1214     72.331     29.074  28.471605     4.6102     10.691   108.3223 1.4051e+03     7.4550     -0.130     -0.187    23.9816 0.0000e+00
     -0.130      0.002     6.1104     72.325     29.041  28.439083     4.6108     10.691   108.3146 1.4104e+03     7.6065     -0.128     -0.184    23.9795 0.0000e+00
     -0.130      0.002     6.1025     72.302     29.014  28.413035     4.6165     10.691   108.2888 1.4153e+03     7.6994     -0.127     -0.184    23.9688 0.0000e+00
     -0.131      0.001     6.0942     72.237     29.010  28.410364     4.6046     10.691   108.2683 1.4270e+03     7.6909     -0.128     -0.186    23.9619 0.0000e+00
     -0.131     -0.001     6.0914     72.162     29.005  28.406786     4.5581     10.691   108.3251 1.4494e+03     7.5714     -0.130     -0.188    23.9574 0.0000e+00
     -0.130     -0.003     6.0934     72.090     28.967  28.369767     4.5134     10.692   108.4596 1.4675e+03     7.5528     -0.128     -0.186    23.9548 0.0000e+00
     -0.130     -0.004     6.0926     72.005     28.942  28.343328     4.5131     10.693   108.5178 1.4700e+03     7.6698     -0.126     -0.183    23.9583 0.0000e+00
     -0.132     -0.004     6.0843     71.868     28.942  28.340822     4.4965     10.693   108.5129 1.4652e+03     7.6549     -0.128     -0.186    23.9625 0.0000e+00
     -0.135     -0.004     6.0779     71.640     28.945  28.339459     4.3789     10.693   108.5723 1.4631e+03     7.5091     -0.133     -0.193    23.9628 0.0000e+00
     -0.138     -0.003     6.0726     71.327     28.935  28.326849     4.2060     10.692   108.6343 1.4667e+03     7.4442     -0.135     -0.196    23.9621 0.0000e+00
     -0.138     -0.001     6.0661     70.938     28.926  28.315201     4.1290     10.692   108.6596 1.4746e+03     7.5187     -0.135     -0.196    23.9615 0.0000e+00
     -0.137      0.002     6.0576     70.476     28.939  28.325475     4.1478     10.693   108.7058 1.4843e+03     7.6245     -0.134     -0.195    23.9556 0.0000e+00
     -0.135      0.005     6.0378     69.970     28.940  28.324206     4.1666     10.694   108.7629 1.4973e+03     7.6648     -0.132     -0.192    23.9496 0.0000e+00
     -0.134      0.006     6.0117     69.438     28.916  28.299866     4.1729     10.694   108.8343 1.5131e+03     7.7320     -0.131     -0.190    23.9447 0.0000e+00
     -0.131      0.003     5.9807     68.890     28.901  28.284874     4.1828     10.693   108.7938 1.5316e+03     7.8225     -0.129     -0.186    23.9381 0.0000e+00
     -0.128     -0.002     5.9403     68.358     28.886  28.269787     4.2030     10.693   108.6177 1.5564e+03     7.8374     -0.126     -0.182    23.9338 0.0000e+00
     -0.127     -0.010     5.8976     67.878     28.860  28.244303     4.2422     10.694   108.5122 1.5810e+03     7.7748     -0.124     -0.179    23.9310 0.0000e+00
     -0.128     -0.019     5.8531     67.464     28.845  28.230454     4.2656     10.694   108.5505 1.5930e+03     7.6120     -0.123     -0.178    23.9285 0.0000e+00
     -0.135     -0.025     5.8060     67.098     28.844  28.229195     4.2532     10.695   108.6502 1.5832e+03     7.5439     -0.130     -0.189    23.9271 0.0000e+00
     -0.148     -0.028     5.7598     66.762     28.844  28.229079     4.2579     10.697   108.6850 1.5660e+03     7.6339     -0.145     -0.211    23.9261 0.0000e+00
     -0.161     -0.025     5.7187     66.454     28.844  28.229058     4.2230     10.698   108.6265 1.5836e+03     7.5729     -0.160     -0.232    23.9263 0.0000e+00
     -0.170     -0.019     5.6849     66.179     28.844  28.228942     4.1305     10.699   108.6320 1.6318e+03     7.3525     -0.169     -0.245    23.9277 0.0000e+00
     -0.174     -0.011     5.6543     65.934     28.843  28.227674     4.0893     10.700   108.7520 1.6679e+03     7.2242     -0.173     -0.251    23.9288 0.0000e+00
     -0.173     -0.002     5.6262     65.714     28.828  28.213723     4.0736     10.700   108.8734 1.6839e+03     7.2512     -0.171     -0.248    23.9290 0.0000e+00
     -0.168      0.003     5.5997     65.509     28.801  28.187111     4.0571     10.700   108.9800 1.6891e+03     7.3033     -0.163     -0.237    23.9291 0.0000e+00
     -0.163      0.006     5.5769     65.323     28.773  28.159610     4.0978     10.701   109.0087 1.6898e+03     7.2735     -0.159     -0.230    23.9292 0.0000e+00
     -0.162      0.006     5.5559     65.183     28.747  28.134905     4.1748     10.702   108.9627 1.6907e+03     7.2330     -0.157     -0.228    23.9288 0.0000e+00
     -0.163      0.006     5.5382     65.118     28.754  28.142110     4.2140     10.701   108.9396 1.6953e+03     7.2568     -0.159     -0.231    23.9283 0.0000e+00
     -0.164      0.006     5.5210     65.133     28.795  28.183300     4.2225     10.700   108.9875 1.7067e+03     7.3559     -0.162     -0.235    23.9288 0.0000e+00
     -0.164      0.008     5.5040     65.182     28.801  28.188960     4.3026     10.700   109.1123 1.7217e+03     7.5091     -0.161     -0.234    23.9284 0.0000e+00
     -0.160      0.012     5.4918     65.230     28.757  28.147119     4.4416     10.701   109.1583 1.7291e+03     7.5717     -0.158     -0.228    23.9285 0.0000e+00
     -0.155      0.017     5.4848     65.296     28.731  28.121382     4.5051     10.701   109.1127 1.7116e+03     7.4979     -0.152     -0.220    23.9303 0.0000e+00
     -0.150      0.021     5.4885     65.358     28.742  28.131467     4.5286     10.702   109.1633 1.6842e+03     7.5399     -0.148     -0.215    23.9318 0.0000e+00
     -0.145      0.023     5.4944     65.378     28.755  28.142205     4.6343     10.703   109.2537 1.6835e+03     7.6349     -0.144     -0.209    23.9308 0.0000e+00
     -0.138      0.021     5.4961     65.380     28.735  28.124362     4.7768     10.703   109.1738 1.7047e+03     7.6220     -0.136     -0.197    23.9313 0.0000e+00
     -0.129      0.017     5.5021     65.367     28.712  28.106013     4.8278     10.702   109.0576 1.7239e+03     7.6237     -0.126     -0.183    23.9366 0.0000e+00
     -0.123      0.011     5.5105     65.321     28.712  28.110623     4.8016     10.702   109.1381 1.7302e+03     7.5522     -0.119     -0.173    23.9331 0.0000e+00
     -0.121      0.005     5.5104     65.248     28.716  28.116688     4.8009     10.703   109.2873 1.7231e+03     7.5096     -0.117     -0.170    23.9251 0.0000e+00
     -0.123     -0.001     5.5103     65.164     28.713  28.115926     4.8277     10.703   109.3991 1.7203e+03     7.5863     -0.120     -0.174    23.9294 0.0000e+00
     -0.127     -0.006     5.5099     65.128     28.697  28.101411     4.8182     10.702   109.5431 1.7354e+03     7.5583     -0.126     -0.182    23.9410 0.0000e+00
     -0.130     -0.010     5.5035     65.191     28.663  28.068039     4.7854     10.701   109.6522 1.7590e+03     7.4774     -0.128     -0.186    23.9476 0.0000e+00
     -0.132     -0.012     5.4982     65.356     28.625  28.029552     4.7815     10.701   109.6855 1.7811e+03     7.5306     -0.129     -0.187    23.9500 0.0000e+00
     -0.135     -0.012     5.4879     65.616     28.613  28.016616     4.8044     10.702   109.6872 1.8005e+03     7.6550     -0.131     -0.190    23.9550 0.0000e+00
     -0.139     -0.011     5.4826     65.952     28.637  28.038478     4.8285     10.704   109.6727 1.8124e+03     7.6488     -0.136     -0.198    23.9576 0.0000e+00
     -0.143     -0.009     5.4890     66.367     28.641  28.040176     4.8232     10.704   109.6829 1.8139e+03     7.5248     -0.140     -0.204    23.9566 0.0000e+00
     -0.146     -0.007     5.5024     66.858     28.639  28.037148     4.7986     10.703   109.7249 1.8115e+03     7.4529     -0.143     -0.208    23.9549 0.0000e+00
     -0.147     -0.006     5.5259     67.343     28.669  28.065291     4.8137     10.703   109.7499 1.7966e+03     7.4973     -0.146     -0.212    23.9523 0.0000e+00
     -0.147     -0.005     5.5545     67.760     28.667  28.063325     4.8728     10.704   109.7265 1.7337e+03     7.6182     -0.144     -0.209    23.9487 0.0000e+00
     -0.146     -0.004     5.5885     68.120     28.615  28.013382     4.9053     10.704   109.7865 1.6196e+03     7.6510     -0.142     -0.206    23.9443 0.0000e+00
     -0.147     -0.001     5.6338     68.382     28.568  27.968824     4.8915     10.704   109.8736 1.5343e+03     7.5517     -0.143     -0.208    23.9421 0.0000e+00
     -0.150      0.001     5.6780     68.514     28.566  27.968554     4.8805     10.704   109.8336 1.5595e+03     7.5449     -0.147     -0.214    23.9415 0.0000e+00
     -0.152      0.001     5.7098     68.530     28.610  28.010116     4.8965     10.705   109.8185 1.6760e+03     7.6710     -0.151     -0.219    23.9408 0.0000e+00
     -0.150      0.003     5.7432     68.449     28.630  28.027377     4.8943     10.707   109.8628 1.7942e+03     7.6762     -0.148     -0.214    23.9412 0.0000e+00
     -0.146      0.006     5.7662     68.382     28.588  27.986986     4.8780     10.709   109.8533 1.8687e+03     7.5400     -0.142     -0.207    23.9452 0.0000e+00
     -0.144      0.009     5.7745     68.418     28.564  27.965714     4.9161     10.709   109.7895 1.9216e+03     7.4585     -0.140     -0.204    23.9494 0.0000e+00
     -0.144      0.009     5.7784     68.509     28.559  27.960454     4.9976     10.709   109.7798 1.9675e+03     7.5108     -0.143     -0.208    23.9479 0.0000e+00
     -0.141      0.006     5.7672     68.621     28.527  27.923398     5.0554     10.709   109.8214 2.0029e+03     7.6255     -0.140     -0.203    23.9410 0.0000e+00
     -0.136      0.003     5.7570     68.770     28.506  27.898213     5.0491     10.709   109.8631 2.0262e+03     7.6497     -0.131     -0.191    23.9395 0.0000e+00
     -0.134      0.002     5.7632     68.939     28.519  27.909629     4.9961     10.708   109.9401 2.0384e+03     7.5639     -0.129     -0.188    23.9515 0.0000e+00
     -0.137      0.002     5.7719     69.128     28.545  27.934570     4.9563     10.708   110.0634 2.0450e+03     7.5453     -0.134     -0.194    23.9503 0.0000e+00
     -0.141      0.003     5.7810     69.324     28.558  27.946081     4.9584     10.709   110.2354 2.0471e+03     7.6636     -0.140     -0.202    23.9312 0.0000e+00
     -0.143      0.005     5.7967     69.514     28.535  27.921960     4.9715     10.710   110.3858 2.0441e+03     7.7298     -0.142     -0.207    23.9260 0.0000e+00
     -0.140      0.008     5.8097     69.713     28.510  27.896610     5.0070     10.710   110.3324 2.0381e+03     7.6630     -0.139     -0.201    23.9269 0.0000e+00
     -0.134      0.010     5.8262     69.916     28.506  27.893284     5.0705     10.710   110.1919 2.0312e+03     7.6080     -0.131     -0.191    23.9240 0.0000e+00
     -0.128      0.012     5.8446     70.116     28.494  27.881742     5.1235     10.710   110.3222 2.0237e+03     7.6453     -0.123     -0.180    23.9228 0.0000e+00
     -0.124      0.012     5.8585     70.313     28.494  27.883911     5.1656     10.711   110.5313 2.0148e+03     7.6702     -0.120     -0.174    23.9210 0.0000e+00
     -0.124      0.011     5.8768     70.499     28.529  27.919497     5.1628     10.711   110.5688 2.0076e+03     7.6014     -0.120     -0.175    23.9183 0.0000e+00
     -0.124      0.011     5.8942     70.659     28.539  27.931476     5.0650     10.710   110.6038 2.0037e+03     7.4966     -0.122     -0.178    23.9180 0.0000e+00
     -0.122      0.012     5.9102     70.794     28.505  27.901896     4.9400     10.710   110.6967 2.0015e+03     7.4955     -0.121     -0.176    23.9208 0.0000e+00
     -0.117      0.013     5.9269     70.884     28.544  27.942402     4.9087     10.710   110.6591 2.0004e+03     7.6230     -0.116     -0.169    23.9244 0.0000e+00
     -0.111      0.015     5.9429     70.897     28.835  28.230967     4.9448     10.710   110.4079 2.0004e+03     7.7398     -0.108     -0.157    23.9258 0.0000e+00
     -0.105      0.020     5.9563     70.976     29.395  28.790472     4.9601     10.710   110.2403 2.0032e+03     7.7118     -0.101     -0.147    23.9296 0.0000e+00
     -0.103      0.024     5.9661     71.491     29.912  29.316082     4.9682     10.710   110.3528 2.0052e+03     7.6263     -0.100     -0.145    23.9344 0.0000e+00
     -0.102      0.026     5.9770     72.834     30.160  29.575338     4.9766     10.710   110.5637 1.9787e+03     7.6626     -0.102     -0.148    23.9421 0.0000e+00
     -0.094      0.025     5.9739     75.091     30.220  29.641707     4.9781     10.709   110.7250 1.7947e+03     7.7061     -0.096     -0.140    23.9446 0.0000e+00
     -0.079      0.022     5.9661     77.810     30.183  29.611115     5.0200     10.708   110.8411 1.5601e+03     7.6403     -0.076     -0.111    23.9555 0.0000e+00
     -0.068      0.019     5.9919     80.371     30.150  29.586035     5.0842     10.707   110.9353 1.5270e+03     7.5506     -0.063     -0.092    24.0030 0.0000e+00
     -0.066      0.014     6.0939     82.391     30.149  29.592192     5.1307     10.707   111.0030 1.5366e+03     7.5772     -0.064     -0.093    24.0327 0.0000e+00
     -0.069      0.003     6.3020     83.717     30.107  29.558722     5.1657     10.707   110.9711 1.5027e+03     7.6896     -0.068     -0.098    24.0350 0.0000e+00
     -0.070     -0.017     6.5513     84.332     30.111  29.561934     5.1155     10.707   110.8943 1.5511e+03     7.6796     -0.070     -0.101    24.0454 0.0000e+00
     -0.070     -0.043     6.7738     84.351     30.196  29.631034     4.9731     10.707   110.9343 1.6034e+03     7.4905     -0.070     -0.103    24.0596 0.0000e+00
     -0.070     -0.066     6.9474     84.178     30.212  29.633029     4.8761     10.708   111.1109 1.6062e+03     7.2813     -0.063     -0.092    24.0696 0.0000e+00
     -0.086     -0.078     7.0556     84.363     30.169  29.586031     4.8575     10.709   111.2225 1.7248e+03     7.2690     -0.071     -0.101    24.0855 0.0000e+00
     -0.130     -0.077     7.1054     85.038     30.160  29.570219     4.8145     10.709   111.2519 1.9545e+03     7.4443     -0.126     -0.183    24.0962 0.0000e+00
     -0.178     -0.064     7.1007     85.990     30.171  29.568689     4.7064     10.709   111.3796 2.0681e+03     7.5551     -0.186     -0.270    24.0578 0.0000e+00
     -0.202     -0.044     7.0666     87.066     30.177  29.567519     4.6160     10.708   111.4766 2.0555e+03     7.5164     -0.208     -0.301    24.0245 0.0000e+00
     -0.199     -0.019     7.0784     88.032     30.164  29.556059     4.5875     10.706   111.4780 2.0183e+03     7.4551     -0.201     -0.292    24.0344 0.0000e+00
     -0.180      0.002     7.1495     88.535     30.160  29.556991     4.5949     10.706   111.4815 1.9848e+03     7.4279     -0.176     -0.256    24.0227 0.0000e+00
     -0.160      0.012     7.2339     88.392     30.178  29.578798     4.6879     10.706   111.5194 1.9713e+03     7.4268     -0.152     -0.220    23.9909 0.0000e+00
     -0.152      0.008     7.3325     87.632     30.159  29.566006     4.8454     10.706   111.5929 1.9737e+03     7.3731     -0.144     -0.209    23.9780 0.0000e+00
     -0.157     -0.002     7.4275     86.382     30.114  29.529195     4.9109     10.706   111.6816 1.9804e+03     7.2570     -0.150     -0.219    23.9852 0.0000e+00
     -0.172     -0.011     7.4731     84.827     30.094  29.514306     4.9058     10.706   111.8171 1.9866e+03     7.2873     -0.169     -0.245    23.9954 0.0000e+00
     -0.185     -0.014     7.4576     83.128     30.094  29.512847     4.9246     10.706   111.9408 1.9880e+03     7.4998     -0.186     -0.269    24.0021 0.0000e+00
     -0.188     -0.011     7.3897     81.445     30.094  29.511556     4.9381     10.706   111.9730 1.9850e+03     7.6752     -0.187     -0.272    24.0107 0.0000e+00
     -0.184     -0.004     7.2757     79.933     30.080  29.498687     4.9279     10.706   111.9484 1.9822e+03     7.6988     -0.180     -0.261    24.0237 0.0000e+00
     -0.179      0.002     7.1393     78.626     30.065  29.484117     4.9098     10.706   111.9882 1.9812e+03     7.6149     -0.175     -0.253    24.0340 0.0000e+00
     -0.177      0.007     6.9936     77.509     30.045  29.462258     4.9026     10.707   112.1093 1.9820e+03     7.5839     -0.173     -0.251    24.0289 0.0000e+00
     -0.177      0.009     6.8448     76.564     30.009  29.424671     4.8991     10.707   112.1227 1.9850e+03     7.6308     -0.173     -0.251    24.0250 0.0000e+00
     -0.177      0.009     6.7184     75.737     29.997  29.410217     4.8921     10.707   112.0633 1.9898e+03     7.6354     -0.174     -0.253    24.0298 0.0000e+00
     -0.176      0.009     6.6090     75.022     30.003  29.414354     4.8766     10.707   112.0799 1.9932e+03     7.6058     -0.174     -0.252    24.0299 0.0000e+00
     -0.171      0.009     6.5150     74.430     30.002  29.411265     4.8195     10.707   112.1507 1.9933e+03     7.5799     -0.169     -0.244    24.0257 0.0000e+00
     -0.166      0.008     6.4391     73.934     30.028  29.436298     4.7502     10.707   112.2309 1.9927e+03     7.6289     -0.161     -0.234    24.0220 0.0000e+00
     -0.162      0.007     6.3696     73.504     30.056  29.463304     4.7140     10.708   112.2759 1.9910e+03     7.6529     -0.158     -0.228    24.0172 0.0000e+00
     -0.161      0.004     6.3090     73.117     30.012  29.420643     4.6905     10.708   112.3507 1.9881e+03     7.5614     -0.157     -0.227    24.0117 0.0000e+00
     -0.162      0.003     6.2611     72.748     29.953  29.364490     4.6648     10.708   112.4462 1.9855e+03     7.6499     -0.158     -0.230    24.0094 0.0000e+00
     -0.164      0.006     6.2202     72.389     29.943  29.355226     4.6533     10.708   112.4842 1.9805e+03     7.9036     -0.160     -0.233    24.0084 0.0000e+00
     -0.164      0.011     6.1846     72.028     29.959  29.372064     4.6595     10.707   112.4665 1.9720e+03     7.9995     -0.162     -0.235    24.0082 0.0000e+00
     -0.163      0.017     6.1528     71.639     29.964  29.377795     4.6490     10.706   112.4038 1.9599e+03     7.9215     -0.162     -0.235    24.0100 0.0000e+00
     -0.157      0.022     6.1215     71.230     29.947  29.361100     4.6253     10.706   112.4149 1.9439e+03     7.7791     -0.156     -0.226    24.0118 0.0000e+00
     -0.147      0.024     6.0912     70.835     29.945  29.360485     4.7148     10.707   112.5149 1.9259e+03     7.7128     -0.144     -0.209    24.0130 0.0000e+00
     -0.135      0.021     6.0622     70.458     29.955  29.370353     4.9065     10.708   112.5794 1.9101e+03     7.7344     -0.130     -0.190    24.0145 0.0000e+00
     -0.127      0.016     6.0290     70.085     29.936  29.353553     5.0040     10.709   112.5926 1.9013e+03     7.7332     -0.121     -0.176    24.0155 0.0000e+00
     -0.125      0.010     5.9928     69.736     29.928  29.347654     4.9950     10.710   112.5890 1.8960e+03     7.6640     -0.120     -0.175    24.0167 0.0000e+00
     -0.129      0.005     5.9594     69.435     29.941  29.362459     4.9306     10.710   112.6221 1.8890e+03     7.5465     -0.126     -0.183    24.0177 0.0000e+00
     -0.133      0.003     5.9288     69.164     29.919  29.342273     4.8493     10.709   112.6490 1.8815e+03     7.5430     -0.131     -0.190    24.0186 0.0000e+00
     -0.133      0.003     5.8963     68.912     29.867  29.293878     4.8279     10.709   112.6559 1.8723e+03     7.6556     -0.132     -0.191    24.0197 0.0000e+00
     -0.130      0.005     5.8650     68.669     29.855  29.284754     4.8214     10.709   112.7913 1.8628e+03     7.6789     -0.128     -0.186    24.0226 0.0000e+00
     -0.125      0.008     5.8408     68.403     29.928  29.358817     4.8219     10.709   112.9096 1.8571e+03     7.5845     -0.122     -0.178    24.0274 0.0000e+00
     -0.121      0.012     5.8180     68.171     30.061  29.491650     4.8579     10.710   112.7960 1.8569e+03     7.5051     -0.118     -0.172    24.0303 0.0000e+00
     -0.120      0.018     5.7954     68.099     30.189  29.622254     4.8992     10.712   112.6219 1.8632e+03     7.5389     -0.117     -0.170    24.0341 0.0000e+00
     -0.120      0.025     5.7775     68.322     30.295  29.732787     4.9464     10.713   112.6111 1.8711e+03     7.6519     -0.119     -0.172    24.0389 0.0000e+00
     -0.117      0.033     5.7528     69.139     30.370  29.813222     5.0622     10.713   112.6657 1.8586e+03     7.6752     -0.119     -0.172    24.0428 0.0000e+00
     -0.106      0.042     5.7271     70.880     30.382  29.833642     5.2420     10.712   112.6796 1.8266e+03     7.6152     -0.107     -0.155    24.0456 0.0000e+00
     -0.088      0.051     5.7195     73.419     30.388  29.852823     5.3646     10.711   112.6070 1.8471e+03     7.6447     -0.087     -0.126    24.0536 0.0000e+00
     -0.070      0.060     5.7276     76.223     30.376  29.854863     5.4203     10.711   112.3906 1.7638e+03     7.7237     -0.068     -0.098    24.0679 0.0000e+00
     -0.055      0.069     5.7797     78.788     30.302  29.794911     5.5167     10.711   112.3004 1.4510e+03     7.7857     -0.054     -0.077    24.0752 0.0000e+00
     -0.040      0.074     5.9290     80.784     30.327  29.825698     5.6480     10.710   112.3759 1.2372e+03     7.8821     -0.041     -0.060    24.0878 0.0000e+00
     -0.024      0.078     6.1609     82.074     30.478  29.973388     5.7002     10.709   112.3570 1.1369e+03     8.0002     -0.026     -0.038    24.1139 0.0000e+00
     -0.001      0.080     6.4064     82.691     30.566  30.058282     5.7072     10.709   112.3303 9.2843e+02     8.1211     -0.003     -0.003    24.1388 0.0000e+00
      0.026      0.081     6.6299     82.756     30.531  30.027545     5.7487     10.708   112.4840 7.3860e+02     8.1481      0.027      0.040    24.1612 0.0000e+00
      0.049      0.079     6.7993     82.361     30.476  29.982336     5.8031     10.708   112.6661 6.4973e+02     8.0876      0.050      0.072    24.1734 0.0000e+00
      0.068      0.074     6.9068     81.591     30.505  30.019126     5.8323     10.708   112.8974 5.9761e+02     8.1066      0.067      0.098    24.1656 0.0000e+00
      0.085      0.065     6.9555     80.662     30.572  30.091794     5.8193     10.708   113.3010 5.4938e+02     8.2415      0.083      0.121    24.1575 0.0000e+00
      0.100      0.055     6.9557     79.714     30.573  30.099793     5.8204     10.708   113.5030 5.1159e+02     8.3868      0.100      0.144    24.1670 0.0000e+00
      0.115      0.045     6.9224     78.766     30.580  30.115855     5.8457     10.707   113.4460 4.8719e+02     8.1893      0.114      0.165    24.1852 0.0000e+00
      0.125      0.036     6.8450     77.839     30.614  30.159152     5.8501     10.707   113.4735 4.6929e+02     7.6983      0.124      0.180    24.1977 0.0000e+00
      0.132      0.028     6.7622     76.931     30.560  30.115857     5.8489     10.707   113.6629 4.6212e+02     7.4368      0.131      0.190    24.2076 0.0000e+00
      0.136      0.022     6.6831     76.052     30.532  30.099840     5.8565     10.707   114.6179 4.5887e+02     7.4869      0.134      0.194    24.2198 0.0000e+00
      0.140      0.018     6.5993     75.277     30.642  30.219232     5.8831     10.708   115.8134 4.5318e+02     7.6551      0.137      0.198    24.2338 0.0000e+00
      0.143      0.018     6.5209     74.672     30.705  30.290802     5.9207     10.709   115.7275 4.4655e+02     7.6944      0.140      0.203    24.2520 0.0000e+00
      0.146      0.025     6.4426     74.200     30.609  30.204029     5.9288     10.708   115.2142 4.4067e+02     7.5519      0.143      0.207    24.2669 0.0000e+00
      0.150      0.036     6.3649     73.811     30.579  30.184981     5.9390     10.707   115.1138 4.3470e+02     7.5378      0.146      0.211    24.2842 0.0000e+00
      0.156      0.048     6.2932     73.470     30.764  30.377664     6.0110     10.706   115.0308 4.1795e+02     7.7973      0.149      0.217    24.3068 0.0000e+00
      0.169      0.057     6.2443     73.150     30.947  30.567361     6.1081     10.706   114.9843 3.8801e+02     8.0929      0.161      0.234    24.3207 0.0000e+00
      0.191      0.061     6.2048     72.861     31.074  30.702513     6.1400     10.705   114.9813 3.5587e+02     8.1409      0.187      0.272    24.3306 0.0000e+00
      0.217      0.059     6.1705     72.564     31.236  30.870002     6.1125     10.704   115.0810 3.2853e+02     8.0361      0.214      0.311    24.3492 0.0000e+00
      0.239      0.056     6.1424     72.308     31.498  31.133502     6.1175     10.702   115.3293 3.1243e+02     7.9866      0.238      0.345    24.3666 0.0000e+00
      0.250      0.058     6.1113     72.356     31.586  31.224225     6.1678     10.702   115.7463 3.1099e+02     7.9866      0.249      0.362    24.3797 0.0000e+00
      0.250      0.066     6.0882     73.055     31.310  30.951933     6.1868     10.701   116.3377 3.1891e+02     7.9340      0.246      0.357    24.3976 0.0000e+00
      0.251      0.075     6.0626     74.654     31.313  30.949527     6.1644     10.699   116.8877 3.2204e+02     7.7944      0.240      0.348    24.4098 0.0000e+00
      0.270      0.082     6.0301     76.994     31.635  31.258592     6.1556     10.698   117.2337 3.0750e+02     7.6996      0.253      0.367    24.4157 0.0000e+00
      0.312      0.084     6.0244     79.599     31.709  31.326798     6.2298     10.696   117.4232 2.8392e+02     7.8116      0.306      0.444    24.4203 0.0000e+00
      0.355      0.080     6.0706     82.062     31.645  31.266720     6.3709     10.695   117.6297 2.6671e+02     8.0217      0.357      0.518    24.4258 0.0000e+00
      0.380      0.071     6.2100     84.025     31.668  31.293423     6.4308     10.694   117.8385 2.5641e+02     8.0538      0.379      0.549    24.4181 0.0000e+00
      0.385      0.057     6.4280     85.164     31.641  31.269060     6.3961     10.692   117.9687 2.4945e+02     7.9952      0.381      0.553    24.3941 0.0000e+00
      0.382      0.043     6.6550     85.320     31.532  31.162458     6.3756     10.691   118.0857 2.4333e+02     8.0303      0.373      0.541    24.3873 0.0000e+00
      0.382      0.036     6.8709     84.579     31.515  31.146329     6.3985     10.691   118.2212 2.3530e+02     8.1368      0.371      0.537    24.3959 0.0000e+00
      0.393      0.035     7.0443     83.180     31.633  31.264344     6.4316     10.691   118.4878 2.2719e+02     8.1893      0.382      0.555    24.4033 0.0000e+00
      0.411      0.037     7.1446     81.417     31.690  31.320684     6.4268     10.691   118.8146 2.2157e+02     8.0839      0.404      0.586    24.4067 0.0000e+00
      0.429      0.037     7.1538     79.563     31.562  31.193181     6.3909     10.691   118.9883 2.2013e+02     7.9895      0.424      0.615    24.4077 0.0000e+00
      0.439      0.033     7.0842     77.809     31.423  31.054843     6.3799     10.690   119.1258 2.2273e+02     8.0055      0.433      0.628    24.4094 0.0000e+00
      0.443      0.025     6.9582     76.254     31.475  31.107040     6.3939     10.688   119.2726 2.2630e+02     8.0033      0.435      0.630    24.4111 0.0000e+00
      0.444      0.017     6.8022     74.932     31.624  31.253386     6.4015     10.688   119.3003 2.2891e+02     7.9633      0.435      0.631    24.4110 0.0000e+00
      0.446      0.012     6.6426     73.852     31.610  31.238434     6.4224     10.688   119.3745 2.2991e+02     7.8973      0.438      0.635    24.4082 0.0000e+00
      0.449      0.010     6.4929     72.979     31.488  31.116560     6.4724     10.689   119.6525 2.2915e+02     7.8546      0.441      0.639    24.4081 0.0000e+00
      0.451      0.010     6.3632     72.263     31.485  31.111944     6.5234     10.689   119.9094 2.2632e+02     7.8910      0.442      0.642    24.4099 0.0000e+00
      0.454      0.011     6.2512     71.651     31.558  31.182620     6.5387     10.689   119.9856 2.2169e+02     7.8590      0.445      0.645    24.4091 0.0000e+00
      0.457      0.011     6.1635     71.092     31.588  31.209879     6.4988     10.689   120.0571 2.1684e+02     7.7420      0.448      0.648    24.4063 0.0000e+00
      0.460      0.012     6.0922     70.589     31.632  31.251220     6.4493     10.690   120.1726 2.1225e+02     7.6714      0.451      0.654    24.4027 0.0000e+00
      0.464      0.013     6.0337     70.139     31.685  31.301862     6.4560     10.690   120.1769 2.0864e+02     7.7221      0.454      0.660    24.4014 0.0000e+00
      0.466      0.015     5.9855     69.716     31.699  31.314699     6.4966     10.690   120.1953 2.0634e+02     7.8775      0.457      0.663    24.3994 0.0000e+00
      0.469      0.020     5.9380     69.330     31.729  31.342995     6.4998     10.690   120.3943 2.0468e+02     7.9098      0.459      0.665    24.3949 0.0000e+00
      0.473      0.028     5.8962     68.983     31.713  31.326816     6.4367     10.690   120.6046 2.0326e+02     7.8740      0.463      0.671    24.3911 0.0000e+00
      0.479      0.038     5.8610     68.648     31.631  31.245943     6.3569     10.690   120.7596 2.0143e+02     7.9917      0.469      0.680    24.3886 0.0000e+00
      0.488      0.051     5.8243     68.307     31.575  31.189826     6.3260     10.690   120.8911 1.9817e+02     8.1712      0.476      0.691    24.3873 0.0000e+00
      0.503      0.062     5.7923     67.975     31.542  31.155790     6.3381     10.689   121.0767 1.9284e+02     8.3362      0.492      0.713    24.3866 0.0000e+00
      0.523      0.070     5.7644     67.644     31.538  31.151582     6.2780     10.688   121.3684 1.8609e+02     8.5520      0.512      0.744    24.3857 0.0000e+00
      0.546      0.070     5.7375     67.288     31.590  31.202381     6.1240     10.687   121.6654 1.7829e+02     8.8000      0.535      0.776    24.3850 0.0000e+00
      0.571      0.065     5.7078     66.919     31.652  31.262515     6.0568     10.686   122.1721 1.7044e+02     8.9770      0.561      0.813    24.3842 0.0000e+00
      0.591      0.055     5.6802     66.545     31.635  31.244308     6.0816     10.684   122.8482 1.6495e+02     9.0870      0.583      0.845    24.3831 0.0000e+00
      0.602      0.043     5.6548     66.179     31.564  31.172552     6.1164     10.681   123.3019 1.6129e+02     8.9342      0.592      0.859    24.3814 0.0000e+00
      0.607      0.029     5.6235     65.831     31.612  31.219560     6.1611     10.679   123.5275 1.5802e+02     8.4275      0.595      0.863    24.3797 0.0000e+00
      0.610      0.018     5.5933     65.503     31.700  31.305198     6.1642     10.677   123.5971 1.5539e+02     8.0157      0.597      0.866    24.3781 0.0000e+00
      0.612      0.011     5.5617     65.265     31.587  31.193032     6.1625     10.675   123.5415 1.5340e+02     7.9525      0.600      0.871    24.3761 0.0000e+00
      0.613      0.009     5.5305     65.185     31.463  31.068637     6.1565     10.673   123.4575 1.5289e+02     8.0050      0.602      0.873    24.3740 0.0000e+00
      0.613      0.009     5.5029     65.229     31.531  31.133264     6.0925     10.671   123.4416 1.5384e+02     8.0352      0.601      0.872    24.3735 0.0000e+00
      0.615      0.010     5.4728     65.381     31.550  31.149780     6.0208     10.669   123.5220 1.5523e+02     8.0438      0.602      0.875    24.3728 0.0000e+00
      0.618      0.013     5.4493     65.648     31.478  31.078027     5.9799     10.667   123.5691 1.5712e+02     7.9726      0.607      0.881    24.3704 0.0000e+00
      0.622      0.017     5.4461     65.943     31.490  31.090348     6.0146     10.666   123.4949 1.5840e+02     8.0282      0.609      0.883    24.3687 0.0000e+00
      0.626      0.021     5.4507     66.185     31.509  31.108455     6.1075     10.664   123.4852 1.5814e+02     8.2382      0.612      0.888    24.3648 0.0000e+00
      0.633      0.023     5.4614     66.370     31.571  31.170083     6.1377     10.662   123.6228 1.5676e+02     8.2917      0.620      0.900    24.3581 0.0000e+00
      0.641      0.026     5.4885     66.498     31.666  31.264571     6.1047     10.661   123.6103 1.5446e+02     8.2651      0.628      0.911    24.3570 0.0000e+00
      0.648      0.030     5.5159     66.600     31.573  31.172512     6.0827     10.659   123.5060 1.5183e+02     8.2925      0.636      0.923    24.3591 0.0000e+00
      0.654      0.036     5.5346     66.697     31.472  31.071965     6.0472     10.656   123.6527 1.4948e+02     8.3840      0.642      0.932    24.3589 0.0000e+00
      0.660      0.042     5.5509     66.723     31.595  31.190687     5.9754     10.653   123.9212 1.4635e+02     8.4820      0.645      0.935    24.3597 0.0000e+00
      0.670      0.049     5.5611     66.747     31.621  31.212403     5.9056     10.651   124.1714 1.4197e+02     8.4190      0.654      0.949    24.3606 0.0000e+00
      0.687      0.056     5.5661     66.932     31.427  31.017353     5.8604     10.648   124.4418 1.3777e+02     8.4422      0.674      0.978    24.3605 0.0000e+00
      0.705      0.062     5.5800     67.222     31.402  30.989110     5.8285     10.643   124.6953 1.3450e+02     8.8990      0.693      1.004    24.3599 0.0000e+00
      0.721      0.064     5.5810     67.511     31.544  31.124650     5.7938     10.640   124.9123 1.3153e+02     9.5359      0.706      1.024    24.3558 0.0000e+00
      0.740      0.062     5.5733     67.823     31.556  31.133742     5.7740     10.638   125.0011 1.2867e+02     9.7546      0.725      1.052    24.3473 0.0000e+00
      0.758      0.057     5.5949     68.126     31.456  31.035601     5.7465     10.635   124.9937 1.2684e+02     9.6303      0.746      1.083    24.3432 0.0000e+00
      0.772      0.052     5.6244     68.261     31.436  31.016415     5.7038     10.630   124.9956 1.2597e+02     9.7071      0.758      1.100    24.3391 0.0000e+00
      0.782      0.048     5.6462     68.136     31.512  31.092070     5.6907     10.625   125.0236 1.2492e+02     9.9664      0.766      1.111    24.3278 0.0000e+00
      0.792      0.044     5.6728     67.808     31.481  31.062261     5.6793     10.620   125.1604 1.2348e+02    10.0322      0.776      1.125    24.3230 0.0000e+00
      0.803      0.041     5.7054     67.369     31.391  30.973169     5.6570     10.615   125.3585 1.2194e+02     9.8878      0.787      1.143    24.3249 0.0000e+00
      0.813      0.039     5.7195     66.870     31.449  31.029804     5.6133     10.609   125.4397 1.2037e+02     9.7920      0.797      1.156    24.3268 0.0000e+00
      0.823      0.038     5.7059     66.360     31.533  31.112694     5.5425     10.601   125.3678 1.1892e+02     9.8637      0.807      1.170    24.3285 0.0000e+00
      0.833      0.035     5.6754     65.904     31.508  31.087309     5.5167     10.594   125.3505 1.1776e+02    10.0378      0.818      1.186    24.3283 0.0000e+00
      0.842      0.031     5.6371     65.503     31.461  31.040047     5.5088     10.587   125.4024 1.1696e+02    10.0525      0.827      1.200    24.3281 0.0000e+00
      0.850      0.029     5.5953     65.124     31.470  31.048726     5.4721     10.580   125.3938 1.1640e+02     9.8706      0.834      1.210    24.3283 0.0000e+00
      0.856      0.027     5.5489     64.758     31.488  31.065374     5.4396     10.573   125.7619 1.1596e+02     9.7178      0.840      1.218    24.3269 0.0000e+00
      0.861      0.026     5.5116     64.398     31.475  31.051037     5.4313     10.566   126.7555 1.1547e+02     9.6734      0.844      1.225    24.3257 0.0000e+00
      0.867      0.025     5.4800     64.061     31.490  31.065673     5.4470     10.561   127.8578 1.1458e+02     9.7437      0.849      1.231    24.3253 0.0000e+00
      0.874      0.024     5.4476     63.747     31.477  31.052028     5.4457     10.558   128.6783 1.1340e+02     9.7484      0.857      1.243    24.3244 0.0000e+00
      0.883      0.024     5.4184     63.444     31.373  30.949494     5.4746     10.556   129.2778 1.1227e+02     9.5592      0.866      1.256    24.3233 0.0000e+00
      0.889      0.023     5.3868     63.143     31.328  30.904323     5.5882     10.555   129.7707 1.1128e+02     9.4708      0.872      1.265    24.3215 0.0000e+00
      0.893      0.023     5.3591     62.856     31.375  30.949912     5.6790     10.553   130.2505 1.1032e+02     9.5680      0.877      1.271    24.3202 0.0000e+00
      0.898      0.023     5.3337     62.628     31.420  30.993237     5.7069     10.551   130.7767 1.0930e+02     9.6071      0.880      1.277    24.3191 0.0000e+00
      0.903      0.023     5.3080     62.452     31.475  31.047553     5.7006     10.548   131.4007 1.0799e+02     9.6026      0.885      1.284    24.3181 0.0000e+00
      0.909      0.025     5.2842     62.312     31.464  31.035736     5.6606     10.544   132.1164 1.0663e+02     9.6499      0.891      1.293    24.3176 0.0000e+00
      0.916      0.027     5.2564     62.221     31.405  30.977218     5.6485     10.539   132.8917 1.0563e+02     9.7345      0.898      1.303    24.3170 0.0000e+00
      0.922      0.028     5.2390     62.143     31.467  31.037778     5.6707     10.532   133.8056 1.0464e+02     9.8400      0.904      1.311    24.3158 0.0000e+00
      0.930      0.032     5.2258     62.084     31.500  31.070199     5.5382     10.521   134.6477 1.0345e+02    10.2425      0.911      1.322    24.3149 0.0000e+00
      0.940      0.037     5.2112     62.089     31.419  30.988613     5.2357     10.506   135.2445 1.0249e+02    10.9122      0.923      1.339    24.3139 0.0000e+00
      0.948      0.044     5.2070     62.105     31.435  31.002836     5.0435     10.486   135.9446 1.0165e+02    11.2762      0.930      1.349    24.3132 0.0000e+00
      0.956      0.053     5.2003     62.100     31.486  31.051866     5.0204     10.463   137.0048 1.0013e+02    11.4329      0.935      1.356    24.3129 0.0000e+00
      0.969      0.061     5.1920     62.182     31.446  31.010522     4.9811     10.441   138.5991 9.7544e+01    11.6100      0.948      1.375    24.3118 0.0000e+00
      0.989      0.068     5.1954     62.427     31.448  31.010413     4.8515     10.419   140.9385 9.4406e+01    11.6762      0.970      1.406    24.3098 0.0000e+00
      1.012      0.073     5.2004     62.833     31.491  31.050551     4.7516     10.397   143.3491 9.1273e+01    11.6870      0.992      1.439    24.3076 0.0000e+00
      1.034      0.074     5.1937     63.365     31.494  31.051782     4.7467     10.376   145.0311 8.8481e+01    11.6721      1.015      1.473    24.3051 0.0000e+00
      1.053      0.070     5.1988     63.893     31.533  31.088734     4.9427     10.358   146.1336 8.6056e+01    11.3936      1.034      1.499    24.3024 0.0000e+00
      1.071      0.060     5.2212     64.329     31.626  31.180164     5.3152     10.343   147.0424 8.3516e+01    10.8135      1.049      1.522    24.2992 0.0000e+00
      1.087      0.050     5.2543     64.753     31.653  31.205733     5.5054     10.327   148.0173 8.1168e+01    10.3967      1.067      1.549    24.2942 0.0000e+00
      1.100      0.044     5.3052     65.197     31.593  31.144152     5.4940     10.312   148.9730 7.9678e+01    10.3511      1.081      1.567    24.2906 0.0000e+00
      1.106      0.042     5.3536     65.508     31.523  31.069935     5.5190     10.295   149.4785 7.8849e+01    10.4667      1.086      1.575    24.2894 0.0000e+00
      1.109      0.044     5.3854     65.557     31.532  31.069578     5.7988     10.278   149.5688 7.8041e+01    10.4967      1.086      1.576    24.2888 0.0000e+00
      1.116      0.049     5.4181     65.360     31.677  31.203248     6.2728     10.263   149.8922 7.6514e+01    10.3378      1.090      1.582    24.2875 0.0000e+00
      1.132      0.055     5.4629     65.042     31.771  31.290559     6.5221     10.248   150.7214 7.4252e+01    10.1514      1.107      1.606    24.2859 0.0000e+00
      1.153      0.065     5.4941     64.766     31.723  31.237155     6.6078     10.233   151.5076 7.2368e+01    10.0870      1.133      1.642    24.2786 0.0000e+00
      1.172      0.076     5.4986     64.577     31.819  31.318750     7.4170     10.221   151.3097 7.1357e+01     9.4567      1.153      1.672    24.2598 0.0000e+00
      1.187      0.087     5.4808     64.531     32.044  31.515878     8.8815     10.220   149.7915 7.0223e+01     8.0652      1.164      1.688    24.2431 0.0000e+00
      1.206      0.094     5.4478     64.950     32.169  31.590655     9.6675     10.240   148.1216 6.8203e+01     7.1652      1.179      1.709    24.2387 0.0000e+00
      1.232      0.096     5.4235     65.971     32.377  31.715327     9.7614     10.277   147.4669 6.5564e+01     6.9768      1.207      1.751    24.2329 0.0000e+00
      1.265      0.093     5.4149     67.483     32.657  31.881294    10.1174     10.318   147.6403 6.2659e+01     6.5050      1.240      1.799    24.2109 0.0000e+00
      1.299      0.085     5.3980     69.672     32.877  31.947847    10.7756     10.355   147.9811 6.0154e+01     5.6283      1.276      1.851    24.1822 0.0000e+00
      1.324      0.071     5.4311     72.424     33.200  32.075740    11.1192     10.386   148.1455 5.8866e+01     5.0524      1.305      1.892    24.1172 0.0000e+00
      1.336      0.054     5.5487     75.066     33.560  32.222062    11.1083     10.412   148.1657 5.8494e+01     4.8716      1.313      1.905    23.9827 0.0000e+00
      1.341      0.034     5.6739     77.101     33.955  32.384542    11.0193     10.436   148.2257 5.8303e+01     4.8772      1.315      1.908    23.8322 0.0000e+00
      1.344      0.017     5.8835     78.363     34.391  32.580870    10.9082     10.458   148.4410 5.8068e+01     5.0522      1.318      1.912    23.6069 0.0000e+00
      1.348      0.005     6.1848     78.869     34.723  32.692364    10.8722     10.479   148.6178 5.7954e+01     5.2449      1.323      1.918    23.3022 0.0000e+00
      1.349     -0.001     6.4561     78.724     35.076  32.844180    10.8588     10.496   148.7278 5.8183e+01     5.2937      1.325      1.922    23.0145 0.0000e+00
      1.346     -0.003     6.6769     78.067     35.419  33.020527    10.8208     10.508   148.9116 5.8657e+01     5.1986      1.320      1.915    22.6877 0.0000e+00
      1.341     -0.004     6.8276     77.059     35.625  33.111480    10.7792     10.517   149.1182 5.9068e+01     5.1881      1.314      1.906    22.3518 0.0000e+00
      1.339     -0.004     6.9067     75.864     35.781  33.182459    10.7306     10.526   149.3333 5.9253e+01     5.3033      1.312      1.903    22.0628 0.0000e+00
      1.339     -0.003     6.9248     74.652     35.916  33.244210    10.7075     10.534   149.5332 5.9311e+01     5.3620      1.313      1.904    21.7983 0.0000e+00
      1.340     -0.002     6.8907     73.576     36.012  33.287037    10.6830     10.541   149.8143 5.9391e+01     5.2829      1.315      1.908    21.5844 0.0000e+00
      1.341      0.000     6.8139     72.666     36.080  33.319566    10.4671     10.546   150.2381 5.9435e+01     5.3705      1.316      1.909    21.4532 0.0000e+00
      1.340      0.000     6.7150     71.826     36.110  33.320267    10.1111     10.552   150.6991 5.9354e+01     5.8409      1.315      1.907    21.3634 0.0000e+00
      1.340     -0.000     6.6151     71.032     36.111  33.295477     9.9494     10.561   151.1722 5.9163e+01     6.1881      1.314      1.906    21.2650 0.0000e+00
      1.339     -0.000     6.5254     70.320     36.113  33.273570     9.9526     10.572   151.7418 5.8959e+01     6.2213      1.313      1.905    21.2019 0.0000e+00
      1.339      0.003     6.4552     69.730     36.104  33.245680     9.9083     10.588   152.4240 5.8759e+01     6.2080      1.313      1.904    21.1720 0.0000e+00
      1.339      0.009     6.3847     69.318     36.083  33.212003     9.8211     10.614   152.8823 5.8433e+01     6.1644      1.312      1.903    21.1316 0.0000e+00
      1.339      0.019     6.3167     69.091     36.061  33.183565     9.7901     10.654   152.8948 5.7840e+01     6.1720      1.312      1.903    21.0964 0.0000e+00
      1.342      0.030     6.2574     69.018     36.033  33.155603     9.8654     10.705   152.4037 5.6811e+01     6.2320      1.316      1.907    21.0621 0.0000e+00
      1.351      0.041     6.2051     69.075     36.001  33.127675    10.4155     10.759   150.9879 5.5334e+01     6.1035      1.324      1.921    21.0336 0.0000e+00
      1.365      0.051     6.1714     69.288     35.964  33.099657    11.3645     10.807   148.3380 5.3490e+01     5.7465      1.338      1.942    21.0133 0.0000e+00
      1.383      0.056     6.1535     69.800     35.924  33.070610    11.8600     10.846   144.5407 5.1406e+01     5.4331      1.356      1.966    21.0036 0.0000e+00
      1.403      0.059     6.1480     70.803     35.878  33.030250    11.9614     10.879   139.6634 4.9562e+01     5.3882      1.377      1.997    21.0009 0.0000e+00
      1.420      0.060     6.1531     72.307     35.856  32.992315    12.4905     10.910   134.7097 4.8277e+01     5.4096      1.394      2.022    21.0017 0.0000e+00
      1.432      0.062     6.1669     74.199     35.896  32.992566    13.3888     10.938   131.1924 4.7344e+01     5.2474      1.405      2.039    21.0117 0.0000e+00
      1.442      0.064     6.2010     76.444     35.999  33.033231    13.8581     10.958   128.7992 4.6294e+01     5.1018      1.414      2.050    21.0246 0.0000e+00
      1.457      0.067     6.2899     79.034     36.155  33.103278    13.9455     10.973   126.5950 4.4695e+01     5.0831      1.426      2.068    21.0382 0.0000e+00
      1.477      0.071     6.4331     81.808     36.375  33.204985    14.5946     10.985   124.8468 4.2802e+01     5.0894      1.449      2.101    21.0128 0.0000e+00
      1.500      0.075     6.6086     84.392     36.627  33.311201    15.7643     10.994   124.1817 4.1131e+01     5.0410      1.472      2.135    20.9575 0.0000e+00
      1.521      0.076     6.8180     86.487     36.841  33.372288    16.3685     11.000   124.2317 3.9680e+01     4.9081      1.492      2.163    20.8837 0.0000e+00
      1.541      0.071     7.0654     88.109     36.981  33.372432    16.3986     11.005   124.3320 3.8202e+01     4.8841      1.511      2.192    20.7891 0.0000e+00
      1.561      0.061     7.3490     89.515     37.030  33.312762    16.4112     11.009   124.3620 3.6715e+01     4.9556      1.531      2.222    20.6519 0.0000e+00
      1.579      0.049     7.6191     91.138     37.020  33.221676    16.5292     11.013   124.2511 3.5638e+01     4.9863      1.551      2.249    20.4734 0.0000e+00
      1.590      0.038     7.8341     93.412     37.025  33.159191    16.7433     11.017   124.1953 3.5195e+01     4.9814      1.562      2.266    20.2860 0.0000e+00
      1.595      0.029     8.0026     96.524     37.048  33.128148    16.8360     11.021   124.2896 3.5094e+01     4.8971      1.565      2.270    20.1007 0.0000e+00
      1.596      0.024     8.1368    100.344     37.064  33.100043    16.7679     11.025   124.3586 3.4895e+01     4.8889      1.565      2.270    19.9669 0.0000e+00
      1.598      0.023     8.2854    104.497     37.078  33.073080    16.2935     11.029   124.3410 3.4360e+01     5.0197      1.565      2.270    19.8612 0.0000e+00
      1.603      0.025     8.5037    108.556     37.099  33.055851    15.4530     11.033   124.2499 3.3546e+01     5.1114      1.571      2.278    19.7635 0.0000e+00
      1.612      0.030     8.8024    112.210     37.092  33.018567    14.9958     11.037   124.2889 3.2656e+01     5.0753      1.580      2.292    19.7029 0.0000e+00
      1.623      0.035     9.1758    115.311     36.973  32.876011    14.9764     11.039   124.6411 3.1867e+01     4.9594      1.592      2.307    19.6473 0.0000e+00
      1.633      0.045     9.5821    118.109     36.803  32.664429    15.4776     11.038   125.3243 3.1289e+01     5.0084      1.602      2.323    19.5928 0.0000e+00
      1.642      0.057     9.9724    121.210     36.713  32.490374    16.4618     11.033   126.2689 3.0955e+01     5.2224      1.610      2.336    19.5443 0.0000e+00
      1.651      0.072    10.3223    124.699     36.689  32.357399    17.0053     11.025   127.2862 3.0542e+01     5.2585      1.617      2.345    19.5043 0.0000e+00
      1.666      0.085    10.6111    127.921     36.700  32.261839    17.2046     11.017   128.1600 2.9454e+01     5.1378      1.628      2.361    19.4688 0.0000e+00
      1.696      0.095    10.8531    130.404     36.757  32.222974    19.1371     11.007   128.9185 2.7829e+01     5.1638      1.661      2.409    19.3907 0.0000e+00
      1.732      0.099    11.1624    132.343     36.833  32.204573    22.6926     10.998   129.5739 2.6434e+01     5.3673      1.703      2.468    19.2563 0.0000e+00
      1.766      0.095    11.5590    134.310     36.888  32.166124    24.6462     10.990   130.1478 2.5558e+01     5.5494      1.734      2.515    19.0857 0.0000e+00
      1.791      0.083    11.9083    136.413     36.953  32.138611    24.8135     10.981   130.9531 2.5046e+01     5.5207      1.758      2.550    18.9388 0.0000e+00
      1.810      0.065    12.1599    138.165     37.021  32.125559    24.7650     10.971   131.8254 2.4766e+01     5.3627      1.777      2.577    18.8283 0.0000e+00
      1.823      0.046    12.3401    139.508     37.095  32.135090    24.3922     10.960   132.6070 2.4678e+01     5.3126      1.789      2.594    18.7152 0.0000e+00
      1.828      0.033    12.5459    140.913     37.205  32.190348    23.7441     10.949   133.5200 2.4734e+01     5.3927      1.794      2.602    18.5960 0.0000e+00
      1.829      0.026    12.8058    142.299     37.264  32.222672    23.4126     10.937   134.4323 2.4816e+01     5.5109      1.794      2.603    18.4758 0.0000e+00
      1.831      0.026    13.0001    142.993     37.243  32.208701    23.3549     10.923   135.2067 2.4791e+01     5.5468      1.794      2.602    18.3750 0.0000e+00
      1.837      0.033    13.1137    142.802     37.237  32.211743    22.9968     10.907   135.8271 2.4583e+01     5.3820      1.799      2.609    18.3042 0.0000e+00
      1.846      0.044    13.2631    141.844     37.307  32.259463    22.4039     10.890   136.1685 2.4254e+01     5.2271      1.811      2.625    18.2474 0.0000e+00
      1.857      0.056    13.4410    139.799     37.445  32.341602    22.1200     10.873   136.2377 2.3758e+01     5.2794      1.819      2.638    18.2167 0.0000e+00
      1.872      0.065    13.5055    136.567     37.624  32.443556    22.1449     10.858   136.2332 2.2918e+01     5.3305      1.832      2.657    18.2326 0.0000e+00
      1.896      0.069    13.4590    132.663     37.810  32.540517    22.5723     10.844   136.3728 2.1993e+01     5.2991      1.860      2.699    18.2637 0.0000e+00
      1.921      0.067    13.3993    128.554     37.984  32.625701    23.3752     10.831   136.6343 2.1294e+01     5.3090      1.887      2.736    18.2431 0.0000e+00
      1.941      0.059    13.2311    124.444     38.152  32.712151    23.8380     10.819   136.8140 2.0742e+01     5.4158      1.904      2.762    18.1840 0.0000e+00
      1.956      0.047    12.9129    120.446     38.265  32.760975    23.9227     10.807   136.8250 2.0385e+01     5.5661      1.921      2.786    18.1210 0.0000e+00
      1.964      0.035    12.5561    116.801     38.316  32.771877    24.0083     10.797   136.6817 2.0263e+01     5.6914      1.929      2.797    18.0258 0.0000e+00
      1.967      0.025    12.1827    113.924     38.354  32.780478    24.0991     10.788   136.5434 2.0163e+01     5.7363      1.928      2.797    17.9387 0.0000e+00
      1.968      0.018    11.8099    112.024     38.407  32.801505    24.1213     10.780   136.6164 2.0018e+01     5.6644      1.930      2.798    17.8658 0.0000e+00
      1.971      0.015    11.4405    110.828     38.471  32.835754    24.1264     10.771   136.8752 1.9871e+01     5.6417      1.933      2.804    17.7924 0.0000e+00
      1.976      0.017    11.0844    109.928     38.456  32.813908    24.1695     10.761   137.4357 1.9741e+01     5.6666      1.938      2.811    17.7593 0.0000e+00
      1.981      0.027    10.8052    109.155     38.427  32.791126    24.1933     10.748   138.4032 1.9712e+01     5.5899      1.944      2.819    17.7322 0.0000e+00
      1.985      0.043    10.6462    108.388     38.533  32.877502    24.1646     10.733   139.3673 1.9707e+01     5.5344      1.946      2.823    17.6952 0.0000e+00
      1.990      0.062    10.5577    107.444     38.751  33.033529    24.1302     10.716   140.0580 1.9452e+01     5.5757      1.946      2.823    17.6665 0.0000e+00
      2.005      0.082    10.4754    106.176     39.036  33.218449    24.0520     10.696   140.5592 1.8786e+01     5.7483      1.960      2.843    17.6510 0.0000e+00
      2.034      0.099    10.4025    104.552     39.344  33.400347    23.9097     10.676   141.2976 1.7828e+01     5.9478      1.993      2.890    17.6662 0.0000e+00
      2.071      0.111    10.3360    102.738     39.513  33.456338    23.8085     10.657   142.6192 1.6813e+01     5.9041      2.031      2.947    17.6712 0.0000e+00
      2.107      0.113    10.2590    101.021     39.456  33.324342    23.7600     10.641   144.3208 1.5868e+01     5.8341      2.067      2.999    17.6320 0.0000e+00
      2.140      0.105    10.1561     99.548     39.326  33.136587    23.7226     10.626   146.2985 1.5054e+01     5.8521      2.101      3.047    17.5572 0.0000e+00
      2.167      0.089    10.0188     98.333     39.276  33.025941    23.5650     10.612   148.1188 1.4433e+01     5.7812      2.128      3.087    17.4440 0.0000e+00
      2.187      0.070     9.8552     97.406     39.308  33.001513    23.2859     10.602   149.1218 1.4002e+01     5.6947      2.146      3.114    17.3287 0.0000e+00
      2.200      0.051     9.7071     96.710     39.378  33.031496    23.1193     10.594   149.3915 1.3729e+01     5.5909      2.160      3.133    17.2238 0.0000e+00
      2.208      0.035     9.5889     96.022     39.437  33.071216    23.0739     10.586   149.2287 1.3574e+01     5.5172      2.166      3.142    17.1200 0.0000e+00
      2.212      0.023     9.4851     95.031     39.472  33.101101    23.0454     10.578   148.6166 1.3469e+01     5.5550      2.169      3.146    17.0339 0.0000e+00
      2.216      0.014     9.4110     93.386     39.503  33.139071    23.0160     10.570   147.8401 1.3395e+01     5.6037      2.173      3.153    16.9614 0.0000e+00
      2.219      0.012     9.3596     90.916     39.497  33.149671    22.9933     10.562   147.4983 1.3360e+01     5.5930      2.176      3.157    16.9265 0.0000e+00
      2.219      0.017     9.3034     87.836     39.426  33.102403    22.9451     10.552   147.7543 1.3333e+01     5.5280      2.176      3.157    16.9234 0.0000e+00
      2.219      0.030     9.2215     84.504     39.382  33.075105    22.4997     10.537   148.0958 1.3288e+01     5.7065      2.175      3.155    16.9191 0.0000e+00
      2.220      0.050     9.0693     81.252     39.539  33.200277    21.7112     10.521   148.2721 1.3152e+01     6.2143      2.175      3.154    16.9372 0.0000e+00
      2.230      0.072     8.8125     78.381     40.154  33.664205    21.2610     10.506   149.1980 1.2780e+01     6.4755      2.179      3.162    16.9663 0.0000e+00
      2.256      0.092     8.5001     76.017     41.267  34.497051    21.0845     10.491   150.7715 1.2170e+01     6.4391      2.206      3.200    16.9733 0.0000e+00
      2.294      0.109     8.1666     74.292     42.419  35.339327    19.8605     10.475   151.5520 1.1537e+01     6.8666      2.251      3.264    16.9923 0.0000e+00
      2.331      0.119     7.8347     73.355     43.246  35.917011    17.6389     10.459   151.4943 1.1063e+01     7.7849      2.290      3.320    17.0041 0.0000e+00
      2.361      0.119     7.5684     73.156     43.881  36.342206    16.4463     10.445   151.4508 1.0679e+01     8.3541      2.315      3.358    16.9389 0.0000e+00
      2.390      0.109     7.3557     73.419     44.087  36.419274    16.3019     10.432   152.0582 1.0256e+01     8.3513      2.342      3.398    16.8042 0.0000e+00
      2.420      0.092     7.2037     73.681     43.693  36.023813    15.7274     10.418   153.4176 9.8624e+00     7.8197      2.376      3.445    16.6441 0.0000e+00
      2.447      0.073     7.1347     73.256     43.253  35.621566    14.7189     10.404   154.7234 9.5965e+00     7.0164      2.404      3.486    16.5166 0.0000e+00
      2.465      0.055     7.1400     71.238     42.969  35.362796    14.1950     10.392   155.3702 9.4908e+00     6.6660      2.420      3.512    16.4098 0.0000e+00
      2.472      0.039     7.2011     66.892     42.925  35.306101    14.1793     10.381   155.5592 9.5226e+00     6.7253      2.426      3.519    16.2887 0.0000e+00
      2.473      0.029     7.2594     60.004     43.343  35.633989    14.1629     10.370   155.5471 9.5876e+00     6.7093      2.425      3.517    16.2020 0.0000e+00
      2.473      0.026     7.2609     51.015     43.920  36.091281    13.8296     10.359   155.3091 9.6145e+00     6.4719      2.425      3.517    16.1708 0.0000e+00
      2.476      0.031     7.0914     40.715     44.706  36.710866    13.2294     10.349   155.0050 9.5865e+00     6.1775      2.428      3.520    16.1457 0.0000e+00
      2.484      0.042     6.6789     30.095     46.695  38.302846    12.9067     10.339   154.9680 9.4905e+00     6.1213      2.434      3.530    16.1168 0.0000e+00
      2.497      0.055     5.9831     20.376     50.994  41.759686    12.7663     10.329   155.1199 9.3026e+00     6.2367      2.446      3.549    16.1051 0.0000e+00
      2.516      0.068     5.0682     12.399     57.939  47.344705    11.3243     10.320   155.1204 9.0366e+00     6.0013      2.466      3.577    16.0885 0.0000e+00
      2.537      0.078     4.0319      6.520     66.111  53.903067     8.6626     10.310   154.9748 8.7420e+00     5.3934      2.487      3.608    16.0591 0.0000e+00
      2.558      0.082     2.9302      2.734     73.239  59.590779     7.2099     10.299   154.9078 8.4088e+00     5.0698      2.507      3.638    16.0217 0.0000e+00
      2.583      0.080     1.9501      0.723     78.536  63.778449     7.0603     10.289   155.1703 8.0405e+00     5.1626      2.531      3.672    15.9578 0.0000e+00
      2.608      0.072     1.1537      0.071     81.369  65.972368     6.8363     10.279   155.9979 7.7320e+00     5.2175      2.560      3.712    15.8630 0.0000e+00
      2.628      0.062     0.5696      0.192     81.075  65.657259     6.4499     10.267   157.1703 7.5244e+00     5.0508      2.581      3.742    15.7682 0.0000e+00
      2.642      0.051     0.2133      0.565     80.309  64.988579     6.2427     10.254   158.0750 7.3910e+00     4.8887      2.592      3.760    15.6826 0.0000e+00
      2.650      0.040     0.0208      0.927     81.467  65.893989     6.2200     10.243   158.4187 7.3352e+00     4.7951      2.601      3.772    15.5991 0.0000e+00
      2.655      0.031    -0.0183      1.133     82.954  67.072743     6.2333     10.232   158.4863 7.3034e+00     4.7730      2.604      3.776    15.5290 0.0000e+00
      2.659      0.026     0.0140      1.148     83.409  67.421261     6.2870     10.221   158.5489 7.2365e+00     4.8264      2.607      3.780    15.4804 0.0000e+00
      2.666      0.026     0.0560      1.028     83.605  67.565948     6.3372     10.210   158.5732 7.1600e+00     4.8260      2.614      3.792    15.4539 0.0000e+00
      2.673      0.031     0.0999      0.878     84.705  68.440811     6.3487     10.195   158.4358 7.0818e+00     4.8364      2.622      3.804    15.4373 0.0000e+00
      2.679      0.046     0.1195      0.797     86.588  69.927731     6.0682     10.161   157.6619 6.9989e+00     4.9180      2.627      3.811    15.4232 0.0000e+00
      2.686      0.071     0.1205      0.868     88.698  71.561851     5.5008     10.089   154.9800 6.9072e+00     4.9586      2.633      3.819    15.4113 0.0000e+00
      2.697      0.100     0.1032      1.088     91.259  73.516086     5.1644      9.989   149.9281 6.7332e+00     4.8829      2.641      3.831    15.4030 0.0000e+00
      2.722      0.126     0.0854      1.319     94.093  75.630191     5.1139      9.884   143.0414 6.3752e+00     4.8566      2.660      3.858    15.4006 0.0000e+00
      2.767      0.143     0.0743      1.512     96.670  77.479144     4.9078      9.793   133.8336 5.8580e+00     4.8121      2.707      3.926    15.3842 0.0000e+00
      2.826      0.148     0.0788      1.700     98.331  78.577896     4.4112      9.722   122.8296 5.3814e+00     4.5836      2.775      4.024    15.3437 0.0000e+00
      2.880      0.141     0.1110      1.870     99.097  78.996062     4.0035      9.667   111.6925 5.0904e+00     4.3489      2.832      4.107    15.2874 0.0000e+00
      2.915      0.123     0.1344      1.968     99.319  79.037692     3.8815      9.619   100.9593 4.9674e+00     4.2626      2.865      4.155    15.1986 0.0000e+00
      2.935      0.096     0.1516      1.964     98.761  78.508786     3.8524      9.575    90.5379 4.9131e+00     4.2915      2.880      4.177    15.0745 0.0000e+00
      2.948      0.068     0.1719      1.919     97.442  77.433505     3.8096      9.536    79.8162 4.8420e+00     4.4588      2.891      4.193    14.9440 0.0000e+00
      2.961      0.044     0.1915      1.895     95.212  75.701198     3.7715      9.499    68.4623 4.7738e+00     4.7483      2.903      4.211    14.8424 0.0000e+00
      2.971      0.028     0.2044      1.885     92.505  73.648785     3.7742      9.464    57.2798 4.7546e+00     4.9223      2.915      4.228    14.7804 0.0000e+00
      2.977      0.018     0.2007      1.874     90.746  72.389463     3.8089      9.433    47.2550 4.7748e+00     4.9921      2.921      4.236    14.7326 0.0000e+00
      2.977      0.010     0.1925      1.861     89.816  71.790611     3.8417      9.407    38.5402 4.8091e+00     4.7719      2.920      4.235    14.7161 0.0000e+00
      2.976      0.005     0.1920      1.861     88.911  71.175642     3.8546      9.383    31.0657 4.8390e+00     4.1733      2.918      4.232    14.7405 0.0000e+00
      2.974      0.003     0.1909      1.892     88.197  70.674742     3.8405      9.360    24.8525 4.8556e+00     3.7667      2.916      4.230    14.7956 0.0000e+00
      2.974      0.006     0.1895      1.949     87.358  70.056588     3.8367      9.340    19.2575 4.8574e+00     3.7842      2.916      4.230    14.8828 0.0000e+00
      2.975      0.014     0.1880      2.060     86.731  69.612591     3.8837      9.322    13.4056 4.8170e+00     3.9399      2.917      4.231    14.9699 0.0000e+00
      2.978      0.027     0.1854      2.274     87.484  70.263993     3.9520      9.303     7.1831 4.7195e+00     4.0104      2.919      4.233    15.0324 0.0000e+00
      2.985      0.048     0.1906      2.609     89.749  72.085288     3.9879      9.279     1.5827 4.5874e+00     3.9530      2.925      4.242    15.0664 0.0000e+00
      2.995      0.074     0.1942      3.053     93.281  74.852922     3.9848      9.252    -3.2017 4.4223e+00     3.8954      2.936      4.258    15.0902 0.0000e+00
      3.011      0.099     0.2031      3.538     96.430  77.217974     3.8140      9.225    -8.2462 4.1765e+00     3.9286      2.949      4.276    15.1287 0.0000e+00
      3.040      0.118     0.2243      4.026     97.589  77.920716     3.4880      9.204   -13.9812 3.8125e+00     3.9106      2.975      4.314    15.1657 0.0000e+00
      3.085      0.128     0.2570      4.505     97.957  78.008985     3.3143      9.186   -20.0595 3.4086e+00     3.8477      3.023      4.385    15.1678 0.0000e+00
      3.135      0.130     0.3064      4.927     98.473  78.284979     3.3115      9.170   -25.8127 3.1016e+00     3.8865      3.078      4.466    15.1393 0.0000e+00
      3.174      0.127     0.3565      5.202     98.704  78.396286     3.2880      9.158   -30.8002 2.9473e+00     3.9696      3.119      4.525    15.0524 0.0000e+00
      3.197      0.118     0.4065      5.246     98.546  78.210196     3.2045      9.150   -35.0204 2.8768e+00     3.8956      3.138      4.552    14.9115 0.0000e+00
      3.214      0.104     0.4576      5.039     98.367  77.942438     3.1429      9.142   -38.9818 2.7770e+00     3.7428      3.148      4.565    14.8001 0.0000e+00
      3.238      0.087     0.5045      4.602     98.528  77.892812     3.1346      9.135   -42.9910 2.6314e+00     3.6939      3.171      4.599    14.7350 0.0000e+00
      3.268      0.071     0.5369      3.994     98.814  77.991465     3.1452      9.130   -46.5848 2.5094e+00     3.6799      3.208      4.653    14.7031 0.0000e+00
      3.293      0.057     0.5409      3.293     98.865  77.990589     3.1550      9.124   -49.9115 2.4568e+00     3.6758      3.235      4.692    14.6959 0.0000e+00
      3.305      0.043     0.5209      2.594     98.702  77.882176     3.1525      9.118   -53.1850 2.4564e+00     3.6789      3.244      4.704    14.6307 0.0000e+00
      3.307      0.027     0.4747      1.974     98.407  77.698015     3.1652      9.112   -56.0520 2.4703e+00     3.6493      3.244      4.705    14.5097 0.0000e+00
      3.305      0.013     0.4111      1.460     97.968  77.417129     3.1673      9.107   -58.5919 2.4772e+00     3.5908      3.241      4.700    14.4429 0.0000e+00
      3.304      0.005     0.3360      1.090     97.514  77.156545     3.1780      9.102   -61.0081 2.4729e+00     3.5173      3.239      4.698    14.4294 0.0000e+00
      3.305      0.003     0.2607      0.863     97.128  76.963545     3.2448      9.096   -63.2408 2.4704e+00     3.4793      3.241      4.701    14.4445 0.0000e+00
      3.307      0.003     0.1985      0.732     96.739  76.736821     3.2924      9.090   -65.2812 2.4686e+00     3.4724      3.243      4.704    14.4746 0.0000e+00
      3.309      0.007     0.1430      0.688     96.239  76.386325     3.3040      9.085   -67.1798 2.4523e+00     3.5016      3.244      4.706    14.4995 0.0000e+00
      3.309      0.013     0.1050      0.718     95.583  75.904730     3.3685      9.081   -68.9883 2.4293e+00     3.5936      3.245      4.706    14.5531 0.0000e+00
      3.310      0.023     0.0853      0.779     95.093  75.555120     3.4805      9.078   -70.8864 2.4075e+00     3.6622      3.244      4.705    14.6253 0.0000e+00
      3.313      0.037     0.0710      0.882     95.107  75.592421     3.5433      9.075   -72.6643 2.3693e+00     3.6487      3.248      4.711    14.6666 0.0000e+00
      3.323      0.056     0.0663      1.036     95.443  75.847166     3.5370      9.071   -74.0503 2.2987e+00     3.5667      3.255      4.722    14.6809 0.0000e+00
      3.338      0.076     0.0727      1.186     95.834  76.092131     3.5546      9.067   -75.5992 2.2029e+00     3.6955      3.270      4.744    14.7029 0.0000e+00
      3.361      0.092     0.0779      1.336     96.179  76.265413     3.6311      9.062   -77.7979 2.0879e+00     4.0782      3.293      4.776    14.7243 0.0000e+00
      3.391      0.101     0.0859      1.515     96.286  76.225568     3.6874      9.057   -80.2437 1.9524e+00     4.3003      3.323      4.820    14.7438 0.0000e+00
      3.427      0.103     0.1065      1.691     96.094  75.928114     3.7691      9.052   -82.2844 1.8223e+00     4.4347      3.363      4.877    14.7445 0.0000e+00
      3.460      0.096     0.1210      1.840     95.850  75.593321     4.4614      9.046   -83.8867 1.7283e+00     5.4297      3.397      4.927    14.6995 0.0000e+00
      3.484      0.081     0.1331      1.939     95.855  75.483439     5.6909      9.041   -85.3352 1.6597e+00     7.1066      3.419      4.958    14.6492 0.0000e+00
      3.501      0.062     0.1551      1.959     96.000  75.553056     6.3332      9.035   -86.7195 1.6125e+00     7.8697      3.435      4.982    14.5849 0.0000e+00
      3.514      0.043     0.1733      1.903     95.936  75.544946     6.3257      9.030   -87.9775 1.5939e+00     7.8247      3.449      5.003    14.5021 0.0000e+00
      3.521      0.027     0.1893      1.780     95.617  75.385425     5.7591      9.025   -88.9301 1.5848e+00     7.6214      3.455      5.011    14.4261 0.0000e+00
      3.522      0.015     0.2020      1.605     95.273  75.213810     4.7084      9.021   -89.6330 1.5687e+00     7.2568      3.454      5.009    14.3569 0.0000e+00
      3.522      0.008     0.2028      1.395     95.038  75.123042     4.1349      9.016   -90.1960 1.5545e+00     7.0706      3.453      5.008    14.3276 0.0000e+00
      3.522      0.004     0.1970      1.181     94.843  75.050967     4.0767      9.011   -90.8324 1.5530e+00     7.0443      3.453      5.008    14.3605 0.0000e+00
      3.523      0.004     0.1836      1.035     94.599  74.914634     4.0288      9.006   -91.8204 1.5469e+00     6.8022      3.455      5.010    14.4179 0.0000e+00
      3.523      0.006     0.1645      0.993     94.356  74.746198     3.9560      9.002   -93.1941 1.5360e+00     6.3969      3.455      5.011    14.4697 0.0000e+00
      3.524      0.010     0.1434      1.028     94.168  74.603794     3.9282      8.997   -94.9667 1.5209e+00     6.2098      3.455      5.010    14.5207 0.0000e+00
      3.526      0.015     0.1171      1.105     93.982  74.464314     3.9924      8.993   -96.9914 1.4896e+00     6.2815      3.457      5.014    14.5671 0.0000e+00
      3.531      0.021     0.1009      1.216     93.646  74.204083     4.3910      8.991   -99.1760 1.4645e+00     7.1279      3.463      5.022    14.5994 0.0000e+00
      3.537      0.030     0.0982      1.334     93.098  73.745957     8.6061      8.988  -101.4193 1.4537e+00    16.4084      3.469      5.030    14.6093 0.0000e+00
      3.543      0.039     0.1034      1.424     92.414  73.120821    16.3547      8.984  -103.3799 1.4392e+00    33.4350      3.475      5.039    14.6066 0.0000e+00
      3.553      0.047     0.1110      1.518     91.482  72.239611    20.5327      8.982  -104.8131 1.4097e+00    42.6080      3.482      5.049    14.6122 0.0000e+00
      3.569      0.052     0.1225      1.616     91.602  72.117536    20.4357      8.980  -106.0136 1.3680e+00    42.6709      3.498      5.073    14.6210 0.0000e+00
      3.588      0.056     0.1383      1.691    105.562  82.704679    15.3313      8.977  -107.3118 1.3237e+00    34.8103      3.520      5.105    14.6173 0.0000e+00
      3.604      0.058     0.1440      1.752    154.949 120.654851     5.9170      8.975  -108.5505 1.2870e+00    20.1889      3.536      5.129    14.5693 0.0000e+00
      3.617      0.056     0.1540      1.781    221.162 171.216601     0.7843      8.974  -109.7198 1.2648e+00    12.1220      3.545      5.143    14.4878 0.0000e+00
      3.631      0.051     0.1673      1.758    258.893 199.265215     0.3148      8.973  -110.8670 1.2457e+00    11.1261      3.557      5.161    14.3866 0.0000e+00
      3.646      0.044     0.1726      1.696    269.169 206.122367     0.1903      8.972  -112.0102 1.2206e+00     8.2505      3.577      5.189    14.2240 0.0000e+00
      3.659      0.037     0.1819      1.592    271.458 207.235015     0.0444      8.969  -113.2173 1.2059e+00     3.1437      3.591      5.208    14.0206 0.0000e+00
      3.666      0.031     0.1871      1.443    276.553 210.795565    -0.0264      8.967  -114.4497 1.2055e+00     0.4139      3.596      5.216    13.7637 0.0000e+00
      3.671      0.026     0.1839      1.261    293.907 223.810880    -0.0252      8.965  -115.7261 1.2023e+00     0.1814      3.601      5.222    13.4695 0.0000e+00
      3.675      0.023     0.1796      1.091    311.906 237.374820    -0.0157      8.964  -117.0345 1.1997e+00     0.1617      3.604      5.228    13.2543 0.0000e+00
      3.677      0.024     0.1683      0.954    316.492 240.809490    -0.0022      8.961  -118.3953 1.2075e+00     0.2105      3.606      5.230    13.1451 0.0000e+00
      3.681      0.027     0.1534      0.824    308.026 234.326622     0.0208      8.957  -119.8759 1.2195e+00     0.3265      3.609      5.235    13.1045 0.0000e+00
      3.690      0.029     0.1323      0.735    298.289 226.844030     0.0377      8.953  -121.2561 1.2213e+00     0.4039      3.617      5.247    13.0723 0.0000e+00
      3.702      0.030     0.1121      0.711    303.162 230.485986     0.0439      8.949  -122.3490 1.2113e+00     0.3604      3.631      5.266    13.0409 0.0000e+00
      3.713      0.030     0.1019      0.705    312.210 237.346145     0.0454      8.945  -123.3670 1.2032e+00     0.2446      3.642      5.283    13.0410 0.0000e+00
      3.720      0.028     0.0850      0.725    305.089 231.941175     0.0398      8.943  -124.3587 1.2030e+00     0.1646      3.649      5.292    13.0377 0.0000e+00
      3.725      0.023     0.0731      0.786    291.702 221.780688     0.0258      8.941  -125.1336 1.2095e+00     0.0766      3.654      5.299    13.0187 0.0000e+00
      3.730      0.017     0.0762      0.849    285.133 216.804361     0.0013      8.936  -125.7676 1.2183e+00    -0.0674      3.659      5.306    13.0075 0.0000e+00
      3.734      0.012     0.0732      0.909    282.715 214.995848    -0.0063      8.932  -126.4320 1.2211e+00    -0.0740      3.663      5.313    13.0063 0.0000e+00
      3.738      0.008     0.0735      0.974    281.588 214.190093     0.0002      8.928  -126.9723 1.2135e+00    -0.0031      3.666      5.317    13.0086 0.0000e+00
      3.739      0.004     0.0838      1.027    280.553 213.463327    -0.0117      8.925  -127.1374 1.2106e+00    -0.0648      3.667      5.319    13.0123 0.0000e+00
      3.738      0.001     0.0896      1.055    278.520 211.969430    -0.0262      8.921  -126.9651 1.2276e+00    -0.1359      3.666      5.318    13.0146 0.0000e+00
      3.738     -0.001     0.0949      1.072    277.910 211.552399    -0.0328      8.917  -126.6101 1.2543e+00    -0.1802      3.666      5.317    13.0183 0.0000e+00
      3.737     -0.002     0.1029      1.080    286.586 218.213344    -0.0334      8.914  -126.3726 1.2822e+00    -0.2246      3.665      5.316    13.0287 0.0000e+00
      3.736     -0.002     0.1094      1.068    305.012 232.315035    -0.0174      8.910  -126.5022 1.3042e+00    -0.1943      3.664      5.314    13.0413 0.0000e+00
      3.736     -0.001     0.1111      1.029    320.957 244.539766     0.0111      8.906  -126.8876 1.3154e+00    -0.1210      3.664      5.314    13.0501 0.0000e+00
      3.736     -0.001     0.1129      0.974    327.998 249.984635     0.0363      8.903  -127.5044 1.3315e+00    -0.0210      3.664      5.314    13.0574 0.0000e+00
      3.736     -0.001     0.1144      0.950    330.367 251.865361     0.0467      8.900  -128.3674 1.3450e+00     0.0921      3.663      5.312    13.0668 0.0000e+00
      3.736     -0.001     0.1128      0.965    331.561 252.851597     0.0286      8.897  -129.2343 1.3335e+00     0.1196      3.663      5.313    13.0789 0.0000e+00
      3.736     -0.001     0.1099      0.973    332.311 253.508282    -0.0082      8.894  -129.9841 1.3069e+00     0.0376      3.663      5.313    13.0921 0.0000e+00
      3.735     -0.001     0.1003      0.968    332.802 253.969365    -0.0326      8.891  -130.6362 1.2841e+00    -0.0458      3.663      5.312    13.1050 0.0000e+00
      3.735     -0.001     0.0975      0.965    333.162 254.322046    -0.0327      8.887  -131.1822 1.2721e+00    -0.0684      3.662      5.312    13.1160 0.0000e+00
      3.735     -0.001     0.1027      0.965    333.477 254.629991    -0.0182      8.883  -131.7671 1.2670e+00    -0.0652      3.662      5.312    13.1265 0.0000e+00
      3.735     -0.001     0.1027      0.978    333.799 254.934926    -0.0155      8.879  -132.4601 1.2600e+00    -0.0755      3.662      5.311    13.1398 0.0000e+00
      3.735     -0.001     0.1010      1.003    334.150 255.251153    -0.0075      8.876  -133.1086 1.2491e+00    -0.0904      3.662      5.312    13.1538 0.0000e+00
      3.734     -0.000     0.1016      1.005    334.518 255.567300     0.0283      8.873  -133.4986 1.2408e+00    -0.0068      3.662      5.311    13.1652 0.0000e+00
      3.734 -1.863e-08     0.1008      0.990    334.887 255.871210     0.0513      8.871  -133.7350 1.2319e+00     0.1512      3.661      5.310    13.1751 0.0000e+00
      3.734 -2.049e-07     0.1010      0.985    335.256 256.167708     0.0370      8.869  -134.1597 1.2166e+00     0.2140      3.662      5.311    13.1843 0.0000e+00
      3.734 -2.049e-07     0.1070      0.982    335.610 256.458320     0.0138      8.864  -134.6755 1.2058e+00     0.1369      3.662      5.311    13.1917 0.0000e+00
      3.734 -1.863e-08     0.1061      0.963    335.954 256.755185     0.0048      8.861  -135.1532 1.1936e+00     0.0046      3.662      5.311    13.1969 0.0000e+00
      3.734 -1.693e-09     0.1030      0.943    336.290 257.063116     0.0103      8.858  -135.7202 1.1686e+00    -0.0529      3.661      5.310    13.1999 0.0000e+00
      3.734 -1.539e-10     0.1028      0.940    336.589 257.359212     0.0300      8.854  -136.2819 1.1511e+00    -0.0115      3.661      5.310    13.2013 0.0000e+00
      3.734 -1.400e-11     0.1041      0.929    336.862 257.641259     0.0433      8.851  -136.7834 1.1422e+00     0.0944      3.662      5.311    13.2038 0.0000e+00
      3.733 -1.272e-12     0.1010      0.905    337.114 257.907576     0.0385      8.848  -137.2234 1.1232e+00     0.2031      3.661      5.310    13.2087 0.0000e+00
      3.733 -1.157e-13     0.0971      0.881    337.314 258.141750     0.0225      8.845  -137.6439 1.1048e+00     0.1761      3.661      5.310    13.2161 0.0000e+00
      3.733 -1.052e-14     0.0996      0.880    337.474 258.355868     0.0077      8.842  -138.1681 1.1040e+00     0.1096      3.661      5.310    13.2271 0.0000e+00
      3.733 -9.560e-16     0.0978      0.920    337.630 258.572128     0.0007      8.839  -138.6575 1.1047e+00     0.1506      3.661      5.309    13.2385 0.0000e+00
      3.733 -8.676e-17     0.0944      0.958    337.754 258.768030    -0.0127      8.835  -139.1731 1.0992e+00     0.1251      3.661      5.310    13.2487 0.0000e+00
      3.733 -6.333e-18     0.0920      0.946    337.828 258.928441    -0.0211      8.832  -139.7554 1.0985e+00     0.0060      3.661      5.310    13.2606 0.0000e+00
      3.733 1.6517e-17     0.0893      0.929    337.918 259.100463    -0.0247      8.828  -140.1909 1.1034e+00    -0.0263      3.661      5.309    13.2745 0.0000e+00
      3.733 1.8952e-16     0.0959      0.939    338.057 259.308434    -0.0156      8.825  -140.5669 1.1083e+00     0.0424      3.661      5.309    13.2889 0.0000e+00
      3.733 2.0854e-15     0.1039      0.939    338.196 259.518595     0.0140      8.823  -141.0331 1.1090e+00     0.1192      3.661      5.309    13.3038 0.0000e+00
      3.733 2.2940e-14     0.0987      0.906    338.316 259.717074     0.0179      8.821  -141.5255 1.1185e+00     0.0829      3.661      5.310    13.3194 0.0000e+00
      3.733 2.5234e-13     0.0950      0.865    338.435 259.912084    -0.0019      8.818  -141.9596 1.1266e+00     0.0126      3.661      5.310    13.3347 0.0000e+00
      3.733 2.7757e-12     0.0991      0.848    338.527 260.080277    -0.0172      8.815  -142.3244 1.1299e+00    -0.0133      3.660      5.308    13.3494 0.0000e+00
      3.733 3.0533e-11     0.0995      0.848    338.580 260.211118    -0.0259      8.812  -142.5807 1.1480e+00    -0.0932      3.661      5.309    13.3648 0.0000e+00
      3.733 3.3586e-10     0.0950      0.837    338.636 260.339405    -0.0237      8.809  -142.7353 1.1582e+00    -0.1337      3.661      5.310    13.3807 0.0000e+00
      3.733 3.6945e-09     0.0890      0.821    338.704 260.476701    -0.0076      8.807  -142.8169 1.1480e+00    -0.0246      3.661      5.310    13.3962 0.0000e+00
      3.733 4.0639e-08     0.0874      0.822    338.739 260.588159     0.0185      8.805  -142.8796 1.1401e+00     0.1325      3.661      5.309    13.4109 0.0000e+00
      3.732 4.4703e-07     0.0897      0.838    338.728 260.660652     0.0343      8.802  -143.0641 1.1458e+00     0.1947      3.660      5.308    13.4238 0.0000e+00
      3.732      0.000     0.0875      0.850    338.693 260.711742     0.0170      8.799  -143.3271 1.1437e+00     0.1131      3.660      5.309    13.4361 0.0000e+00
      3.732      0.000     0.0846      0.843    338.653 260.756885     0.0007      8.795  -143.5634 1.1265e+00     0.0338      3.660      5.308    13.4490 0.0000e+00
      3.732      0.001     0.0851      0.818    338.638 260.821628     0.0033      8.792  -143.8554 1.1241e+00     0.0204      3.660      5.309    13.4614 0.0000e+00
      3.733      0.002     0.0873      0.798    338.660 260.917228    -0.0178      8.790  -144.1915 1.1411e+00    -0.0488      3.661      5.309    13.4733 0.0000e+00
      3.734      0.002     0.0896      0.796    338.685 261.014678    -0.0379      8.787  -144.5291 1.1603e+00    -0.1195      3.662      5.310    13.4847 0.0000e+00
      3.734      0.002     0.0884      0.799    338.698 261.101790    -0.0230      8.784  -144.9261 1.1692e+00    -0.1168      3.662      5.311    13.4957 0.0000e+00
      3.735      0.001     0.0849      0.796    338.727 261.200696     0.0121      8.783  -145.3783 1.1753e+00    -0.0165      3.663      5.312    13.5071 0.0000e+00
      3.735      0.000     0.0821      0.793    338.772 261.312436     0.0362      8.782  -145.9528 1.1809e+00     0.1028      3.663      5.313    13.5188 0.0000e+00
      3.735     -0.001     0.0828      0.794    338.820 261.426392     0.0356      8.779  -146.3656 1.1786e+00     0.1302      3.663      5.312    13.5304 0.0000e+00
      3.735     -0.005     0.0836      0.796    338.881 261.552106     0.0139      8.776  -146.4118 1.1806e+00     0.0762      3.663      5.313    13.5418 0.0000e+00
      3.735     -0.011     0.0826      0.802    338.941 261.677674    -0.0179      8.772  -146.5123 1.1938e+00    -0.0386      3.663      5.313    13.5531 0.0000e+00
      3.734     -0.022     0.0821      0.813    338.981 261.789873    -0.0160      8.770  -146.7193 1.2150e+00    -0.1299      3.663      5.312    13.5643 0.0000e+00
      3.729     -0.039     0.0826      0.810    338.996 261.882252     0.0196      8.767  -146.9355 1.2311e+00    -0.1399      3.658      5.305    13.5757 0.0000e+00
      3.721     -0.060     0.0828      0.799    338.914 261.896493     0.0457      8.762  -147.3197 1.2421e+00    -0.0225      3.650      5.294    13.5871 0.0000e+00
      3.707     -0.080     0.0824      0.800    338.748 261.833841     0.0502      8.758  -147.7506 1.2817e+00     0.1964      3.641      5.280    13.5990 0.0000e+00
      3.682     -0.094     0.0852      0.797    338.596 261.766408     0.0582      8.756  -148.1020 1.3653e+00     1.1406      3.616      5.245    13.6111 0.0000e+00
      3.644     -0.096     0.0850      0.781    338.491 261.722821     0.1335      8.755  -148.4708 1.4739e+00    11.2576      3.575      5.185    13.6231 0.0000e+00
      3.604     -0.084     0.0815      0.766    338.414 261.691816     0.2455      8.753  -148.8545 1.5796e+00    29.8454      3.532      5.122    13.6349 0.0000e+00
      3.574     -0.060     0.0833      0.750    338.333 261.648198     0.2798      8.751  -149.1283 1.6538e+00    39.9881      3.499      5.075    13.6452 0.0000e+00
      3.561     -0.030     0.0839      0.737    338.218 261.580399     0.2741      8.749  -149.1997 1.6652e+00    41.7643      3.486      5.055    13.6520 0.0000e+00
      3.567     -0.001     0.0801      0.739    338.083 261.513671     0.3760      8.748  -149.1152 1.6184e+00    53.0977      3.492      5.064    13.6571 0.0000e+00
      3.585      0.020     0.0799      0.740    337.970 261.483015     0.5793      8.746  -149.1387 1.5751e+00    73.9939      3.517      5.102    13.6619 0.0000e+00
      3.602      0.031     0.0778      0.727    337.851 261.466438     0.7097      8.744  -149.3979 1.5683e+00    85.4996      3.537      5.130    13.6637 0.0000e+00
      3.611      0.030     0.0754      0.720    337.706 261.441639     0.7216      8.743  -149.5824 1.5743e+00    86.4548      3.543      5.138    13.6661 0.0000e+00
      3.615      0.015     0.0765      0.722    337.584 261.439908     0.6566      8.741  -149.6480 1.5701e+00    84.8594      3.546      5.142    13.6717 0.0000e+00
      3.618     -0.022     0.0779      0.720    337.475 261.445620     0.5639      8.738  -149.8480 1.5681e+00    81.7519      3.547      5.146    13.6801 0.0000e+00
      3.620     -0.083     0.0747      0.720    337.283 261.382517     0.5164      8.733  -150.1935 1.5842e+00    79.9340      3.550      5.149    13.6915 0.0000e+00
      3.616     -0.155     0.0739      0.729    336.928 261.190320     0.5074      8.728  -150.5553 1.6387e+00    78.7631      3.552      5.151    13.7050 0.0000e+00
      3.588     -0.215     0.0753      0.744    336.470 260.918302     0.4211      8.725  -150.8670 1.8577e+00    67.3900      3.540      5.135    13.7192 0.0000e+00
      3.507     -0.245     0.0743      0.740    336.122 260.724098     0.2311      8.723  -151.2950 2.3652e+00    46.4378      3.462      5.021    13.7327 0.0000e+00
      3.377     -0.243     0.0742      0.720    335.935 260.638664     0.1076      8.723  -151.8590 2.9913e+00    35.0688      3.306      4.796    13.7451 0.0000e+00
      3.261     -0.213     0.0746      0.714    335.806 260.591108     0.1014      8.721  -152.3519 3.3706e+00    35.6862      3.168      4.595    13.7569 0.0000e+00
      3.210     -0.161     0.0783      0.727    335.747 260.598243     0.2812      8.718  -152.6942 3.3744e+00    54.6200      3.125      4.533    13.7699 0.0000e+00
      3.216     -0.106     0.0773      0.742    335.761 260.660847     0.5995      8.716  -153.0719 3.2141e+00    89.4069      3.151      4.570    13.7821 0.0000e+00
      3.239     -0.080     0.0736      0.742    335.756 260.706557     0.7622      8.714  -153.8215 3.1087e+00   108.2065      3.183      4.616    13.7901 0.0000e+00
      3.252     -0.105     0.0730      0.724    335.520 260.573601     0.8005      8.712  -154.7883 3.1136e+00   109.5908      3.194      4.632    13.7973 0.0000e+00
      3.244     -0.168     0.0753      0.711    334.978 260.208152     0.9127      8.712  -155.6418 3.3091e+00   106.9637      3.192      4.630    13.8055 0.0000e+00
      3.197     -0.228     0.0773      0.710    334.488 259.880683     1.0623      8.713  -156.4841 3.9127e+00   101.7896      3.159      4.581    13.8133 0.0000e+00
      3.092     -0.257     0.0779      0.702    334.274 259.757799     1.1268      8.716  -157.3143 5.0549e+00    98.8843      3.049      4.420    13.8205 0.0000e+00
      2.955     -0.250     0.0745      0.698    334.209 259.748872     1.1266      8.720  -158.0223 6.2536e+00    98.3089      2.882      4.181    13.8275 0.0000e+00
      2.853     -0.213     0.0722      0.693    334.178 259.772790     1.3433      8.722  -158.6769 6.7226e+00    95.9940      2.766      4.012    13.8361 0.0000e+00
      2.821     -0.153     0.0746      0.676    334.137 259.790430     1.7920      8.722  -159.2931 6.5070e+00    92.0746      2.752      3.991    13.8451 0.0000e+00
      2.834     -0.083     0.0718      0.681    334.132 259.833913     2.0567      8.722  -159.8799 6.2271e+00    90.1347      2.783      4.036    13.8507 0.0000e+00
      2.849     -0.024     0.0718      0.700    334.178 259.913673     2.1057      8.723  -160.5238 6.1385e+00    90.5410      2.799      4.060    13.8564 0.0000e+00
      2.852      0.001     0.0733      0.707    334.217 259.985021     2.0844      8.724  -161.3134 6.1657e+00    95.2449      2.800      4.060    13.8640 0.0000e+00
      2.849     -0.016     0.0682      0.713    334.254 260.055099     1.9907      8.725  -162.1134 6.1812e+00   103.7297      2.793      4.051    13.8715 0.0000e+00
      2.848     -0.071     0.0696      0.720    334.278 260.119508     1.9302      8.726  -162.5386 6.1444e+00   108.3113      2.792      4.049    13.8789 0.0000e+00
      2.848     -0.144     0.0736      0.718    334.212 260.122318     1.9186      8.728  -162.8410 6.1901e+00   108.4886      2.796      4.056    13.8854 0.0000e+00
      2.830     -0.210     0.0725      0.709    334.088 260.089170     1.8419      8.733  -163.5334 6.7280e+00   106.8295      2.793      4.051    13.8914 0.0000e+00
      2.763     -0.250     0.0734      0.700    334.016 260.103730     1.7183      8.743  -164.2852 8.1573e+00   103.9649      2.736      3.968    13.8972 0.0000e+00
      2.639     -0.256     0.0751      0.695    334.015 260.170147     1.6728      8.756  -164.6167 1.0168e+01   102.4783      2.592      3.759    13.9038 0.0000e+00
      2.508     -0.233     0.0741      0.696    334.045 260.250744     1.6987      8.770  -165.1336 1.1642e+01   102.4163      2.435      3.533    13.9119 0.0000e+00
      2.432     -0.184     0.0730      0.691    334.054 260.308444     1.7404      8.788  -166.7482 1.1807e+01   102.3609      2.357      3.418    13.9214 0.0000e+00
      2.424     -0.118     0.0722      0.682    334.053 260.354605     1.7861      8.809  -168.3086 1.1180e+01   102.0823      2.368      3.433    13.9329 0.0000e+00
      2.447     -0.050     0.0709      0.664    334.083 260.424007     1.8026      8.833  -167.8242 1.0639e+01   101.8149      2.407      3.490    13.9432 0.0000e+00
      2.463     -0.000     0.0727      0.650    334.132 260.506091     1.7809      8.857  -165.5379 1.0479e+01   101.5869      2.422      3.512    13.9514 0.0000e+00
      2.464      0.020     0.0708      0.667    334.170 260.577262     1.7488      8.879  -162.4330 1.0554e+01   100.5897      2.419      3.508    13.9588 0.0000e+00
      2.460      0.017     0.0707      0.681    334.205 260.643025     1.7473      8.898  -158.4180 1.0592e+01    98.9123      2.410      3.495    13.9656 0.0000e+00
      2.460      0.009     0.0693      0.669    334.262 260.723871     1.7800      8.911  -153.6455 1.0446e+01    98.0438      2.410      3.495    13.9725 0.0000e+00
      2.466      0.007     0.0640      0.648    334.296 260.784946     1.8109      8.916  -148.7805 1.0217e+01    97.5696      2.419      3.508    13.9793 0.0000e+00
      2.471      0.008     0.0698      0.634    334.276 260.804121     1.9792      8.915  -144.3369 1.0042e+01    92.1542      2.424      3.516    13.9855 0.0000e+00
      2.473      0.003     0.0714      0.631    334.263 260.827439     2.3087      8.909  -140.3571 9.8991e+00    82.2000      2.425      3.517    13.9912 0.0000e+00
      2.473     -0.024     0.0692      0.646    334.279 260.874456     2.4988      8.903  -136.0226 9.7157e+00    76.7213      2.424      3.516    13.9966 0.0000e+00
      2.475     -0.083     0.0661      0.676    334.285 260.923557     2.5043      8.902  -130.5605 9.4709e+00    76.1938      2.425      3.518    14.0018 0.0000e+00
      2.475     -0.164     0.0652      0.687    334.256 260.972116     2.5421      8.900  -124.3909 9.4159e+00    77.4957      2.433      3.527    14.0070 0.0000e+00
      2.455     -0.241     0.0646      0.676    334.168 261.012592     2.6643      8.888  -118.5556 1.0255e+01    80.1309      2.430      3.524    14.0122 0.0000e+00
      2.375     -0.288     0.0649      0.657    334.018 261.028163     2.7660      8.868  -114.4688 1.3127e+01    81.5826      2.360      3.423    14.0166 0.0000e+00
      2.230     -0.295     0.0714      0.678    333.871 261.032227     2.8146      8.853  -112.5768 1.7714e+01    81.2818      2.190      3.176    14.0224 0.0000e+00
      2.079     -0.264     0.0708      0.711    333.799 261.061865     3.0773      8.844  -111.4260 2.1027e+01    75.1618      2.009      2.913    14.0321 0.0000e+00
      1.994     -0.202     0.0709      0.691    333.811 261.129983     3.5534      8.838  -110.1046 2.1200e+01    63.7099      1.926      2.794    14.0489 0.0000e+00
      1.986     -0.119     0.0651      0.662    333.872 261.214328     3.7947      8.832  -108.6446 1.9346e+01    57.3884      1.935      2.806    14.0719 0.0000e+00
      2.017     -0.036     0.0677      0.643    333.972 261.311833     3.8312      8.827  -106.7659 1.7295e+01    56.8009      1.982      2.874    14.0904 0.0000e+00
      2.046      0.020     0.0781      0.623    334.089 261.410728     3.9603      8.823  -104.3391 1.6095e+01    56.7084      2.014      2.920    14.1025 0.0000e+00
      2.057      0.040     0.0696      0.617    334.216 261.511862     4.1410      8.820  -101.6730 1.5531e+01    56.5771      2.020      2.930    14.1113 0.0000e+00
      2.059      0.034     0.0674      0.610    334.374 261.636430     4.2179      8.816   -98.9650 1.5021e+01    56.4781      2.020      2.929    14.1166 0.0000e+00
      2.059      0.020     0.0671      0.598    334.535 261.762020     4.1998      8.809   -96.2908 1.4326e+01    56.3305      2.018      2.926    14.1190 0.0000e+00
      2.062      0.011     0.0621      0.593    334.685 261.875508     4.1625      8.799   -93.5168 1.3519e+01    55.5782      2.021      2.932    14.1197 0.0000e+00
      2.067      0.007     0.0641      0.595    334.825 261.982053     4.1248      8.788   -90.5478 1.2866e+01    54.3505      2.028      2.941    14.1198 0.0000e+00
      2.070      0.007     0.0627      0.598    334.960 262.087867     4.1109      8.778   -87.2367 1.2489e+01    53.6825      2.030      2.945    14.1200 0.0000e+00
      2.070      0.006     0.0612      0.611    335.093 262.192499     4.1282      8.769   -83.4240 1.2319e+01    53.4448      2.030      2.945    14.1201 0.0000e+00
      2.070      0.004     0.0602      0.630    335.211 262.284744     4.3334      8.763   -79.6394 1.2175e+01    51.4418      2.030      2.944    14.1194 0.0000e+00
      2.071      0.002     0.0615      0.648    335.318 262.369111     4.7190      8.758   -76.2367 1.1945e+01    47.7743      2.030      2.945    14.1187 0.0000e+00
      2.072      0.002     0.0608      0.664    335.411 262.442655     4.9373      8.755   -73.2565 1.1685e+01    45.7883      2.032      2.947    14.1188 0.0000e+00
      2.073      0.003     0.0624      0.666    335.519 262.532340     4.9672      8.753   -70.7082 1.1481e+01    45.4998      2.033      2.948    14.1190 0.0000e+00
      2.073      0.004     0.0653      0.653    335.698 262.683558     5.2218      8.751   -68.4840 1.1280e+01    44.3881      2.033      2.948    14.1190 0.0000e+00
      2.073      0.005     0.0658      0.637    335.901 262.859480     5.7265      8.749   -67.1855 1.0991e+01    42.4579      2.033      2.949    14.1190 0.0000e+00
      2.074      0.008     0.0692      0.617    336.044 262.991212     6.0252      8.747   -67.2256 1.0633e+01    41.4969      2.034      2.950    14.1190 0.0000e+00
      2.075      0.011     0.0690      0.598    336.106 263.057266     6.0710      8.743   -67.3348 1.0262e+01    41.4452      2.035      2.952    14.1195 0.0000e+00
      2.078      0.006     0.0669      0.596    336.122 263.080689     5.9474      8.738   -66.6121 9.9060e+00    40.0899      2.036      2.953    14.1211 0.0000e+00
      2.084     -0.021     0.0656      0.605    336.195 263.146112     5.6791      8.733   -65.8014 9.6357e+00    37.4069      2.043      2.963    14.1239 0.0000e+00
      2.093     -0.076     0.0636      0.616    336.330 263.270843     5.5070      8.732   -65.5339 9.5347e+00    35.8897      2.053      2.978    14.1273 0.0000e+00
      2.095     -0.142     0.0603      0.607    336.415 263.369756     5.4973      8.737   -65.4433 9.7619e+00    35.9553      2.063      2.991    14.1301 0.0000e+00
      2.069     -0.196     0.0610      0.575    336.470 263.443833     5.8287      8.750   -65.2219 1.1392e+01    38.5087      2.056      2.981    14.1317 0.0000e+00
      1.982     -0.225     0.0619      0.565    336.547 263.524901     6.4343      8.769   -64.5781 1.5561e+01    43.2258      1.964      2.849    14.1318 0.0000e+00
      1.856     -0.225     0.0638      0.573    336.597 263.579996     6.7602      8.790   -62.8211 2.0264e+01    45.8494      1.805      2.617    14.1343 0.0000e+00
      1.758     -0.199     0.0646      0.566    336.602 263.596682     6.8391      8.807   -61.4449 2.2256e+01    45.9443      1.699      2.464    14.1407 0.0000e+00
      1.721     -0.157     0.0571      0.561    336.589 263.598331     7.3387      8.818   -62.2211 2.1506e+01    43.7922      1.674      2.428    14.1454 0.0000e+00
      1.724     -0.121     0.0569      0.562    336.576 263.599955     8.2314      8.827   -62.9995 1.9968e+01    39.7777      1.688      2.449    14.1481 0.0000e+00
      1.739     -0.125     0.0606      0.554    336.570 263.616357     8.6935      8.837   -61.2199 1.9033e+01    37.5423      1.711      2.481    14.1505 0.0000e+00
      1.743     -0.183     0.0573      0.548    336.585 263.668372     8.6896      8.847   -58.1695 1.9559e+01    37.4646      1.719      2.492    14.1522 0.0000e+00
      1.715     -0.272     0.0570      0.552    336.585 263.715643     8.4420      8.856   -56.6616 2.3654e+01    40.1365      1.703      2.470    14.1541 0.0000e+00
      1.627     -0.350     0.0586      0.552    336.493 263.674674     7.9887      8.866   -57.2715 3.4764e+01    45.2534      1.625      2.356    14.1551 0.0000e+00
      1.472     -0.388     0.0566      0.545    336.347 263.558059     7.7535      8.879   -58.4877 5.1392e+01    48.0931      1.454      2.108    14.1575 0.0000e+00
      1.297     -0.375     0.0555      0.535    336.258 263.460614     7.8116      8.891   -58.9776 6.5525e+01    47.8951      1.253      1.818    14.1642 0.0000e+00
      1.164     -0.317     0.0572      0.525    336.229 263.394731     8.8166      8.899   -58.5479 7.1293e+01    42.6549      1.113      1.615    14.1727 0.0000e+00
      1.103     -0.226     0.0569      0.530    336.144 263.274731    10.7248      8.909   -57.7663 6.9669e+01    33.1033      1.062      1.541    14.1785 0.0000e+00
      1.097     -0.126     0.0558      0.539    336.003 263.100426    11.7983      8.921   -57.0130 6.5026e+01    27.9510      1.068      1.549    14.1775 0.0000e+00
      1.112     -0.042     0.0555      0.545    335.907 262.955392    11.9413      8.931   -56.2369 6.0774e+01    27.5331      1.092      1.585    14.1724 0.0000e+00
      1.126      0.007     0.0527      0.557    335.872 262.868467    12.0703      8.937   -55.6101 5.8123e+01    26.7875      1.109      1.609    14.1664 0.0000e+00
      1.131      0.022     0.0544      0.551    335.857 262.819303    12.2434      8.944   -55.8863 5.6228e+01    25.2888      1.110      1.610    14.1579 0.0000e+00
      1.134      0.018     0.0559      0.539    335.802 262.745885    12.3201      8.954   -56.8235 5.3996e+01    24.3744      1.112      1.613    14.1487 0.0000e+00
      1.138      0.010     0.0546      0.547    335.688 262.622358    12.3067      8.968   -56.7033 5.1865e+01    24.2374      1.117      1.621    14.1373 0.0000e+00
      1.140      0.005     0.0586      0.556    335.542 262.480616    12.2559      8.983   -55.2932 5.0730e+01    25.1015      1.119      1.624    14.1269 0.0000e+00
      1.139      0.004     0.0572      0.551    335.341 262.315281    12.1717      8.997   -53.7124 5.0524e+01    26.8292      1.117      1.621    14.1230 0.0000e+00
      1.138      0.004     0.0535      0.536    335.068 262.098999    12.1372      9.010   -52.1313 5.0529e+01    27.7739      1.115      1.618    14.1195 0.0000e+00
      1.138      0.004     0.0566      0.516    334.284 261.469578    12.1891      9.024   -50.2864 5.0223e+01    27.8808      1.115      1.617    14.1134 0.0000e+00
      1.140      0.004     0.0580      0.513    330.926 258.811097    12.5003      9.038   -48.2689 4.9472e+01    27.2342      1.117      1.621    14.1080 0.0000e+00
      1.144      0.004     0.0566      0.546    321.967 251.765954    13.0193      9.049   -46.3226 4.8428e+01    25.7966      1.122      1.628    14.1079 0.0000e+00
      1.147      0.003     0.0557      0.573    307.753 240.610143    13.2793      9.059   -44.6503 4.7172e+01    24.9143      1.125      1.632    14.1093 0.0000e+00
      1.147      0.002     0.0525      0.569    292.627 228.741809    13.2638      9.068   -43.1924 4.5838e+01    24.7308      1.125      1.632    14.1063 0.0000e+00
      1.146      0.000     0.0503      0.567    280.369 219.119109    13.1390      9.072   -42.1170 4.4554e+01    24.5685      1.123      1.629    14.1008 0.0000e+00
      1.144     -0.003     0.0564      0.573    272.460 212.900958    12.9356      9.072   -41.8000 4.3270e+01    24.3527      1.122      1.627    14.0948 0.0000e+00
      1.144     -0.005     0.0612      0.591    268.251 209.577115    12.8191      9.068   -41.7698 4.2203e+01    24.1709      1.121      1.626    14.0880 0.0000e+00
      1.143     -0.005     0.0575      0.617    266.344 208.052562    12.8039      9.062   -41.0630 4.1513e+01    24.1131      1.122      1.627    14.0805 0.0000e+00
      1.141     -0.005     0.0583      0.620    266.117 207.842647    12.6854      9.056   -39.5359 4.1053e+01    24.1312      1.119      1.624    14.0732 0.0000e+00
      1.139     -0.005     0.0588      0.607    266.598 208.190928    12.4437      9.049   -37.7594 4.0757e+01    24.1511      1.117      1.620    14.0667 0.0000e+00
      1.137     -0.005     0.0595      0.620    266.842 208.360119    12.3284      9.043   -35.9311 4.0560e+01    24.2167      1.114      1.616    14.0603 0.0000e+00
      1.136     -0.006     0.0651      0.654    267.098 208.544491    12.3559      9.037   -34.5521 4.0437e+01    24.3101      1.113      1.615    14.0537 0.0000e+00
      1.136     -0.014     0.0648      0.680    267.715 209.012283    12.4526      9.029   -33.9055 4.0430e+01    24.0848      1.115      1.617    14.0471 0.0000e+00
      1.135     -0.039     0.0606      0.700    268.400 209.536575    12.6072      9.021   -32.9319 4.0554e+01    23.5760      1.113      1.616    14.0418 0.0000e+00
      1.134     -0.087     0.0625      0.720    268.779 209.828060    12.6856      9.016   -31.0396 4.0877e+01    23.3167      1.111      1.613    14.0383 0.0000e+00
      1.127     -0.156     0.0684      0.746    268.472 209.592808    12.6586      9.015   -28.4923 4.2517e+01    23.2042      1.112      1.612    14.0356 0.0000e+00
      1.097     -0.234     0.0699      0.772    267.446 208.804022    12.2727      9.014   -25.7075 4.7087e+01    22.3519      1.094      1.588    14.0329 0.0000e+00
      1.024     -0.297     0.0722      0.773    266.848 208.354237    11.5654      9.011   -23.0946 5.5132e+01    20.9025      1.020      1.479    14.0305 0.0000e+00
      0.909     -0.324     0.0739      0.752    267.434 208.826067    11.1897      9.005   -21.2486 6.7161e+01    20.1627      0.901      1.306    14.0296 0.0000e+00
      0.772     -0.306     0.0762      0.721    268.557 209.709398    11.1424      8.999   -20.1652 8.1359e+01    20.0685      0.755      1.096    14.0304 0.0000e+00
      0.650     -0.245     0.0810      0.695    269.599 210.523194    11.1104      8.992   -18.9433 9.0400e+01    19.8318      0.612      0.888    14.0328 0.0000e+00
      0.586     -0.155     0.0803      0.680    270.111 210.921879    11.1026      8.984   -18.3477 9.0546e+01    19.5221      0.550      0.798    14.0368 0.0000e+00
      0.587     -0.060     0.0775      0.653    270.141 210.945948    11.1065      8.979   -20.7077 8.6079e+01    19.3978      0.565      0.820    14.0399 0.0000e+00
      0.624      0.019     0.0744      0.635    270.213 211.006210    11.1164      8.976   -27.1733 8.0583e+01    19.3535      0.609      0.883    14.0407 0.0000e+00
      0.669      0.066     0.0699      0.655    270.293 211.074501    11.2304      8.975   -34.7462 7.6131e+01    18.9863      0.662      0.961    14.0405 0.0000e+00
      0.701      0.077     0.0715      0.663    270.276 211.067657    11.4270      8.972   -38.4487 7.4046e+01    18.3733      0.696      1.009    14.0401 0.0000e+00
      0.714      0.067     0.0676      0.650    270.411 211.179471    11.5215      8.970   -37.7832 7.3308e+01    18.0570      0.703      1.020    14.0402 0.0000e+00
      0.718      0.049     0.0618      0.645    270.691 211.402418    11.5484      8.967   -35.2176 7.2780e+01    18.0658      0.704      1.022    14.0410 0.0000e+00
      0.720      0.033     0.0692      0.642    271.086 211.715244    11.6858      8.962   -32.0352 7.2120e+01    17.7280      0.705      1.023    14.0420 0.0000e+00
      0.727      0.023     0.0694      0.638    272.204 212.593740    11.9015      8.957   -28.9025 7.0980e+01    16.8757      0.710      1.030    14.0433 0.0000e+00
      0.737      0.009     0.0656      0.629    273.780 213.831484    12.0091      8.955   -26.5080 6.9398e+01    16.3690      0.723      1.048    14.0445 0.0000e+00
      0.746     -0.024     0.0671      0.614    274.319 214.263319    11.9960      8.959   -25.1092 6.8076e+01    16.4176      0.735      1.066    14.0452 0.0000e+00
      0.750     -0.083     0.0654      0.601    273.596 213.718604    11.7599      8.967   -24.5520 6.7373e+01    16.7119      0.738      1.070    14.0460 0.0000e+00
      0.744     -0.158     0.0663      0.598    272.484 212.878254    11.3105      8.976   -24.5035 6.8916e+01    17.0924      0.739      1.071    14.0471 0.0000e+00
      0.709     -0.226     0.0649      0.613    272.108 212.615749    11.0478      8.983   -24.2639 7.5100e+01    17.2609      0.717      1.040    14.0480 0.0000e+00
      0.622     -0.267     0.0627      0.621    272.860 213.232939    10.9474      8.992   -23.8923 8.4470e+01    17.1783      0.627      0.910    14.0496 0.0000e+00
      0.494     -0.273     0.0621      0.626    273.567 213.812029    10.1792      9.003   -24.8285 9.5316e+01    16.1610      0.481      0.698    14.0535 0.0000e+00
      0.375     -0.245     0.0597      0.659    273.676 213.920901     8.7929      9.014   -27.5813 1.0570e+02    14.3546      0.345      0.501    14.0590 0.0000e+00
      0.309     -0.190     0.0640      0.691    273.714 213.973251     8.0429      9.028   -32.0533 1.1071e+02    13.3740      0.281      0.409    14.0650 0.0000e+00
      0.296     -0.116     0.0647      0.702    273.879 214.124951     7.9695      9.058   -38.2029 1.1224e+02    13.2538      0.284      0.412    14.0706 0.0000e+00
      0.306     -0.042     0.0619      0.715    274.054 214.282880     7.8563      9.118   -45.1490 1.1480e+02    12.9708      0.301      0.436    14.0752 0.0000e+00
      0.318      0.014     0.0684      0.727    274.354 214.538567     7.6652      9.197   -52.7995 1.1750e+02    12.4799      0.313      0.455    14.0796 0.0000e+00
      0.325      0.046     0.0727      0.728    274.723 214.848045     7.5731      9.275   -60.5826 1.1879e+02    12.2379      0.319      0.463    14.0838 0.0000e+00
      0.335      0.059     0.0713      0.714    275.077 215.144245     7.5991      9.343   -67.1529 1.1749e+02    12.2646      0.325      0.471    14.0879 0.0000e+00
      0.352      0.065     0.0738      0.684    275.419 215.431365     7.9133      9.397   -72.6148 1.1399e+02    12.6314      0.343      0.498    14.0917 0.0000e+00
      0.375      0.068     0.0752      0.656    275.730 215.695041     8.4676      9.436   -77.6658 1.0989e+02    13.2572      0.368      0.534    14.0955 0.0000e+00
      0.398      0.067     0.0751      0.641    276.129 216.027824     8.7498      9.462   -82.1073 1.0682e+02    13.5801      0.392      0.569    14.0993 0.0000e+00
      0.418      0.057     0.0745      0.623    276.392 216.254247     8.7529      9.482   -86.4796 1.0515e+02    13.5974      0.412      0.597    14.1028 0.0000e+00
      0.433      0.029     0.0702      0.598    276.448 216.320198     8.6302      9.497   -90.3509 1.0339e+02    13.3300      0.425      0.617    14.1063 0.0000e+00
      0.445     -0.024     0.0665      0.574    275.997 215.993038     8.3822      9.514   -84.7765 1.0202e+02    12.7384      0.437      0.634    14.1100 0.0000e+00
      0.450     -0.092     0.0662      0.572    275.652 215.755347     8.2176      9.530   -79.7380 1.0351e+02    12.3532      0.447      0.647    14.1139 0.0000e+00
      0.438     -0.155     0.0644      0.600    276.337 216.326880     8.1719      9.540   -92.0673 1.1332e+02    12.4306      0.446      0.647    14.1175 0.0000e+00
      0.383     -0.201     0.0611      0.619    276.845 216.757975     8.0036      9.546  -103.8436 1.4971e+02    14.0157      0.400      0.579    14.1213 0.0000e+00
      0.280     -0.221     0.0587      0.605    276.950 216.870862     7.6985      9.553  -104.4222 2.1674e+02    16.8991      0.273      0.395    14.1258 0.0000e+00
      0.177     -0.217     0.0565      0.591    276.980 216.923598     7.5371      9.561  -103.1075 2.9638e+02    18.4629      0.153      0.222    14.1319 0.0000e+00
      0.116     -0.198     0.0623      0.598    276.484 216.563393     7.5417      9.568  -103.4345 3.6844e+02    18.6103      0.104      0.151    14.1388 0.0000e+00
      0.090     -0.174     0.0657      0.636    276.099 216.292751     7.5378      9.573  -105.3642 4.0534e+02    17.8953      0.080      0.117    14.1446 0.0000e+00
      0.084     -0.151     0.0615      0.682    276.200 216.404107     7.5070      9.576  -108.2855 4.0430e+02    16.4106      0.080      0.116    14.1501 0.0000e+00
      0.074     -0.136     0.0601      0.700    276.118 216.373422     7.5108      9.579  -113.2017 4.2441e+02    15.6551      0.089      0.129    14.1554 0.0000e+00
      0.031     -0.127     0.0599      0.708    275.501 215.921797     7.5249      9.582  -117.7432 5.2378e+02    15.6612      0.042      0.062    14.1604 0.0000e+00
     -0.037     -0.117     0.0642      0.727    274.583 215.232658     7.4283      9.584  -118.4556 6.4322e+02    15.3909     -0.044     -0.064    14.1658 0.0000e+00
     -0.091     -0.100     0.0725      0.752    273.622 214.506608     7.2408      9.584  -119.3192 7.0594e+02    14.8473     -0.106     -0.153    14.1718 0.0000e+00
     -0.110     -0.072     0.0719      0.780    272.850 213.928548     7.1305      9.585  -122.1623 7.4019e+02    14.5534     -0.116     -0.167    14.1780 0.0000e+00
     -0.106     -0.036     0.0716      0.781    272.586 213.748329     7.1025      9.588  -122.4600 7.5329e+02    14.4332     -0.105     -0.153    14.1840 0.0000e+00
     -0.096     -0.004     0.0751      0.747    272.698 213.863871     7.1096      9.589  -120.1659 6.9835e+02    13.5308     -0.093     -0.135    14.1894 0.0000e+00
     -0.086      0.015     0.0761      0.732    272.976 214.109422     7.1670      9.591  -117.7408 6.3611e+02    12.0113     -0.082     -0.119    14.1942 0.0000e+00
     -0.081      0.022     0.0813      0.739    273.247 214.348903     7.2055      9.597  -115.8533 6.6219e+02    11.2287     -0.078     -0.114    14.1990 0.0000e+00
     -0.080      0.025     0.0824      0.728    273.023 214.199019     7.1757      9.609  -114.2930 7.0877e+02    11.0372     -0.079     -0.114    14.2041 0.0000e+00
     -0.079      0.027     0.0753      0.717    272.523 213.833489     6.8976      9.624  -113.6744 6.8047e+02    10.5143     -0.080     -0.116    14.2090 0.0000e+00
     -0.073      0.028     0.0730      0.714    272.164 213.577918     6.3986      9.639  -115.0843 6.1316e+02     9.7224     -0.075     -0.109    14.2142 0.0000e+00
     -0.059      0.027     0.0780      0.689    271.676 213.221253     6.1193      9.653  -116.3694 5.6940e+02     9.3203     -0.058     -0.084    14.2191 0.0000e+00
     -0.045      0.022     0.0741      0.666    270.842 212.593476     6.1092      9.666  -115.2753 5.4884e+02     9.3763     -0.042     -0.060    14.2239 0.0000e+00
     -0.036      0.014     0.0721      0.658    271.523 213.156146     6.2769      9.681  -113.7283 5.5225e+02     9.9546     -0.033     -0.048    14.2287 0.0000e+00
     -0.036      0.007     0.0756      0.658    273.467 214.710887     6.5649      9.700  -113.4955 5.6705e+02    10.9492     -0.034     -0.048    14.2335 0.0000e+00
     -0.041      0.002     0.0698      0.654    274.375 215.453331     6.7115      9.718  -113.9240 5.6062e+02    11.4278     -0.041     -0.059    14.2384 0.0000e+00
     -0.048      0.001     0.0675      0.629    275.020 215.988407     6.7097      9.734  -113.7469 5.8712e+02    11.3690     -0.045     -0.065    14.2433 0.0000e+00
     -0.054      0.004     0.0672      0.593    275.319 216.251485     6.6184      9.746  -112.2144 6.2443e+02    10.9208     -0.059     -0.085    14.2483 0.0000e+00
     -0.049      0.009     0.0672      0.574    275.056 216.073906     6.4481      9.755  -110.5376 5.8047e+02    10.1081     -0.054     -0.078    14.2536 0.0000e+00
     -0.036      0.014     0.0681      0.582    274.702 215.825919     6.3402      9.761  -109.3035 5.1988e+02     9.6734     -0.027     -0.039    14.2591 0.0000e+00
     -0.031      0.018     0.0650      0.588    274.159 215.429663     6.3211      9.765  -108.1342 4.9482e+02     9.7638     -0.031     -0.046    14.2643 0.0000e+00
     -0.029      0.018     0.0600      0.585    273.814 215.187759     6.2747      9.769  -106.7244 4.8532e+02    10.9953     -0.030     -0.044    14.2693 0.0000e+00
     -0.025      0.014     0.0569      0.586    273.227 214.757523     6.1708      9.773  -104.3024 4.8352e+02    13.1546     -0.023     -0.034    14.2747 0.0000e+00
     -0.022      0.007     0.0602      0.607    271.333 213.300291     6.1129      9.777  -102.1673 4.7893e+02    14.2834     -0.022     -0.032    14.2803 0.0000e+00
     -0.019     -0.010     0.0606      0.636    268.543 211.138136     6.1157      9.784  -102.0755 4.7782e+02    14.4298     -0.018     -0.026    14.2857 0.0000e+00
     -0.017     -0.049     0.0597      0.650    266.638 209.672534     6.1057      9.798  -103.3647 4.7892e+02    14.8557     -0.017     -0.025    14.2911 0.0000e+00
     -0.017     -0.113     0.0590      0.671    265.355 208.700069     6.0912      9.818  -103.9020 4.9459e+02    15.6759     -0.014     -0.021    14.2968 0.0000e+00
     -0.028     -0.191     0.0612      0.721    263.378 207.187402     6.0907      9.837  -103.3230 5.8104e+02    16.1825     -0.016     -0.023    14.3027 0.0000e+00
     -0.075     -0.267     0.0668      0.776    261.444 205.716828     6.0661      9.850  -103.7645 7.6144e+02    16.3694     -0.052     -0.075    14.3084 0.0000e+00
     -0.176     -0.325     0.0659      0.779    260.373 204.932848     5.7681      9.858  -105.9700 9.8029e+02    18.2424     -0.156     -0.228    14.3141 0.0000e+00
     -0.311     -0.351     0.0671      0.696    259.895 204.618655     5.2342      9.859  -110.8893 1.2103e+03    21.8178     -0.312     -0.451    14.3207 0.0000e+00
     -0.440     -0.338     0.0733      0.590    259.725 204.541258     4.9383      9.853  -116.6960 1.4044e+03    23.7659     -0.442     -0.641    14.3288 0.0000e+00
     -0.539     -0.288     0.0809      0.533    259.623 204.508967     4.7949      9.841  -118.0150 1.4153e+03    23.4530     -0.540     -0.783    14.3384 0.0000e+00
     -0.603     -0.214     0.0844      0.519    259.539 204.484197     3.4849      9.830  -115.1365 1.2961e+03    18.6844     -0.608     -0.882    14.3501 0.0000e+00
     -0.629     -0.137     0.0719      0.521    259.511 204.497741     1.0758      9.825  -114.0712 1.2307e+03     9.9698     -0.622     -0.903    14.3625 0.0000e+00
     -0.633     -0.073     0.0572      0.520    259.530 204.544805    -0.2379      9.824  -114.6849 1.1932e+03     5.1914     -0.621     -0.900    14.3735 0.0000e+00
     -0.633     -0.031     0.0533      0.530    259.570 204.605417    -0.3472      9.821  -112.0594 1.1140e+03     4.7014     -0.622     -0.901    14.3829 0.0000e+00
     -0.633     -0.008     0.0523      0.569    259.596 204.654816    -0.3206      9.808  -107.4499 9.9194e+02     3.8404     -0.621     -0.900    14.3907 0.0000e+00
     -0.633     -0.001     0.0536      0.600    259.608 204.694251    -0.2664      9.785  -102.6596 8.8691e+02     2.2965     -0.621     -0.902    14.3974 0.0000e+00
     -0.633 1.3436e-10     0.0532      0.600    259.655 204.762348    -0.2406      9.764  -101.2038 8.4787e+02     1.4744     -0.620     -0.900    14.4034 0.0000e+00
     -0.633 1.4780e-09     0.0518      0.587    259.794 204.902382    -0.2335      9.750  -111.0999 8.2590e+02     1.3815     -0.621     -0.900    14.4090 0.0000e+00
     -0.633 1.6258e-08     0.0588      0.580    259.934 205.043826    -0.1645      9.746  -135.4123 7.9582e+02     1.0366     -0.620     -0.900    14.4145 0.0000e+00
     -0.633 1.7884e-07     0.0631      0.595    260.003 205.128953    -0.0472      9.746  -145.1332 7.5287e+02     0.4123     -0.620     -0.900    14.4202 0.0000e+00
     -0.633 1.7884e-07     0.0609      0.596    260.087 205.227882     0.0121      9.741  -123.6659 6.9716e+02     0.0849     -0.620     -0.900    14.4261 0.0000e+00
     -0.633 1.6258e-08     0.0605      0.562    260.516 205.600178     0.0193      9.735  -107.0406 6.5285e+02     0.0838     -0.620     -0.900    14.4322 0.0000e+00
     -0.633 1.4780e-09     0.0571      0.526    261.283 206.239238    -0.0016      9.731  -106.3886 6.1576e+02     0.0231     -0.620     -0.900    14.4381 0.0000e+00
     -0.633 1.3436e-10     0.0615      0.524    261.803 206.684264    -0.0325      9.731  -107.3506 5.7376e+02    -0.0344     -0.620     -0.899    14.4438 0.0000e+00
     -0.633 1.2215e-11     0.0629      0.566    261.935 206.821948    -0.0375      9.740  -115.8338 5.4216e+02    -0.0298     -0.620     -0.900    14.4501 0.0000e+00
     -0.633 1.1104e-12     0.0568      0.595    261.883 206.816225    -0.0294      9.753  -126.2739 5.3352e+02    -0.0579     -0.620     -0.900    14.4566 0.0000e+00
     -0.633 1.0095e-13     0.0529      0.582    261.661 206.679098    -0.0254      9.766  -135.1527 5.3682e+02     0.0347     -0.621     -0.901    14.4633 0.0000e+00
     -0.633 9.1770e-15     0.0502      0.562    261.227 206.379751    -0.0226      9.783  -164.1634 5.5001e+02     0.2708     -0.621     -0.900    14.4698 0.0000e+00
     -0.633 8.3430e-16     0.0590      0.562    260.622 205.948300    -0.0216      9.801  -208.3390 5.8388e+02     0.4055     -0.620     -0.900    14.4761 0.0000e+00
     -0.633 7.5845e-17     0.0629      0.575    260.067 205.557559    -0.0292      9.810  -236.0688 6.4451e+02     0.4342     -0.621     -0.900    14.4826 0.0000e+00
     -0.633 6.8950e-18     0.0593      0.576    259.846 205.430452    -0.0235      9.806  -241.4959 7.2923e+02     0.6515     -0.621     -0.900    14.4899 0.0000e+00
     -0.633 6.2647e-19     0.0564      0.557    259.875 205.499248     0.0135      9.797  -240.7466 8.2887e+02     1.1543     -0.621     -0.900    14.4984 0.0000e+00
     -0.633 5.3377e-20     0.0564      0.523    259.893 205.557634     0.0529      9.787  -234.4944 9.2415e+02     1.4913     -0.621     -0.901    14.5075 0.0000e+00
     -0.633 -3.446e-20     0.0593      0.501    259.844 205.560607     0.0697      9.777  -223.2027 9.7054e+02     1.5151     -0.621     -0.901    14.5167 0.0000e+00
     -0.633 -4.355e-19     0.0590      0.507    259.760 205.535232     0.0669      9.769  -214.9527 9.3694e+02     1.4076     -0.621     -0.901    14.5258 0.0000e+00
     -0.633 -4.796e-18     0.0576      0.522    259.673 205.506813     0.0359      9.764  -204.6082 8.6629e+02     1.0804     -0.620     -0.900    14.5348 0.0000e+00
     -0.633 -5.276e-17     0.0529      0.528    259.579 205.472973     0.0109      9.761  -191.9972 8.1737e+02     0.8040     -0.621     -0.900    14.5434 0.0000e+00
     -0.633 -5.803e-16     0.0494      0.535    259.493 205.446044     0.0233      9.761  -185.1660 7.9301e+02     0.8326     -0.621     -0.901    14.5513 0.0000e+00
     -0.633 -6.384e-15     0.0515      0.538    259.429 205.437192     0.0435      9.762  -181.0355 7.7621e+02     0.7772     -0.621     -0.900    14.5589 0.0000e+00
     -0.633 -7.022e-14     0.0539      0.518    259.367 205.429973     0.0560      9.759  -175.0952 7.4912e+02     0.4760     -0.621     -0.900    14.5669 0.0000e+00
     -0.633 -7.724e-13     0.0535      0.503    259.304 205.422793     0.0580      9.756  -173.9140 6.7283e+02     0.2646     -0.621     -0.901    14.5746 0.0000e+00
     -0.633 -8.497e-12     0.0539      0.513    259.240 205.414418     0.0500      9.756  -178.2824 5.8104e+02     0.2374     -0.621     -0.900    14.5825 0.0000e+00
     -0.633 -9.346e-11     0.0566      0.529    259.157 205.392741     0.0439      9.754  -175.9458 5.6447e+02     0.2492     -0.621     -0.900    14.5906 0.0000e+00
     -0.633 -1.028e-09     0.0520      0.536    259.052 205.352701     0.0416      9.749  -162.9562 5.9383e+02     0.2361     -0.621     -0.901    14.5988 0.0000e+00
     -0.633 -1.131e-08     0.0495      0.537    258.949 205.314244     0.0394      9.747  -169.1281 6.0138e+02     0.1818     -0.621     -0.900    14.6069 0.0000e+00
     -0.633 -1.244e-07     0.0522      0.542    258.890 205.311707     0.0250      9.756  -218.7343 5.7383e+02     0.0711     -0.621     -0.900    14.6149 0.0000e+00
     -0.633 -3.649e-07     0.0542      0.555    258.847 205.322076    -0.0065      9.768  -275.0707 5.1691e+02     0.0245     -0.620     -0.900    14.6235 0.0000e+00
     -0.633 -4.105e-07     0.0548      0.576    258.777 205.311696    -0.0260      9.765  -289.7405 4.5668e+02     0.7451     -0.620     -0.900    14.6320 0.0000e+00
     -0.633 -1.742e-07     0.0542      0.582    258.724 205.314221    -0.0282      9.748  -271.6070 4.0941e+02     2.0892     -0.621     -0.900    14.6403 0.0000e+00
     -0.633 -1.583e-08     0.0552      0.567    258.715 205.352667    -0.0326      9.716  -195.5476 3.7895e+02     2.7485     -0.621     -0.900    14.6486 0.0000e+00
     -0.633 -1.439e-09     0.0553      0.557    258.708 205.392702    -0.0376      9.677   -64.1920 3.6711e+02     2.7734     -0.621     -0.901    14.6574 0.0000e+00
     -0.633 -1.308e-10     0.0594      0.572    258.676 205.414434    -0.0390      9.669     4.7620 3.6749e+02     2.9367     -0.621     -0.900    14.6662 0.0000e+00
     -0.633 -1.190e-11     0.0603      0.588    258.629 205.423532    -0.0329      9.688     2.9420 3.7117e+02     3.2201     -0.621     -0.901    14.6747 0.0000e+00
     -0.633 -1.081e-12     0.0571      0.578    258.591 205.438775    -0.0298      9.708    -4.9764 3.7450e+02     3.3644     -0.621     -0.901    14.6834 0.0000e+00
     -0.633 -9.830e-14     0.0552      0.569    258.572 205.470834    -0.0351      9.768   -36.8606 3.7689e+02     3.3837     -0.621     -0.900    14.6923 0.0000e+00
     -0.633 -8.935e-15     0.0575      0.567    258.537 205.491297    -0.0386      9.812   -46.2393 3.7750e+02     3.4193     -0.620     -0.900    14.7017 0.0000e+00
     -0.633 -8.125e-16     0.0619      0.550    258.482 205.494296    -0.0311      9.748     2.8554 3.7535e+02     3.4529     -0.621     -0.900    14.7105 0.0000e+00
     -0.633 -7.446e-17     0.0578      0.530    258.442 205.507149    -0.0024      9.687    28.8887 3.7197e+02     3.4826     -0.621     -0.901    14.7192 0.0000e+00
     -0.633 -1.343e-17     0.0570      0.524    258.429 205.518794     0.0179      9.682    24.1748 3.6948e+02     3.5048     -0.620     -0.899    14.7282 0.0000e+00
     -0.633 -9.990e-29     0.0590 -9.990e-29 -9.990e-29 -9.990e-29 -9.990e-29 -9.990e-29 -9.990e-29 3.6760e+02 -9.990e-29     -0.620     -0.900    14.7381 0.0000e+00
     -0.633 -9.990e-29     0.0554 -9.990e-29 -9.990e-29 -9.990e-29 -9.990e-29 -9.990e-29 -9.990e-29 3.6826e+02 -9.990e-29     -0.621     -0.901    14.7463 0.0000e+00
     -0.633 -9.990e-29     0.0532 -9.990e-29 -9.990e-29 -9.990e-29 -9.990e-29 -9.990e-29 -9.990e-29 3.7192e+02 -9.990e-29     -0.621     -0.900    14.7565 0.0000e+00
     -0.633 -9.990e-29     0.0528 -9.990e-29 -9.990e-29 -9.990e-29 -9.990e-29 -9.990e-29 -9.990e-29 3.7403e+02 -9.990e-29     -0.620     -0.900    14.7640 0.0000e+00
