* Sea-Bird SBE19plus  Data File:
* FileName = C:\R\Reservoirs\Data\DataNotYetUploadedToEDI\Raw_CTD\RawDownloads\060324_bvr50_S78188_0010.hex
* Software version 2.8.0.119
* Temperature SN = 8188
* Conductivity SN = 8188
* System UpLoad Time = Jun 20 2024 16:53:04
* <ApplicationData>
* <Seaterm232>
* <SoftwareVersion>2.8.0.119</SoftwareVersion>
* <BuildDate>07-Nov-2018</BuildDate>
* </Seaterm232>
* </ApplicationData>
* <InstrumentState>
* <HardwareData DeviceType='SBE19plus' SerialNumber='01908188'>
*
*    <Manufacturer>Sea-Bird Electronics, Inc.</Manufacturer>
*
*    <FirmwareVersion>3.1.8</FirmwareVersion>
*
*    <FirmwareDate>Mar  9 2016 16:22:29</FirmwareDate>
*
*    <CommandSetVersion>1.4</CommandSetVersion>
*
*    <PCBAssembly PCBSerialNum='260079' AssemblyNum='41054K'/>
*
*    <PCBAssembly PCBSerialNum='260083' AssemblyNum='41059E'/>
*
*    <PCBAssembly PCBSerialNum='260085' AssemblyNum='41606B'/>
*
*    <PCBAssembly PCBSerialNum='260081' AssemblyNum='41967C'/>
*
*    <MfgDate>30 Mar 2022</MfgDate>
*
*    <InternalSensors>
*
*       <Sensor id='Main Temperature'>
*
*          <type>temperature0</type>
*
*          <SerialNumber>01908188</SerialNumber>
*
*       </Sensor>
*
*       <Sensor id='Main Conductivity'>
*
*          <type>conductivity-0</type>
*
*          <SerialNumber>01908188</SerialNumber>
*
*       </Sensor>
*
*       <Sensor id='Main Pressure'>
*
*          <type>strain-0</type>
*
*          <SerialNumber>12220741</SerialNumber>
*
*       </Sensor>
*
*    </InternalSensors>
*
*    <ExternalSensors>
*
*       <Sensor id='volt 0'>
*
*          <type>CHL</type>
*
*          <SerialNumber>FLNTURT-7096</SerialNumber>
*
*       </Sensor>
*
*       <Sensor id='volt 1'>
*
*          <type>NTU</type>
*
*          <SerialNumber>FLNTURT-7096</SerialNumber>
*
*       </Sensor>
*
*       <Sensor id='volt 2'>
*
*          <type>OXY</type>
*
*          <SerialNumber>43-4269</SerialNumber>
*
*       </Sensor>
*
*       <Sensor id='volt 3'>
*
*          <type>not assigned</type>
*
*          <SerialNumber>not assigned</SerialNumber>
*
*       </Sensor>
*
*       <Sensor id='volt 4'>
*
*          <type>PAR</type>
*
*          <SerialNumber>PARLOGICSW-2209</SerialNumber>
*
*       </Sensor>
*
*       <Sensor id='volt 5'>
*
*          <type>not assigned</type>
*
*          <SerialNumber>not assigned</SerialNumber>
*
*       </Sensor>
*
*       <Sensor id='serial'>
*
*          <type>WETLABS</type>
*
*          <SerialNumber>FL3-7350</SerialNumber>
*
*       </Sensor>
*
*    </ExternalSensors>
*
* </HardwareData>
* <StatusData DeviceType='SBE19plus' SerialNumber='01908188'>
*
*    <DateTime>2024-06-20T13:33:46</DateTime>
*
*    <LoggingState>not logging</LoggingState>
*
*    <EventSummary numEvents='0'/>
*
*    <Power>
*
*       <vMain>12.6</vMain>
*
*       <vLith>8.6</vLith>
*
*       <iMain>61.7</iMain>
*
*       <iPump>51.2</iPump>
*
*       <iExt01>22.6</iExt01>
*
*       <iExt2345>20.4</iExt2345>
*
*       <iSerial>53.9</iSerial>
*
*    </Power>
*
*    <MemorySummary>
*
*       <Bytes>2067675</Bytes>
*
*       <Samples>82707</Samples>
*
*       <SamplesFree>2549218</SamplesFree>
*
*       <SampleLength>25</SampleLength>
*
*       <Profiles>10</Profiles>
*
*    </MemorySummary>
*
* </StatusData>
* <ConfigurationData DeviceType='SBE19plus' SerialNumber='01908188'>
*
*    <ProfileMode>
*
*       <ScansToAverage>1</ScansToAverage>
*
*       <MinimumCondFreq>2</MinimumCondFreq>
*
*       <PumpDelay>90</PumpDelay>
*
*       <AutoRun>no</AutoRun>
*
*       <IgnoreSwitch>no</IgnoreSwitch>
*
*    </ProfileMode>
*
*    <Battery>
*
*       <Type>alkaline</Type>
*
*       <CutOff>7.5</CutOff>
*
*    </Battery>
*
*    <DataChannels>
*
*       <ExtVolt0>yes</ExtVolt0>
*
*       <ExtVolt1>yes</ExtVolt1>
*
*       <ExtVolt2>yes</ExtVolt2>
*
*       <ExtVolt3>no</ExtVolt3>
*
*       <ExtVolt4>yes</ExtVolt4>
*
*       <ExtVolt5>no</ExtVolt5>
*
*       <SBE38>no</SBE38>
*
*       <WETLABS>yes</WETLABS>
*
*       <OPTODE>no</OPTODE>
*
*       <SBE63>no</SBE63>
*
*       <SeaFET>no</SeaFET>
*
*       <GTD>no</GTD>
*
*    </DataChannels>
*
*    <EchoCharacters>yes</EchoCharacters>
*
*    <OutputExecutedTag>yes</OutputExecutedTag>
*
*    <OutputFormat>raw HEX</OutputFormat>
*
* </ConfigurationData>
* <CalibrationCoefficients DeviceType='SBE19plus' SerialNumber='01908188'>
*
*    <Calibration format='TEMP1' id='Main Temperature'>
*
*       <SerialNum>01908188</SerialNum>
*
*       <CalDate>07-May-24</CalDate>
*
*       <TA0>1.249325e-03</TA0>
*
*       <TA1>2.751683e-04</TA1>
*
*       <TA2>-1.314205e-06</TA2>
*
*       <TA3>1.914222e-07</TA3>
*
*       <TOFFSET>0.000000e+00</TOFFSET>
*
*    </Calibration>
*
*    <Calibration format='WBCOND0' id='Main Conductivity'>
*
*       <SerialNum>01908188</SerialNum>
*
*       <CalDate>07-May-24</CalDate>
*
*       <G>-1.014855e+00</G>
*
*       <H>1.444624e-01</H>
*
*       <I>-3.430060e-04</I>
*
*       <J>4.842261e-05</J>
*
*       <CPCOR>-9.570000e-08</CPCOR>
*
*       <CTCOR>3.250000e-06</CTCOR>
*
*       <CSLOPE>1.000000e+00</CSLOPE>
*
*    </Calibration>
*
*    <Calibration format='STRAIN0' id='Main Pressure'>
*
*       <SerialNum>12220741</SerialNum>
*
*       <CalDate>03-Apr-24</CalDate>
*
*       <PA0>7.209200e-02</PA0>
*
*       <PA1>4.836684e-04</PA1>
*
*       <PA2>-3.501227e-12</PA2>
*
*       <PTCA0>5.244614e+05</PTCA0>
*
*       <PTCA1>2.020364e+01</PTCA1>
*
*       <PTCA2>-6.074616e-01</PTCA2>
*
*       <PTCB0>2.522087e+01</PTCB0>
*
*       <PTCB1>5.750000e-04</PTCB1>
*
*       <PTCB2>0.000000e+00</PTCB2>
*
*       <PTEMPA0>-5.770713e+01</PTEMPA0>
*
*       <PTEMPA1>5.343973e+01</PTEMPA1>
*
*       <PTEMPA2>-5.775530e-01</PTEMPA2>
*
*       <POFFSET>7.020000e-01</POFFSET>
*
*       <PRANGE>1.600000e+02</PRANGE>
*
*    </Calibration>
*
*    <Calibration format='VOLT0' id='Volt 0'>
*
*       <OFFSET>-4.657200e-02</OFFSET>
*
*       <SLOPE>1.248989e+00</SLOPE>
*
*    </Calibration>
*
*    <Calibration format='VOLT0' id='Volt 1'>
*
*       <OFFSET>-4.600800e-02</OFFSET>
*
*       <SLOPE>1.249849e+00</SLOPE>
*
*    </Calibration>
*
*    <Calibration format='VOLT0' id='Volt 2'>
*
*       <OFFSET>-4.668000e-02</OFFSET>
*
*       <SLOPE>1.250379e+00</SLOPE>
*
*    </Calibration>
*
*    <Calibration format='VOLT0' id='Volt 3'>
*
*       <OFFSET>-4.643200e-02</OFFSET>
*
*       <SLOPE>1.251002e+00</SLOPE>
*
*    </Calibration>
*
*    <Calibration format='VOLT0' id='Volt 4'>
*
*       <OFFSET>-4.606100e-02</OFFSET>
*
*       <SLOPE>1.249962e+00</SLOPE>
*
*    </Calibration>
*
*    <Calibration format='VOLT0' id='Volt 5'>
*
*       <OFFSET>-4.642700e-02</OFFSET>
*
*       <SLOPE>1.248530e+00</SLOPE>
*
*    </Calibration>
*
*    <Calibration format='FREQ0' id='external frequency channel'>
*
*       <EXTFREQSF>1.000018e+00</EXTFREQSF>
*
*    </Calibration>
*
* </CalibrationCoefficients>
* <EventCounters DeviceType='SBE19plus' SerialNumber='01908188'>
*
*    <EventSummary numEvents='0'/>
*
* </EventCounters></InstrumentState>
* <Headers>
*
* cast  10 19 Jun 2024 07:17:56 samples 81733 to 82707, avg = 1, stop = mag switch
*
# nquan = 16
# nvalues = 975                         
# units = specified
# name 0 = depFM: Depth [fresh water, m]
# name 1 = dz/dtM: Descent Rate [m/s]
# name 2 = sbeox0Mg/L: Oxygen, SBE 43 [mg/l]
# name 3 = sbeox0PS: Oxygen, SBE 43 [% saturation]
# name 4 = specc: Specific Conductance [uS/cm]
# name 5 = c0uS/cm: Conductivity [uS/cm]
# name 6 = wetCDOM: Fluorescence, WET Labs CDOM [mg/m^3]
# name 7 = flECO-AFL: Fluorescence, WET Labs ECO-AFL/FL [mg/m^3]
# name 8 = flECO-AFL1: Fluorescence, WET Labs ECO-AFL/FL, 2 [mg/m^3]
# name 9 = flECO-AFL2: Fluorescence, WET Labs ECO-AFL/FL, 3 [mg/m^3]
# name 10 = par/sat/log: PAR/Logarithmic, Satlantic
# name 11 = turbWETntu0: Turbidity, WET Labs ECO [NTU]
# name 12 = prdM: Pressure, Strain Gauge [db]
# name 13 = prdE: Pressure, Strain Gauge [psi]
# name 14 = tv290C: Temperature [ITS-90, deg C]
# name 15 = flag:  0.000e+00
# span 0 =     -0.344,      5.344       
# span 1 =     -0.363,      0.109       
# span 2 =     4.5736,     9.2447       
# span 3 =     56.043,    114.132       
# span 4 =   -461.691,    118.537       
# span 5 =-468.338317, 121.260679       
# span 6 =    -4.5000,    30.0600       
# span 7 =    -1.0094,   245.1301       
# span 8 =    -3.1950,     0.3408       
# span 9 =    -2.0304,    11.4633       
# span 10 = 1.0556e+02, 2.9424e+03      
# span 11 =   -10.3855,    35.5531      
# span 12 =     -0.337,      5.240      
# span 13 =     -0.489,      7.600      
# span 14 =    21.2080,    26.3463      
# span 15 = 0.0000e+00, 0.0000e+00      
# interval = seconds: 0.25
# start_time = Jun 19 2024 07:17:56 [Instrument's time stamp, header]
# bad_flag = -9.990e-29
# <Sensors count="10" >
#   <sensor Channel="1" >
#     <!-- Count, Temperature -->
#     <TemperatureSensor SensorID="58" >
#       <SerialNumber>8188</SerialNumber>
#       <CalibrationDate>07-May-24</CalibrationDate>
#       <A0>1.24932504e-003</A0>
#       <A1>2.75168293e-004</A1>
#       <A2>-1.31420465e-006</A2>
#       <A3>1.91422179e-007</A3>
#       <Slope>1.00000000</Slope>
#       <Offset>0.0000</Offset>
#     </TemperatureSensor>
#   </sensor>
#   <sensor Channel="2" >
#     <!-- Frequency 0, Conductivity -->
#     <ConductivitySensor SensorID="3" >
#       <SerialNumber>8188</SerialNumber>
#       <CalibrationDate>07-May-24</CalibrationDate>
#       <UseG_J>1</UseG_J>
#       <!-- Cell const and series R are applicable only for wide range sensors. -->
#       <SeriesR>0.0000</SeriesR>
#       <CellConst>2000.0000</CellConst>
#       <ConductivityType>0</ConductivityType>
#       <Coefficients equation="0" >
#         <A>0.00000000e+000</A>
#         <B>0.00000000e+000</B>
#         <C>0.00000000e+000</C>
#         <D>0.00000000e+000</D>
#         <M>0.0</M>
#         <CPcor>-9.57000000e-008</CPcor>
#       </Coefficients>
#       <Coefficients equation="1" >
#         <G>-1.01485473e+000</G>
#         <H>1.44462400e-001</H>
#         <I>-3.43006030e-004</I>
#         <J>4.84226116e-005</J>
#         <CPcor>-9.57000000e-008</CPcor>
#         <CTcor>3.2500e-006</CTcor>
#         <!-- WBOTC not applicable unless ConductivityType = 1. -->
#         <WBOTC>0.00000000e+000</WBOTC>
#       </Coefficients>
#       <Slope>1.00000000</Slope>
#       <Offset>0.00000</Offset>
#     </ConductivitySensor>
#   </sensor>
#   <sensor Channel="3" >
#     <!-- Count, Pressure, Strain Gauge -->
#     <PressureSensor SensorID="46" >
#       <SerialNumber>8188</SerialNumber>
#       <CalibrationDate>03-Apr-24</CalibrationDate>
#       <PA0>7.20920045e-002</PA0>
#       <PA1>4.83668449e-004</PA1>
#       <PA2>-3.50122678e-012</PA2>
#       <PTEMPA0>-5.77071299e+001</PTEMPA0>
#       <PTEMPA1>5.34397285e+001</PTEMPA1>
#       <PTEMPA2>-5.77553003e-001</PTEMPA2>
#       <PTCA0>5.24461366e+005</PTCA0>
#       <PTCA1>2.02036405e+001</PTCA1>
#       <PTCA2>-6.07461634e-001</PTCA2>
#       <PTCB0>2.52208750e+001</PTCB0>
#       <PTCB1>5.75000000e-004</PTCB1>
#       <PTCB2>0.00000000e+000</PTCB2>
#       <Offset>0.000000</Offset>
#     </PressureSensor>
#   </sensor>
#   <sensor Channel="4" >
#     <!-- A/D voltage 0, Fluorometer, WET Labs ECO-AFL/FL -->
#     <FluoroWetlabECO_AFL_FL_Sensor SensorID="20" >
#       <SerialNumber>FLNTURT-7096</SerialNumber>
#       <CalibrationDate>21-Mar-2024</CalibrationDate>
#       <ScaleFactor>5.00000000e+001</ScaleFactor>
#       <!-- Dark output -->
#       <Vblank>0.0710</Vblank>
#     </FluoroWetlabECO_AFL_FL_Sensor>
#   </sensor>
#   <sensor Channel="5" >
#     <!-- A/D voltage 1, Turbidity Meter, WET Labs, ECO-NTU -->
#     <TurbidityMeter SensorID="67" >
#       <SerialNumber>FLNTURT-7096</SerialNumber>
#       <CalibrationDate>21-Mar-2024</CalibrationDate>
#       <ScaleFactor>198.000000</ScaleFactor>
#       <!-- Dark output -->
#       <DarkVoltage>0.070000</DarkVoltage>
#     </TurbidityMeter>
#   </sensor>
#   <sensor Channel="6" >
#     <!-- A/D voltage 2, Oxygen, SBE 43 -->
#     <OxygenSensor SensorID="38" >
#       <SerialNumber>4269</SerialNumber>
#       <CalibrationDate>08-May-24</CalibrationDate>
#       <Use2007Equation>1</Use2007Equation>
#       <CalibrationCoefficients equation="0" >
#         <!-- Coefficients for Owens-Millard equation. -->
#         <Boc>0.0000</Boc>
#         <Soc>0.0000e+000</Soc>
#         <offset>0.0000</offset>
#         <Pcor>0.00e+000</Pcor>
#         <Tcor>0.0000</Tcor>
#         <Tau>0.0</Tau>
#       </CalibrationCoefficients>
#       <CalibrationCoefficients equation="1" >
#         <!-- Coefficients for Sea-Bird equation - SBE calibration in 2007 and later. -->
#         <Soc>4.3983e-001</Soc>
#         <offset>-0.4978</offset>
#         <A>-4.5504e-003</A>
#         <B> 2.4929e-004</B>
#         <C>-4.1306e-006</C>
#         <D0> 2.5826e+000</D0>
#         <D1> 1.92634e-004</D1>
#         <D2>-4.64803e-002</D2>
#         <E> 3.6000e-002</E>
#         <Tau20> 1.9700</Tau20>
#         <H1>-3.3000e-002</H1>
#         <H2> 5.0000e+003</H2>
#         <H3> 1.4500e+003</H3>
#       </CalibrationCoefficients>
#     </OxygenSensor>
#   </sensor>
#   <sensor Channel="7" >
#     <!-- A/D voltage 3, PAR/Logarithmic, Satlantic -->
#     <PARLog_SatlanticSensor SensorID="76" >
#       <SerialNumber>2209</SerialNumber>
#       <CalibrationDate>14-Jan-2022</CalibrationDate>
#       <a0>9.8861e-001</a0>
#       <a1>8.0845e-001</a1>
#       <Im>1.3589e+000</Im>
#       <Multiplier>1.0000e+000</Multiplier>
#     </PARLog_SatlanticSensor>
#   </sensor>
#   <sensor Channel="8" >
#     <!-- Serial RS-232, Fluorometer, WET Labs ECO-AFL/FL, 2 -->
#     <FluoroWetlabECO_AFL_FL_Sensor SensorID="20" >
#       <SerialNumber>FL3-7350</SerialNumber>
#       <CalibrationDate>10-Mar-2022</CalibrationDate>
#       <ScaleFactor>4.26000000e-002</ScaleFactor>
#       <!-- Dark output -->
#       <Vblank>50.0000</Vblank>
#     </FluoroWetlabECO_AFL_FL_Sensor>
#   </sensor>
#   <sensor Channel="9" >
#     <!-- Serial RS-232, Fluorometer, WET Labs ECO-AFL/FL, 3 -->
#     <FluoroWetlabECO_AFL_FL_Sensor SensorID="20" >
#       <SerialNumber>FL3-7350</SerialNumber>
#       <CalibrationDate>10-Mar-2022</CalibrationDate>
#       <ScaleFactor>4.23000000e-002</ScaleFactor>
#       <!-- Dark output -->
#       <Vblank>48.0000</Vblank>
#     </FluoroWetlabECO_AFL_FL_Sensor>
#   </sensor>
#   <sensor Channel="10" >
#     <!-- Serial RS-232, Fluorometer, WET Labs ECO CDOM -->
#     <FluoroWetlabCDOM_Sensor SensorID="19" >
#       <SerialNumber>FL3-7350</SerialNumber>
#       <CalibrationDate>10-Mar-2022</CalibrationDate>
#       <ScaleFactor>0.090</ScaleFactor>
#       <!-- Dark output -->
#       <Vblank>50.000</Vblank>
#     </FluoroWetlabCDOM_Sensor>
#   </sensor>
# </Sensors>
# datcnv_date = Jun 21 2024 10:11:47, 7.26.7.129 [datcnv_vars = 15]
# datcnv_in = C:\R\Reservoirs\Data\DataNotYetUploadedToEDI\Raw_CTD\RawDownloads\061924_ccr90_S78188010.hex C:\R\Reservoirs\Data\DataNotYetUploadedToEDI\Raw_CTD\RawDownloads\SBE19plusV2_8188_start20240601.xmlcon
# datcnv_skipover = 0
# datcnv_ox_hysteresis_correction = yes
# datcnv_ox_tau_correction = yes
# filter_date = Jun 21 2024 10:12:19, 7.26.7.129
# filter_in = C:\R\Reservoirs\Data\DataNotYetUploadedToEDI\Raw_CTD\RawDownloads\061924_ccr90_S78188010.cnv
# filter_low_pass_tc_A = 0.500
# filter_low_pass_tc_B = 1.000
# filter_low_pass_A_vars = sbeox0Mg/L sbeox0PS specc c0uS/cm tv290C
# filter_low_pass_B_vars = depFM dz/dtM prdM prdE
# alignctd_date = Jun 21 2024 10:13:02, 7.26.7.129
# alignctd_in = C:\R\Reservoirs\Data\DataNotYetUploadedToEDI\Raw_CTD\RawDownloads\061924_ccr90_S78188010.cnv
# alignctd_adv = dz/dtM 1.000, sbeox0PS 1.000, specc 1.000, c0uS/cm 1.000, flECO-AFL 1.000, turbWETntu0 1.000                                                                                                                        
# file_type = ascii
*END*
     -0.050      0.093     7.1855     87.457    114.159 116.302807    -4.5000    -1.0094    -2.1300    -2.0304 1.7815e+03    -3.9351     -0.049     -0.071    24.8819 0.0000e+00
     -0.022      0.103     7.1525     87.799    113.842 116.260785    -4.5000    -1.0094    -2.1300    -2.0304 1.7646e+03    -3.9955     -0.021     -0.031    25.1791 0.0000e+00
      0.009      0.108     7.1219     88.186    113.612 116.197602    -4.5000    -0.9979    -2.1300    -2.0304 1.8334e+03    -3.9955      0.009      0.013    25.4913 0.0000e+00
      0.040      0.109     7.1041     88.582    113.484 116.164408    10.5300     0.1236     0.1278     3.2148 1.8587e+03    -0.0678      0.040      0.057    25.7498 0.0000e+00
      0.070      0.105     7.1019     88.954    113.434 116.164351    10.5300     0.1236     0.1278     3.2148 1.9102e+03    -0.0527      0.069      0.099    25.9362 0.0000e+00
      0.097      0.098     7.1138     89.276    113.404 116.153417    10.5300     0.1160     0.1278     3.2148 1.1675e+03    -0.0225      0.095      0.137    26.0587 0.0000e+00
      0.120      0.090     7.1354     89.533    113.368 116.114690    10.5300     0.1160     0.1278     3.2148 1.5258e+03    -0.0225      0.118      0.171    26.1332 0.0000e+00
      0.140      0.082     7.1618     89.731    113.335 116.067840    10.5300    -0.0023     0.1278     3.2148 1.8065e+03     0.0530      0.138      0.200    26.1758 0.0000e+00
      0.159      0.076     7.1890     89.884    113.321 116.040369    14.8500    -0.0099     0.0426    -0.3384 1.2545e+03     0.0681      0.156      0.226    26.1980 0.0000e+00
      0.177      0.070     7.2139     90.008    113.356 116.066949    14.8500     0.0015     0.0426    -0.3384 2.4134e+03    -0.0980      0.174      0.252    26.2062 0.0000e+00
      0.194      0.064     7.2349     90.109    113.434 116.148665    14.8500     0.0015     0.0426    -0.3384 4.5732e+02    -0.0074      0.191      0.277    26.2050 0.0000e+00
      0.211      0.057     7.2516     90.188    113.504 116.231313    14.8500     0.1007     0.0426    -0.3384 1.0436e+03    -0.0225      0.207      0.301    26.1994 0.0000e+00
      0.227      0.049     7.2648     90.243    113.524 116.266935    13.6800     0.1122     0.0426     0.0846 1.0432e+03    -0.0678      0.223      0.323    26.1933 0.0000e+00
      0.239      0.039     7.2753     90.269    113.509 116.265033    13.6800     0.1236     0.0426     0.0846 1.1619e+03    -0.0225      0.235      0.340    26.1895 0.0000e+00
      0.247      0.030     7.2834     90.261    113.504 116.271099    13.6800     0.1198     0.0426     0.0846 1.5415e+03    -0.0074      0.243      0.352    26.1902 0.0000e+00
      0.252      0.020     7.2891     90.226    113.526 116.308749    13.6800     0.0435     0.0426     0.0846 8.4529e+02    -0.0527      0.248      0.359    26.1952 0.0000e+00
      0.255      0.011     7.2927     90.182    113.566 116.370024    13.2300     0.0664     0.0426     0.0846 9.0184e+02    -0.0074      0.251      0.363    26.2017 0.0000e+00
      0.256      0.004     7.2940     90.150    113.610 116.441266    13.2300     0.0664     0.0426     0.0846 1.3251e+03    -0.0376      0.252      0.365    26.2075 0.0000e+00
      0.256     -0.002     7.2927     90.160    113.644 116.505476    13.2300     0.0588     0.0426     0.0846 1.7099e+03    -0.0225      0.252      0.365    26.2127 0.0000e+00
      0.255     -0.007     7.2891     90.261    113.647 116.541779    13.2300     0.1007     0.0426     0.0846 1.2109e+03    -0.0376      0.250      0.363    26.2190 0.0000e+00
      0.253     -0.011     7.2843     90.521    113.596 116.523857    13.2300     0.1236     0.0426     0.0846 1.0622e+03    -0.0376      0.248      0.360    26.2280 0.0000e+00
      0.249     -0.014     7.2802     90.946    113.457 116.416933    13.3200     0.1160     0.0000    -0.1269 1.1473e+03    -0.0376      0.245      0.355    26.2396 0.0000e+00
      0.244     -0.016     7.2792     91.378    113.199 116.184496    13.3200     0.1045     0.0000    -0.1269 5.1169e+02    -0.0829      0.240      0.348    26.2528 0.0000e+00
      0.239     -0.017     7.2855     91.530    112.780 115.782566    13.3200     0.0626     0.0000    -0.1269 1.3876e+03     0.0228      0.235      0.341    26.2672 0.0000e+00
      0.234     -0.017     7.3044     91.158    112.109 115.113961    13.3200     0.0473     0.0000    -0.1269 7.5793e+02    -0.0678      0.230      0.334    26.2824 0.0000e+00
      0.230     -0.016     7.3367     90.177    111.002 113.990389    13.3200     0.0511     0.0852     0.0846 8.5471e+02    -0.0074      0.226      0.328    26.2980 0.0000e+00
      0.226     -0.014     7.3696     88.665    109.159 112.106231    13.3200     0.0359     0.0852     0.0846 6.6891e+02    -0.0678      0.222      0.322    26.3127 0.0000e+00
      0.223     -0.012     7.3802     86.796    106.083 108.951045    13.3200     0.1084     0.0852     0.0846 1.2927e+03    -0.2189      0.218      0.317    26.3249 0.0000e+00
      0.220     -0.009     7.3490     84.794    100.953 103.683448    13.3200     0.1198     0.0852     0.0846 1.2222e+03    -0.2340      0.215      0.313    26.3340 0.0000e+00
      0.218     -0.006     7.2691     82.931     92.422  94.920748    13.2300     0.1351     0.0852     0.0423 1.4392e+03    -0.3246      0.213      0.310    26.3402 0.0000e+00
      0.217     -0.003     7.1467     81.483     78.238  80.350222    13.2300     0.1198     0.0852     0.0423 1.3534e+03    -0.2340      0.212      0.308    26.3440 0.0000e+00
      0.217      0.000     6.9958     80.611     54.633  56.104399    13.2300     0.1045     0.0852     0.0423 1.2835e+03    -0.4304      0.212      0.308    26.3458 0.0000e+00
      0.217      0.003     6.8344     80.292     15.332  15.737724    13.2300     0.1312     0.0852     0.0423 1.3428e+03    -0.3246      0.213      0.308    26.3463 0.0000e+00
      0.219      0.005     6.6843     80.350    -50.139 -51.506251    13.2300     0.1351     0.0852     0.0423 1.3154e+03    -0.3095      0.214      0.310    26.3459 0.0000e+00
      0.220      0.008     6.5677     80.572   -159.264-163.585250    13.2300     0.0931     0.0852     0.0423 1.0019e+03    -0.3246      0.216      0.313    26.3449 0.0000e+00
      0.223      0.010     6.4976     80.786   -341.170-350.415008    13.2300     0.1045     0.0852     0.0423 9.6133e+02    -0.0376      0.218      0.316    26.3440 0.0000e+00
      0.225      0.012     6.4719     80.862   -454.848-467.170619    13.2300     0.1084     0.0852     0.0423 8.9715e+02    -0.0376      0.221      0.320    26.3434 0.0000e+00
      0.228      0.013     6.4766     80.724   -341.101-350.342740    13.2300     0.1312     0.0852     0.0423 9.0302e+02    -0.0527      0.224      0.325    26.3434 0.0000e+00
      0.232      0.015     6.4946     80.397   -159.132-163.445443    13.2300     0.1198     0.0426     0.0846 2.1786e+03    -0.0074      0.228      0.330    26.3439 0.0000e+00
      0.236      0.016     6.5120     80.007    -49.951 -51.307622    13.2300     0.1084     0.0426     0.0846 9.7607e+02    -0.0829      0.232      0.336    26.3446 0.0000e+00
      0.241      0.016     6.5181     79.693     15.546  15.962144    13.2300     0.1045     0.0426     0.0846 1.0270e+03    -0.0678      0.236      0.343    26.3449 0.0000e+00
      0.245      0.016     6.5069     79.504     54.822  56.298458    13.2300     0.0931     0.0426     0.0846 1.0236e+03    -0.1736      0.240      0.349    26.3452 0.0000e+00
      0.250      0.016     6.4803     79.388     78.365  80.473671    13.0500     0.1236     0.0852     0.2538 1.0541e+03    -0.0074      0.245      0.355    26.3457 0.0000e+00
      0.254      0.015     6.4488     79.272     92.481  94.966505    13.0500     0.1122     0.0852     0.2538 1.1130e+03    -0.0376      0.249      0.360    26.3461 0.0000e+00
      0.257      0.014     6.4234     79.151    100.953 103.663716    13.0500     0.1236     0.0852     0.2538 1.1941e+03    -0.0980      0.252      0.366    26.3455 0.0000e+00
      0.261      0.013     6.4084     79.093    106.046 108.892558    13.0500     0.1160     0.0852     0.2538 9.4456e+02    -0.0376      0.256      0.370    26.3439 0.0000e+00
      0.264      0.013     6.3992     79.153    109.117 112.045391    13.1400     0.1236     0.0852     0.1692 1.2688e+03    -0.0225      0.259      0.375    26.3417 0.0000e+00
      0.267      0.013     6.3901     79.327    110.970 113.948969    13.1400     0.0969     0.0852     0.1692 9.9038e+02    -0.0980      0.261      0.379    26.3394 0.0000e+00
      0.270      0.014     6.3806     79.564    112.086 115.094914    13.1400     0.1160     0.0852     0.1692 9.1090e+02    -0.0225      0.264      0.383    26.3376 0.0000e+00
      0.273      0.014     6.3760     79.826    112.757 115.782811    13.1400     0.1503     0.0852     0.1692 1.0534e+03    -0.0376      0.268      0.388    26.3365 0.0000e+00
      0.277      0.016     6.3810     80.103    113.162 116.196099    13.3200     0.0969     0.0000     0.0423 1.0916e+03    -0.0225      0.271      0.393    26.3362 0.0000e+00
      0.281      0.017     6.3949     80.407    113.409 116.444989    13.3200     0.1236     0.0000     0.0423 1.1980e+03     0.1286      0.275      0.399    26.3363 0.0000e+00
      0.285      0.019     6.4140     80.763    113.555 116.587852    13.3200     0.1312     0.0000     0.0423 7.8971e+02    -0.0527      0.279      0.405    26.3363 0.0000e+00
      0.290      0.020     6.4353     81.159    113.631 116.654783    13.3200     0.1007     0.0000     0.0423 5.3745e+02    -0.0527      0.285      0.413    26.3358 0.0000e+00
      0.296      0.020     6.4577     81.549    113.667 116.677631    13.3200     0.1084     0.0000     0.0423 4.8358e+02    -0.0678      0.290      0.421    26.3344 0.0000e+00
      0.302      0.018     6.4825     81.893    113.687 116.684487    13.2300     0.1160     0.0426     0.0423 3.6856e+02    -0.0678      0.296      0.430    26.3323 0.0000e+00
      0.308      0.013     6.5116     82.171    113.709 116.697177    13.2300     0.1007     0.0426     0.0423 3.9015e+02    -0.0074      0.302      0.438    26.3291 0.0000e+00
      0.312      0.008     6.5440     82.374    113.761 116.741084    13.2300     0.1236     0.0426     0.0423 9.1506e+02    -0.0527      0.306      0.444    26.3243 0.0000e+00
      0.314      0.001     6.5762     82.528    113.830 116.803919    13.2300     0.1198     0.0426     0.0423 8.4364e+02    -0.0376      0.308      0.446    26.3181 0.0000e+00
      0.313     -0.005     6.6047     82.710    113.864 116.830437    13.7700     0.1236     0.1278     0.0846 1.0603e+03    -0.0074      0.307      0.445    26.3121 0.0000e+00
      0.309     -0.009     6.6277     83.000    113.833 116.785709    13.7700     0.1045     0.1278     0.0846 1.0726e+03    -0.0829      0.303      0.440    26.3074 0.0000e+00
      0.303     -0.011     6.6445     83.417    113.768 116.699809    13.7700     0.1312     0.1278     0.0846 1.4280e+03    -0.0376      0.298      0.432    26.3036 0.0000e+00
      0.298     -0.010     6.6573     83.912    113.731 116.629829    13.7700     0.1084     0.1278     0.0846 1.1657e+03    -0.0376      0.292      0.424    26.3001 0.0000e+00
      0.295     -0.007     6.6725     84.420    113.730 116.583105    13.5000     0.1160     0.0426     0.0846 1.1934e+03    -0.0074      0.290      0.420    26.2962 0.0000e+00
      0.295     -0.004     6.6966     84.888    113.747 116.543176    13.5000     0.1045     0.0426     0.0846 1.0962e+03    -0.0527      0.289      0.420    26.2906 0.0000e+00
      0.296     -0.001     6.7313     85.266    113.773 116.511390    13.5000     0.1160     0.0426     0.0846 1.1621e+03    -0.0376      0.290      0.421    26.2819 0.0000e+00
      0.298      0.000     6.7730     85.469    113.795 116.491266    13.5000     0.1045     0.0426     0.0846 1.8438e+03     0.0077      0.292      0.424    26.2681 0.0000e+00
      0.298     -0.001     6.8165     85.391    113.804 116.477433    13.5000     0.1312     0.0426     0.0846 8.4053e+02     0.0228      0.293      0.425    26.2480 0.0000e+00
      0.298     -0.003     6.8575     84.944    113.782 116.450203    13.5000     0.0588     0.0426     0.1692 9.1626e+02    -0.0376      0.292      0.424    26.2227 0.0000e+00
      0.297     -0.006     6.8911     84.103    113.733 116.402316    13.5000     0.0549     0.0426     0.1692 1.0938e+03    -0.0829      0.291      0.422    26.1974 0.0000e+00
      0.295     -0.010     6.9099     82.928    113.690 116.361002    13.5000     0.0435     0.0426     0.1692 1.1246e+03    -0.0376      0.289      0.419    26.1784 0.0000e+00
      0.292     -0.013     6.9048     81.529    113.675 116.347244    13.5000     0.0244     0.0426     0.1692 1.1697e+03     0.0228      0.286      0.415    26.1686 0.0000e+00
      0.288     -0.015     6.8689     80.037    113.674 116.349373    13.5900     0.1274     0.0426    -0.0423 1.0067e+03    -0.1131      0.283      0.410    26.1663 0.0000e+00
      0.284     -0.017     6.8008     78.600    113.666 116.343957    13.5900     0.1198     0.0426    -0.0423 1.1421e+03     0.0228      0.278      0.403    26.1671 0.0000e+00
      0.278     -0.017     6.7056     77.355    113.636 116.313554    13.5900     0.1084     0.0426    -0.0423 7.7307e+02    -0.0074      0.273      0.396    26.1682 0.0000e+00
      0.273     -0.015     6.5924     76.381    113.598 116.266057    13.5900     0.1236     0.0426    -0.0423 1.0993e+03    -0.0376      0.267      0.388    26.1692 0.0000e+00
      0.268     -0.013     6.4716     75.696    113.584 116.228799    13.4100     0.1045     0.0000     0.0846 1.3358e+03    -0.0678      0.263      0.381    26.1704 0.0000e+00
      0.265     -0.010     6.3553     75.274    113.602 116.207843    13.4100     0.1045     0.0000     0.0846 7.7156e+02    -0.0829      0.260      0.377    26.1718 0.0000e+00
      0.264     -0.007     6.2545     75.074    113.638 116.193599    13.4100     0.0931     0.0000     0.0846 1.4028e+03    -0.0074      0.259      0.376    26.1720 0.0000e+00
      0.263     -0.005     6.1762     75.047    113.677 116.182264    13.4100     0.1236     0.0000     0.0846 1.1060e+03    -0.0527      0.258      0.375    26.1682 0.0000e+00
      0.263     -0.003     6.1219     75.121    113.695 116.162812    13.4100     0.1236     0.0426     0.0846 9.4251e+02     0.0228      0.258      0.374    26.1582 0.0000e+00
      0.262     -0.003     6.0897     75.210    113.686 116.128052    13.4100     0.1045     0.0426     0.0846 1.5153e+03     0.0228      0.257      0.373    26.1408 0.0000e+00
      0.262     -0.002     6.0760     75.240    113.667 116.092715    13.4100     0.1236     0.0426     0.0846 1.1996e+03    -0.0376      0.256      0.372    26.1181 0.0000e+00
      0.261     -0.002     6.0763     75.169    113.653 116.069377    13.4100     0.0931     0.0426     0.0846 1.2140e+03    -0.0527      0.256      0.371    26.0958 0.0000e+00
      0.260     -0.002     6.0842     74.998    113.640 116.051813    13.4100     0.1656     0.0426     0.0846 1.2075e+03    -0.1585      0.255      0.371    26.0789 0.0000e+00
      0.260     -0.001     6.0926     74.763    113.627 116.035341    13.3200     0.1656     0.0852     0.1692 1.4040e+03    -0.2642      0.255      0.370    26.0679 0.0000e+00
      0.259     -0.000     6.0958     74.512    113.613 116.019567    13.3200     0.1808     0.0852     0.1692 1.0813e+03    -0.2340      0.254      0.369    26.0609 0.0000e+00
      0.259      0.001     6.0905     74.256    113.604 116.004286    13.3200     0.1846     0.0852     0.1692 1.3355e+03    -0.2944      0.254      0.369    26.0568 0.0000e+00
      0.260      0.002     6.0768     73.964    113.607 115.993423    13.3200     0.1236     0.0852     0.1692 1.3795e+03    -0.0074      0.254      0.369    26.0546 0.0000e+00
      0.261      0.004     6.0579     73.594    113.621 115.984081    13.3200     0.0931     0.0000     0.1269 1.3581e+03    -0.0376      0.255      0.371    26.0536 0.0000e+00
      0.262      0.005     6.0377     73.136    113.642 115.973767    13.3200     0.0855     0.0000     0.1269 8.9598e+02     0.0228      0.257      0.373    26.0527 0.0000e+00
      0.264      0.005     6.0172     72.632    113.664 115.963728    13.3200     0.1007     0.0000     0.1269 8.1145e+02    -0.0527      0.259      0.376    26.0501 0.0000e+00
      0.265      0.005     5.9942     72.140    113.674 115.947284    13.3200     0.2037     0.0000     0.1269 1.1506e+03    -0.1585      0.260      0.378    26.0440 0.0000e+00
      0.266      0.005     5.9654     71.689    113.671 115.924050    13.2300     0.1808     0.0852     0.0846 1.0926e+03    -0.3549      0.261      0.379    26.0335 0.0000e+00
      0.267      0.005     5.9298     71.261    113.670 115.903828    13.2300     0.1846     0.0852     0.0846 1.0523e+03    -0.2491      0.262      0.380    26.0196 0.0000e+00
      0.269      0.004     5.8904     70.826    113.679 115.889225    13.2300     0.1846     0.0852     0.0846 1.4286e+03    -0.1434      0.263      0.382    26.0053 0.0000e+00
      0.270      0.003     5.8517     70.370    113.701 115.880348    13.2300     0.0931     0.0852     0.0846 1.1962e+03    -0.0527      0.265      0.384    25.9939 0.0000e+00
      0.271      0.001     5.8160     69.907    113.733 115.878826    13.2300     0.0969     0.0852     0.0846 1.2418e+03    -0.0074      0.266      0.386    25.9851 0.0000e+00
      0.272      0.000     5.7823     69.467    113.759 115.876251    13.2300     0.1084     0.0426     0.1269 1.2257e+03    -0.0678      0.266      0.386    25.9764 0.0000e+00
      0.271     -0.002     5.7480     69.098    113.769 115.867935    13.2300     0.0855     0.0426     0.1269 8.9773e+02     0.0228      0.265      0.386    25.9658 0.0000e+00
      0.270     -0.003     5.7124     68.837    113.773 115.859659    13.2300     0.1656     0.0426     0.1269 9.8523e+02    -0.0074      0.264      0.384    25.9522 0.0000e+00
      0.268     -0.003     5.6764     68.677    113.774 115.849216    13.2300     0.1694     0.0426     0.1269 8.7748e+02     0.0228      0.263      0.382    25.9371 0.0000e+00
      0.267     -0.003     5.6420     68.575    113.775 115.833822    13.4100     0.1541     0.0000     0.0000 7.9903e+02     0.0228      0.262      0.380    25.9243 0.0000e+00
      0.267     -0.002     5.6129     68.488    113.781 115.817372    13.4100     0.1656     0.0000     0.0000 5.0287e+02    -0.0225      0.262      0.380    25.9162 0.0000e+00
      0.267     -0.002     5.5923     68.401    113.792 115.803477    13.4100     0.1694     0.0000     0.0000 4.7432e+02     0.0228      0.262      0.380    25.9109 0.0000e+00
      0.267     -0.001     5.5798     68.321    113.806 115.796428    13.4100     0.1846     0.0000     0.0000 3.3473e+02    -0.0074      0.262      0.380    25.9057 0.0000e+00
      0.267     -0.001     5.5722     68.278    113.816 115.794344    13.3200     0.1732     0.0852    -0.0423 3.0481e+02    -0.0980      0.261      0.379    25.8986 0.0000e+00
      0.266     -0.001     5.5662     68.306    113.816 115.788670    13.3200     0.1503     0.0852    -0.0423 2.9580e+02    -0.0980      0.261      0.379    25.8887 0.0000e+00
      0.266     -0.001     5.5602     68.412    113.809 115.777893    13.3200     0.1846     0.0852    -0.0423 4.5198e+02    -0.0678      0.260      0.378    25.8775 0.0000e+00
      0.265     -0.000     5.5546     68.565    113.805 115.767140    13.3200     0.1846     0.0852    -0.0423 9.0439e+02    -0.0376      0.260      0.377    25.8682 0.0000e+00
      0.265      0.000     5.5517     68.706    113.802 115.753542    13.3200     0.1732     0.0426     0.0846 2.9968e+02    -0.0376      0.260      0.378    25.8627 0.0000e+00
      0.266      0.000     5.5542     68.787    113.791 115.729473    13.3200     0.1961     0.0426     0.0846 4.3351e+02    -0.0074      0.261      0.378    25.8604 0.0000e+00
      0.267      0.000     5.5630     68.798    113.777 115.700514    13.3200     0.1084     0.0426     0.0846 5.3990e+02     0.0228      0.261      0.379    25.8586 0.0000e+00
      0.267     -0.001     5.5758     68.775    113.768 115.678940    13.3200     0.1084     0.0426     0.0846 5.3523e+02    -0.0376      0.262      0.379    25.8557 0.0000e+00
      0.267     -0.001     5.5877     68.759    113.764 115.666997    13.3200     0.1007     0.0426     0.0846 6.2983e+02    -0.0376      0.261      0.379    25.8514 0.0000e+00
      0.266     -0.002     5.5949     68.754    113.761 115.657499    13.4100     0.1312     0.0426     0.0846 6.9801e+02    -0.1283      0.261      0.378    25.8456 0.0000e+00
      0.265     -0.003     5.5965     68.729    113.756 115.643914    13.4100     0.1045     0.0426     0.0846 1.0095e+03    -0.1434      0.260      0.377    25.8391 0.0000e+00
      0.264     -0.003     5.5952     68.654    113.752 115.630618    13.4100     0.1007     0.0426     0.0846 9.9405e+02    -0.0678      0.259      0.376    25.8337 0.0000e+00
      0.264     -0.004     5.5942     68.499    113.755 115.626065    13.4100     0.1084     0.0426     0.0846 1.0148e+03     0.0228      0.258      0.375    25.8300 0.0000e+00
      0.263     -0.004     5.5941     68.253    113.765 115.629040    13.3200     0.1160     0.0426     0.0000 1.0682e+03    -0.0678      0.258      0.374    25.8270 0.0000e+00
      0.262     -0.004     5.5925     67.937    113.771 115.628337    13.3200     0.1999     0.0426     0.0000 1.1389e+03    -0.0376      0.257      0.372    25.8234 0.0000e+00
      0.261     -0.003     5.5867     67.574    113.771 115.619768    13.3200     0.1694     0.0426     0.0000 1.0243e+03     0.0379      0.255      0.371    25.8195 0.0000e+00
      0.260     -0.003     5.5744     67.168    113.772 115.609049    13.3200     0.1923     0.0426     0.0000 1.0721e+03    -0.0074      0.254      0.369    25.8162 0.0000e+00
      0.259     -0.003     5.5547     66.721    113.771 115.597320    13.4100     0.1808     0.0426     0.0846 1.2893e+03     0.0077      0.254      0.368    25.8132 0.0000e+00
      0.259     -0.003     5.5293     66.241    113.770 115.585452    13.4100     0.1084     0.0426     0.0846 1.1308e+03    -0.0074      0.253      0.368    25.8101 0.0000e+00
      0.258     -0.004     5.5001     65.745    113.768 115.574279    13.4100     0.1160     0.0426     0.0846 9.6029e+02    -0.0678      0.253      0.367    25.8062 0.0000e+00
      0.257     -0.006     5.4675     65.246    113.768 115.564821    13.4100     0.1198     0.0426     0.0846 1.1310e+03     0.0228      0.252      0.366    25.8015 0.0000e+00
      0.256     -0.009     5.4316     64.762    113.775 115.562556    13.4100     0.1160     0.0426     0.0846 1.2345e+03    -0.0527      0.251      0.364    25.7965 0.0000e+00
      0.253     -0.012     5.3930     64.325    113.788 115.566878    13.3200     0.0244     0.0852     0.0423 1.1659e+03    -0.0074      0.248      0.360    25.7919 0.0000e+00
      0.250     -0.016     5.3530     63.988    113.803 115.570942    13.3200     0.0168     0.0852     0.0423 1.0073e+03    -0.0678      0.245      0.356    25.7878 0.0000e+00
      0.246     -0.020     5.3128     63.801    113.820 115.575829    13.3200     0.0473     0.0852     0.0423 1.2262e+03    -0.1283      0.241      0.349    25.7837 0.0000e+00
      0.240     -0.024     5.2737     63.809    113.852 115.590843    13.3200     0.0740     0.0852     0.0423 1.0261e+03    -0.0527      0.235      0.341    25.7796 0.0000e+00
      0.233     -0.029     5.2386     64.051    113.897 115.611988    13.4100     0.1351     0.0426     0.0846 1.4963e+03    -0.0980      0.229      0.332    25.7753 0.0000e+00
      0.226     -0.035     5.2116     64.580    113.935 115.620903    13.4100     0.1236     0.0426     0.0846 1.2085e+03     0.0681      0.222      0.321    25.7707 0.0000e+00
      0.217     -0.039     5.1969     65.470    113.953 115.619960    13.4100     0.1236     0.0426     0.0846 1.4995e+03    -0.0376      0.213      0.308    25.7651 0.0000e+00
      0.206     -0.043     5.1983     66.780    113.962 115.628906    13.4100     0.1236     0.0426     0.0846 1.4305e+03     0.0228      0.202      0.292    25.7574 0.0000e+00
      0.193     -0.044     5.2191     68.469    113.960 115.646127    13.4100     0.1198     0.0852     0.0846 1.4856e+03    -0.2642      0.189      0.274    25.7465 0.0000e+00
      0.179     -0.043     5.2634     70.340    113.947 115.660217    13.4100     0.0931     0.0852     0.0846 1.4203e+03    -0.3851      0.176      0.255    25.7340 0.0000e+00
      0.167     -0.039     5.3367     72.125    113.938 115.670939    13.4100     0.0931     0.0852     0.0846 1.4190e+03    -0.2793      0.164      0.237    25.7253 0.0000e+00
      0.157     -0.033     5.4434     73.634    113.939 115.677153    13.4100     0.1236     0.0852     0.0846 1.4129e+03    -0.3095      0.154      0.223    25.7254 0.0000e+00
      0.149     -0.027     5.5802     74.804    113.948 115.676518    13.3200     0.0969     0.0426     0.0846 1.4264e+03    -0.2944      0.147      0.212    25.7340 0.0000e+00
      0.144     -0.021     5.7315     75.657    113.953 115.668862    13.3200     0.1160     0.0426     0.0846 1.4386e+03    -0.3397      0.142      0.205    25.7457 0.0000e+00
      0.141     -0.016     5.8760     76.263    113.943 115.652141    13.3200     0.1007     0.0426     0.0846 1.4433e+03    -0.2944      0.138      0.200    25.7545 0.0000e+00
      0.138     -0.012     5.9988     76.708    113.919 115.629895    13.3200     0.1312     0.0426     0.0846 1.4339e+03    -0.4002      0.135      0.196    25.7565 0.0000e+00
      0.135     -0.008     6.0946     77.033    113.895 115.612192    13.3200     0.1274     0.0426     0.0846 1.4295e+03    -0.3246      0.133      0.193    25.7524 0.0000e+00
      0.134     -0.005     6.1647     77.204    113.876 115.598311    13.3200     0.1084     0.0852     0.1269 1.4320e+03    -0.3397      0.131      0.190    25.7468 0.0000e+00
      0.132     -0.001     6.2144     77.146    113.859 115.584552    13.3200     0.1045     0.0852     0.1269 1.4286e+03    -0.2340      0.130      0.188    25.7438 0.0000e+00
      0.132      0.003     6.2506     76.784    113.850 115.575245    13.3200     0.1045     0.0852     0.1269 1.4252e+03    -0.2944      0.130      0.188    25.7447 0.0000e+00
      0.133      0.007     6.2767     76.084    113.850 115.571908    13.3200     0.1045     0.0852     0.1269 1.4292e+03    -0.0829      0.131      0.189    25.7476 0.0000e+00
      0.136      0.012     6.2904     75.063    113.865 115.577652    13.3200     0.1084     0.0426     0.0000 1.4022e+03    -0.0376      0.133      0.193    25.7502 0.0000e+00
      0.140      0.016     6.2855     73.793    113.888 115.586007    13.3200     0.1274     0.0426     0.0000 1.4175e+03    -0.0980      0.137      0.198    25.7514 0.0000e+00
      0.145      0.020     6.2560     72.390    113.908 115.587201    13.3200     0.0969     0.0426     0.0000 1.4144e+03    -0.0074      0.142      0.206    25.7514 0.0000e+00
      0.151      0.023     6.1991     70.988    113.925 115.585553    13.3200     0.1732     0.0426     0.0000 1.4135e+03    -0.0980      0.148      0.215    25.7498 0.0000e+00
      0.157      0.025     6.1163     69.705    113.936 115.580619    13.4100     0.1961     0.0426     0.0000 1.4092e+03    -0.0678      0.154      0.224    25.7459 0.0000e+00
      0.164      0.026     6.0135     68.594    113.939 115.571085    13.4100     0.1503     0.0426     0.0000 1.4107e+03    -0.0527      0.161      0.233    25.7394 0.0000e+00
      0.171      0.027     5.9001     67.640    113.936 115.558407    13.4100     0.1732     0.0426     0.0000 1.3997e+03    -0.0980      0.168      0.243    25.7310 0.0000e+00
      0.178      0.028     5.7867     66.804    113.931 115.545203    13.4100     0.1274     0.0426     0.0000 1.3873e+03     0.0228      0.175      0.253    25.7227 0.0000e+00
      0.186      0.028     5.6828     66.051    113.927 115.533952    13.4100     0.1084     0.0426     0.0000 1.3723e+03    -0.0678      0.183      0.264    25.7157 0.0000e+00
      0.193      0.028     5.5929     65.360    113.927 115.525653    13.4100     0.1084     0.0426     0.1269 1.3469e+03     0.0379      0.190      0.274    25.7101 0.0000e+00
      0.200      0.028     5.5155     64.722    113.932 115.522092    13.4100     0.0931     0.0426     0.1269 1.3182e+03     0.0530      0.197      0.284    25.7058 0.0000e+00
      0.207      0.028     5.4477     64.121    113.937 115.518319    13.4100     0.1160     0.0426     0.1269 1.0703e+03    -0.0980      0.204      0.294    25.7023 0.0000e+00
      0.214      0.028     5.3866     63.542    113.941 115.515328    13.4100     0.1160     0.0426     0.1269 1.1751e+03    -0.2038      0.211      0.305    25.6989 0.0000e+00
      0.222      0.028     5.3306     62.988    113.950 115.518320    13.4100     0.1007     0.0426     0.0846 1.1105e+03     0.0077      0.218      0.315    25.6954 0.0000e+00
      0.229      0.028     5.2790     62.471    113.958 115.522093    13.4100     0.0855     0.0426     0.0846 1.0219e+03    -0.0074      0.225      0.325    25.6917 0.0000e+00
      0.236      0.028     5.2303     61.998    113.959 115.519655    13.4100     0.0969     0.0426     0.0846 1.1910e+03    -0.0678      0.231      0.335    25.6880 0.0000e+00
      0.243      0.028     5.1834     61.573    113.957 115.514353    13.4100     0.1122     0.0426     0.0846 1.0045e+03     0.0530      0.238      0.345    25.6847 0.0000e+00
      0.250      0.027     5.1384     61.197    113.956 115.510775    13.4100     0.1160     0.0426     0.1692 1.0019e+03    -0.0376      0.245      0.355    25.6821 0.0000e+00
      0.257      0.027     5.0964     60.871    113.956 115.507964    13.4100     0.1427     0.0426     0.1692 8.5881e+02     0.0228      0.252      0.365    25.6802 0.0000e+00
      0.264      0.026     5.0580     60.602    113.959 115.507173    13.4100     0.1160     0.0426     0.1692 1.2537e+03    -0.0829      0.259      0.375    25.6786 0.0000e+00
      0.271      0.025     5.0234     60.391    113.963 115.508189    13.4100     0.1465     0.0426     0.1692 9.7968e+02     0.0530      0.266      0.385    25.6772 0.0000e+00
      0.278      0.022     4.9929     60.227    113.966 115.507284    13.5000     0.1160     0.0426     0.0423 9.4251e+02     0.0983      0.272      0.395    25.6759 0.0000e+00
      0.284      0.019     4.9664     60.093    113.965 115.504216    13.5000     0.0855     0.0426     0.0423 1.0117e+03     0.0228      0.278      0.403    25.6746 0.0000e+00
      0.288      0.016     4.9446     59.971    113.963 115.500166    13.5000     0.1351     0.0426     0.0423 1.0580e+03    -0.2340      0.282      0.409    25.6732 0.0000e+00
      0.291      0.013     4.9275     59.844    113.962 115.498055    13.5000     0.0969     0.0426     0.0423 9.4190e+02    -0.3095      0.285      0.414    25.6716 0.0000e+00
      0.293      0.011     4.9143     59.690    113.966 115.501319    13.5000     0.1236     0.0426     0.0423 1.0203e+03    -0.3397      0.288      0.417    25.6701 0.0000e+00
      0.295      0.010     4.9035     59.491    113.969 115.504829    13.4100     0.1084     0.0426     0.2115 8.5862e+02    -0.2944      0.289      0.420    25.6690 0.0000e+00
      0.297      0.010     4.8936     59.247    113.967 115.505520    13.4100     0.1236     0.0426     0.2115 1.1278e+03     0.0077      0.291      0.423    25.6684 0.0000e+00
      0.299      0.012     4.8832     58.975    113.963 115.505579    13.4100     0.1007     0.0426     0.2115 9.0774e+02    -0.0527      0.293      0.426    25.6679 0.0000e+00
      0.302      0.015     4.8707     58.701    113.958 115.505019    13.4100     0.0969     0.0426     0.2115 9.3740e+02    -0.1434      0.296      0.430    25.6676 0.0000e+00
      0.306      0.019     4.8545     58.443    113.954 115.503693    13.4100     0.1236     0.0426     0.0846 1.2246e+03    -0.1131      0.300      0.435    25.6679 0.0000e+00
      0.311      0.023     4.8344     58.213    113.953 115.505247    13.4100     0.1274     0.0426     0.0846 1.1652e+03    -0.0678      0.305      0.442    25.6690 0.0000e+00
      0.318      0.027     4.8121     58.035    113.958 115.510095    13.4100     0.0855     0.0426     0.0846 9.9513e+02    -0.0829      0.312      0.452    25.6708 0.0000e+00
      0.326      0.029     4.7896     57.936    113.961 115.509530    13.4100     0.1503     0.0426     0.0846 1.0617e+03     0.0077      0.320      0.463    25.6725 0.0000e+00
      0.335      0.031     4.7684     57.924    113.958 115.501403    13.5000     0.0931     0.0426     0.1269 9.4292e+02    -0.0074      0.328      0.476    25.6739 0.0000e+00
      0.343      0.031     4.7496     57.977    113.950 115.489545    13.5000     0.0855     0.0426     0.1269 1.1424e+03    -0.1131      0.337      0.488    25.6748 0.0000e+00
      0.352      0.031     4.7351     58.064    113.941 115.478792    13.5000     0.1236     0.0426     0.1269 7.1801e+02     0.0228      0.345      0.500    25.6749 0.0000e+00
      0.359      0.029     4.7271     58.160    113.938 115.476276    13.5000     0.0855     0.0426     0.1269 1.0230e+03    -0.0980      0.352      0.511    25.6735 0.0000e+00
      0.366      0.028     4.7263     58.247    113.940 115.479326    13.5000     0.1160     0.0426     0.1269 8.7805e+02    -0.0980      0.359      0.521    25.6712 0.0000e+00
      0.373      0.026     4.7308     58.300    113.939 115.478758    13.5000     0.1427     0.0426     0.0423 7.4390e+02    -0.0980      0.366      0.531    25.6694 0.0000e+00
      0.380      0.024     4.7379     58.304    113.930 115.470419    13.5000     0.1236     0.0426     0.0423 1.7136e+03    -0.0074      0.373      0.541    25.6690 0.0000e+00
      0.386      0.023     4.7457     58.260    113.919 115.460086    13.5000     0.1007     0.0426     0.0423 8.7939e+02    -0.1585      0.379      0.550    25.6692 0.0000e+00
      0.392      0.021     4.7528     58.193    113.917 115.459002    13.5000     0.0855     0.0426     0.0423 1.1541e+03    -0.0678      0.384      0.558    25.6694 0.0000e+00
      0.397      0.020     4.7571     58.134    113.927 115.468878    13.4100     0.1084     0.0852     0.0846 9.1209e+02    -0.2944      0.389      0.565    25.6696 0.0000e+00
      0.402      0.019     4.7574     58.097    113.942 115.482349    13.4100     0.1084     0.0852     0.0846 9.8117e+02    -0.3095      0.394      0.571    25.6700 0.0000e+00
      0.406      0.018     4.7538     58.081    113.952 115.491006    13.4100     0.1045     0.0852     0.0846 1.0281e+03    -0.2793      0.398      0.577    25.6703 0.0000e+00
      0.410      0.017     4.7483     58.090    113.956 115.493160    13.4100     0.1007     0.0852     0.0846 8.4089e+02    -0.3246      0.402      0.584    25.6705 0.0000e+00
      0.415      0.017     4.7435     58.136    113.958 115.493384    13.5000     0.0931     0.0426     0.0846 1.1599e+03    -0.0678      0.407      0.590    25.6704 0.0000e+00
      0.419      0.017     4.7405     58.237    113.960 115.493737    13.5000     0.1007     0.0426     0.0846 9.0400e+02    -0.0980      0.411      0.595    25.6700 0.0000e+00
      0.423      0.018     4.7393     58.404    113.962 115.494314    13.5000     0.1122     0.0426     0.0846 9.3456e+02    -0.1283      0.414      0.601    25.6692 0.0000e+00
      0.427      0.019     4.7401     58.622    113.964 115.495267    13.5000     0.1007     0.0426     0.0846 1.2570e+03    -0.2038      0.419      0.607    25.6683 0.0000e+00
      0.432      0.021     4.7439     58.851    113.966 115.496852    13.5900     0.1045     0.0426     0.1269 8.9754e+02     0.0077      0.423      0.614    25.6675 0.0000e+00
      0.437      0.023     4.7522     59.051    113.968 115.499492    13.5900     0.1160     0.0426     0.1269 1.1856e+03    -0.0225      0.429      0.622    25.6668 0.0000e+00
      0.443      0.026     4.7659     59.197    113.970 115.501889    13.5900     0.0969     0.0426     0.1269 7.4552e+02    -0.1131      0.435      0.631    25.6662 0.0000e+00
      0.450      0.029     4.7837     59.281    113.973 115.502685    13.5900     0.1160     0.0426     0.1269 1.8708e+03     0.0077      0.442      0.641    25.6658 0.0000e+00
      0.458      0.032     4.8024     59.304    113.978 115.504090    13.5900     0.0969     0.0426     0.1269 8.2050e+02    -0.0678      0.449      0.652    25.6656 0.0000e+00
      0.467      0.034     4.8187     59.272    113.985 115.506478    13.5900     0.0893     0.0852     0.0846 1.0677e+03    -0.0829      0.458      0.664    25.6659 0.0000e+00
      0.476      0.036     4.8306     59.202    113.984 115.502488    13.5900     0.1045     0.0852     0.0846 9.3172e+02    -0.0074      0.467      0.677    25.6659 0.0000e+00
      0.486      0.038     4.8376     59.125    113.974 115.491054    13.5900     0.1007     0.0852     0.0846 9.9340e+02    -0.0527      0.476      0.691    25.6649 0.0000e+00
      0.496      0.040     4.8396     59.086    113.967 115.485126    13.5900     0.0931     0.0852     0.0846 9.1646e+02     0.0530      0.486      0.705    25.6632 0.0000e+00
      0.506      0.042     4.8371     59.115    113.967 115.487124    13.6800     0.1312     0.0426     0.0423 1.0075e+03    -0.0527      0.496      0.720    25.6613 0.0000e+00
      0.517      0.043     4.8315     59.209    113.966 115.487582    13.6800     0.1007     0.0426     0.0423 8.2050e+02     0.0983      0.507      0.735    25.6599 0.0000e+00
      0.528      0.044     4.8254     59.335    113.962 115.484620    13.6800     0.1045     0.0426     0.0423 7.2934e+02     0.1134      0.518      0.751    25.6594 0.0000e+00
      0.539      0.044     4.8221     59.457    113.957 115.479450    13.6800     0.1045     0.0426     0.0423 8.3380e+02     0.0228      0.529      0.767    25.6598 0.0000e+00
      0.551      0.044     4.8244     59.550    113.952 115.474693    13.5900     0.1312     0.0426     0.0846 6.3395e+02    -0.0527      0.540      0.784    25.6608 0.0000e+00
      0.563      0.044     4.8320     59.618    113.947 115.471079    13.5900     0.1084     0.0426     0.0846 9.8075e+02    -0.0225      0.552      0.801    25.6615 0.0000e+00
      0.574      0.043     4.8423     59.689    113.939 115.465646    13.5900     0.1007     0.0426     0.0846 1.0482e+03    -0.1131      0.563      0.817    25.6618 0.0000e+00
      0.585      0.042     4.8522     59.789    113.934 115.462943    13.5900     0.0893     0.0426     0.0846 7.3843e+02    -0.0376      0.574      0.832    25.6618 0.0000e+00
      0.595      0.041     4.8597     59.918    113.936 115.468250    13.6800     0.1160     0.0426     0.0846 9.3537e+02    -0.0980      0.584      0.847    25.6619 0.0000e+00
      0.606      0.041     4.8652     60.045    113.942 115.476983    13.6800     0.1274     0.0426     0.0846 5.5200e+02     0.0832      0.594      0.862    25.6625 0.0000e+00
      0.616      0.040     4.8710     60.134    113.944 115.481471    13.6800     0.1045     0.0426     0.0846 7.5580e+02    -0.0074      0.604      0.876    25.6636 0.0000e+00
      0.626      0.040     4.8791     60.163    113.941 115.480911    13.6800     0.1351     0.0426     0.0846 7.2680e+02    -0.0980      0.614      0.891    25.6650 0.0000e+00
      0.636      0.040     4.8895     60.131    113.934 115.477155    13.6800     0.1084     0.0426     0.0846 6.2601e+02     0.0379      0.624      0.905    25.6663 0.0000e+00
      0.646      0.039     4.8997     60.038    113.928 115.473199    13.5000     0.1084     0.0426     0.0846 7.4617e+02     0.0379      0.634      0.919    25.6675 0.0000e+00
      0.657      0.039     4.9069     59.886    113.926 115.471989    13.5000     0.0855     0.0426     0.0846 7.1443e+02    -0.0376      0.644      0.934    25.6687 0.0000e+00
      0.667      0.039     4.9092     59.686    113.922 115.469202    13.5000     0.1007     0.0426     0.0846 6.2983e+02     0.0681      0.653      0.948    25.6699 0.0000e+00
      0.677      0.038     4.9064     59.461    113.916 115.464096    13.5000     0.1122     0.0426     0.0846 1.4969e+03    -0.0527      0.663      0.962    25.6710 0.0000e+00
      0.686      0.037     4.8988     59.239    113.915 115.463308    13.5900     0.1084     0.0000     0.1269 5.3873e+02    -0.0376      0.673      0.976    25.6719 0.0000e+00
      0.696      0.037     4.8863     59.041    113.915 115.464628    13.5900     0.1236     0.0000     0.1269 6.7402e+02    -0.0376      0.682      0.990    25.6726 0.0000e+00
      0.705      0.036     4.8699     58.893    113.911 115.462409    13.5900     0.1236     0.0000     0.1269 6.4060e+02     0.0832      0.691      1.003    25.6730 0.0000e+00
      0.714      0.035     4.8515     58.828    113.910 115.462059    13.5900     0.0931     0.0000     0.1269 6.8034e+02    -0.1434      0.700      1.016    25.6734 0.0000e+00
      0.723      0.035     4.8334     58.862    113.921 115.473483    13.6800     0.1084     0.0852     0.0846 4.8876e+02    -0.1283      0.708      1.028    25.6737 0.0000e+00
      0.731      0.034     4.8172     58.963    113.942 115.493729    13.6800     0.1084     0.0852     0.0846 1.1021e+03    -0.1283      0.717      1.040    25.6742 0.0000e+00
      0.740      0.034     4.8051     59.073    113.959 115.508197    13.6800     0.1007     0.0852     0.0846 4.5702e+02    -0.0376      0.725      1.052    25.6748 0.0000e+00
      0.749      0.034     4.7998     59.153    113.971 115.514746    13.6800     0.1579     0.0852     0.0846 4.8474e+02     0.0228      0.734      1.065    25.6752 0.0000e+00
      0.758      0.033     4.8025     59.198    113.984 115.521120    13.6800     0.1732     0.0852     0.0846 4.6848e+02    -0.0829      0.743      1.078    25.6753 0.0000e+00
      0.766      0.032     4.8107     59.206    114.001 115.531019    13.6800     0.1846     0.0426     0.1269 7.2334e+02    -0.0074      0.751      1.089    25.6748 0.0000e+00
      0.774      0.032     4.8198     59.167    114.018 115.541083    13.6800     0.1541     0.0426     0.1269 5.5816e+02    -0.0527      0.759      1.101    25.6734 0.0000e+00
      0.782      0.031     4.8266     59.065    114.027 115.543997    13.6800     0.1770     0.0426     0.1269 5.1481e+02     0.0228      0.767      1.112    25.6709 0.0000e+00
      0.790      0.030     4.8305     58.903    114.031 115.542535    13.6800     0.1541     0.0426     0.1269 6.2710e+02    -0.0225      0.775      1.124    25.6678 0.0000e+00
      0.797      0.029     4.8315     58.702    114.033 115.542308    13.5900     0.1732     0.0000     0.0846 5.9472e+02    -0.0376      0.782      1.134    25.6646 0.0000e+00
      0.805      0.029     4.8285     58.496    114.029 115.537256    13.5900     0.1923     0.0000     0.0846 5.8983e+02    -0.1131      0.789      1.145    25.6616 0.0000e+00
      0.812      0.028     4.8205     58.306    114.017 115.526031    13.5900     0.1732     0.0000     0.0846 1.5672e+03    -0.0376      0.796      1.155    25.6590 0.0000e+00
      0.819      0.028     4.8074     58.139    114.008 115.517639    13.5900     0.1732     0.0000     0.0846 5.4818e+02    -0.0527      0.803      1.165    25.6569 0.0000e+00
      0.826      0.029     4.7911     57.991    114.004 115.513842    13.5900     0.1465     0.0426     0.0846 7.7341e+02    -0.0376      0.810      1.175    25.6556 0.0000e+00
      0.833      0.030     4.7744     57.853    114.002 115.511628    13.5900     0.2075     0.0426     0.0846 1.3194e+03    -0.0074      0.817      1.185    25.6552 0.0000e+00
      0.840      0.031     4.7589     57.718    114.001 115.510407    13.5900     0.1846     0.0426     0.0846 6.0620e+02    -0.0678      0.824      1.196    25.6554 0.0000e+00
      0.849      0.033     4.7452     57.577    113.999 115.507852    13.5900     0.1923     0.0426     0.0846 7.9246e+02    -0.0980      0.832      1.207    25.6559 0.0000e+00
      0.857      0.035     4.7330     57.428    113.996 115.503283    13.5000     0.1999     0.0852     0.1269 5.9887e+02    -0.0376      0.841      1.219    25.6561 0.0000e+00
      0.866      0.037     4.7218     57.268    113.991 115.497482    13.5000     0.1846     0.0852     0.1269 5.5513e+02    -0.0829      0.850      1.232    25.6561 0.0000e+00
      0.876      0.039     4.7108     57.095    113.987 115.492900    13.5000     0.1427     0.0852     0.1269 6.2833e+02    -0.0225      0.859      1.246    25.6558 0.0000e+00
      0.886      0.041     4.6994     56.910    113.989 115.494314    13.5000     0.1999     0.0852     0.1269 8.5750e+02    -0.0376      0.869      1.260    25.6554 0.0000e+00
      0.897      0.042     4.6872     56.716    113.989 115.494104    13.5000     0.1770     0.0852     0.1269 8.1269e+02    -0.0074      0.880      1.276    25.6551 0.0000e+00
      0.908      0.043     4.6742     56.518    113.982 115.486212    13.5900     0.1961     0.0852     0.0846 1.2605e+03    -0.0376      0.891      1.292    25.6548 0.0000e+00
      0.920      0.044     4.6600     56.328    113.971 115.476535    13.5900     0.1084     0.0852     0.0846 6.0712e+02    -0.1283      0.902      1.308    25.6545 0.0000e+00
      0.931      0.044     4.6450     56.165    113.959 115.466491    13.5900     0.1236     0.0852     0.0846 6.8927e+02     0.0379      0.913      1.324    25.6542 0.0000e+00
      0.942      0.045     4.6292     56.061    113.950 115.463400    13.5900     0.1198     0.0852     0.0846 6.3271e+02    -0.0678      0.924      1.340    25.6539 0.0000e+00
      0.954      0.045     4.6130     56.043    113.955 115.476439    13.6800     0.1160     0.0426     0.0846 2.2562e+03     0.0530      0.935      1.356    25.6537 0.0000e+00
      0.965      0.045     4.5975     56.123    113.966 115.499084    13.6800     0.1084     0.0426     0.0846 8.6161e+02     0.0379      0.946      1.372    25.6540 0.0000e+00
      0.976      0.045     4.5841     56.283    113.975 115.517379    13.6800     0.1007     0.0426     0.0846 1.1741e+03    -0.1585      0.958      1.388    25.6553 0.0000e+00
      0.988      0.045     4.5753     56.478    113.974 115.522201    13.6800     0.1351     0.0426     0.0846 6.7975e+02    -0.0980      0.969      1.405    25.6577 0.0000e+00
      1.000      0.045     4.5736     56.683    113.967 115.516839    13.6800     0.1236     0.0852     0.1269 8.6480e+02     0.1134      0.981      1.422    25.6617 0.0000e+00
      1.012      0.043     4.5797     56.905    113.961 115.511861    13.6800     0.1236     0.0852     0.1269 7.4390e+02    -0.3246      0.993      1.439    25.6664 0.0000e+00
      1.023      0.041     4.5924     57.163    113.958 115.511937    13.6800     0.0969     0.0852     0.1269 8.3779e+02    -0.3700      1.004      1.455    25.6705 0.0000e+00
      1.033      0.039     4.6082     57.471    113.949 115.511088    13.6800     0.1236     0.0852     0.1269 8.1499e+02    -0.2642      1.014      1.470    25.6731 0.0000e+00
      1.043      0.037     4.6248     57.823    113.928 115.503090    13.6800     0.1236     0.0852     0.1269 1.0418e+03    -0.2038      1.023      1.483    25.6741 0.0000e+00
      1.051      0.035     4.6429     58.177    113.908 115.495810    13.5900     0.1351     0.0426     0.1692 7.6472e+02    -0.0829      1.031      1.495    25.6742 0.0000e+00
      1.060      0.033     4.6638     58.473    113.895 115.495306    13.5900     0.0931     0.0426     0.1692 7.7559e+02    -0.1283      1.040      1.507    25.6755 0.0000e+00
      1.068      0.030     4.6886     58.669    113.879 115.489445    13.5900     0.0855     0.0426     0.1692 8.4401e+02    -0.1131      1.048      1.519    25.6794 0.0000e+00
      1.076      0.028     4.7169     58.746    113.849 115.466667    13.5900     0.1160     0.0426     0.1692 5.9472e+02     0.0379      1.055      1.530    25.6851 0.0000e+00
      1.083      0.026     4.7452     58.714    113.799 115.420897    13.5900     0.1312     0.0852     0.1269 1.2228e+03    -0.0376      1.062      1.540    25.6909 0.0000e+00
      1.089      0.023     4.7689     58.602    113.717 115.339931    13.5900     0.1160     0.0852     0.1269 8.1570e+02    -0.0074      1.068      1.549    25.6963 0.0000e+00
      1.094      0.019     4.7845     58.453    113.581 115.202176    13.5900     0.1007     0.0852     0.1269 9.4888e+02    -0.0980      1.073      1.557    25.7009 0.0000e+00
      1.099      0.016     4.7905     58.309    113.350 114.966898    13.5900     0.1045     0.0852     0.1269 6.7153e+02    -0.0980      1.078      1.563    25.7042 0.0000e+00
      1.102      0.014     4.7877     58.213    112.956 114.563358    13.5900     0.0778     0.0852     0.0423 1.3469e+03    -0.2642      1.081      1.568    25.7063 0.0000e+00
      1.105      0.011     4.7785     58.195    112.286 113.879945    13.5900     0.1160     0.0852     0.0423 5.7640e+02    -0.2491      1.084      1.572    25.7074 0.0000e+00
      1.108      0.010     4.7663     58.257    111.164 112.738415    13.5900     0.1007     0.0852     0.0423 6.7460e+02    -0.3095      1.086      1.575    25.7076 0.0000e+00
      1.110      0.009     4.7546     58.377    109.296 110.842359    13.5900     0.1389     0.0852     0.0423 5.6340e+02    -0.2944      1.088      1.578    25.7068 0.0000e+00
      1.112      0.009     4.7469     58.541    106.193 107.694160    13.5900     0.1007     0.0426     0.1269 9.4806e+02    -0.2491      1.090      1.581    25.7054 0.0000e+00
      1.113      0.009     4.7456     58.732    101.033 102.460299    13.5900     0.1007     0.0426     0.1269 4.8611e+02    -0.2340      1.092      1.584    25.7038 0.0000e+00
      1.116      0.010     4.7507     58.924     92.443  93.747080    13.5900     0.0931     0.0426     0.1269 7.1118e+02    -0.3246      1.094      1.587    25.7023 0.0000e+00
      1.118      0.011     4.7606     59.085     78.127  79.224979    13.5900     0.1160     0.0426     0.1269 5.1258e+02    -0.2340      1.097      1.590    25.7015 0.0000e+00
      1.121      0.012     4.7740     59.202     54.257  55.011435    13.5900     0.1084     0.0426     0.1269 6.2642e+02     0.0228      1.100      1.595    25.7014 0.0000e+00
      1.125      0.013     4.7896     59.279     14.465  14.649504    13.6800     0.1236     0.0852     0.0846 6.3879e+02     0.0077      1.103      1.599    25.7017 0.0000e+00
      1.128      0.014     4.8053     59.321    -51.850 -52.615998    13.6800     0.1007     0.0852     0.0846 4.6879e+02     0.0379      1.106      1.604    25.7016 0.0000e+00
      1.132      0.015     4.8184     59.334   -162.367-164.718537    13.6800     0.0931     0.0852     0.0846 7.3618e+02     0.0983      1.110      1.610    25.7013 0.0000e+00
      1.135      0.015     4.8280     59.311   -346.564-351.560122    13.6800     0.1160     0.0852     0.0846 4.7432e+02    -0.0376      1.113      1.615    25.7012 0.0000e+00
      1.139      0.016     4.8342     59.246   -461.691-468.338317    13.5900     0.1084     0.0426     0.1269 5.1616e+02    -0.0678      1.117      1.621    25.7017 0.0000e+00
      1.143      0.016     4.8376     59.148   -346.560-351.551115    13.5900     0.1351     0.0426     0.1269 4.7206e+02    -0.0376      1.122      1.626    25.7026 0.0000e+00
      1.148      0.017     4.8387     59.031   -162.345-164.686122    13.5900     0.1236     0.0426     0.1269 4.6858e+02    -0.0980      1.126      1.632    25.7035 0.0000e+00
      1.152      0.018     4.8369     58.915    -51.810 -52.559531    13.5900     0.1236     0.0426     0.1269 4.5981e+02    -0.2642      1.130      1.638    25.7042 0.0000e+00
      1.156      0.019     4.8316     58.802     14.509  14.717083    13.5900     0.1045     0.0852     0.0846 4.5110e+02    -0.2642      1.134      1.644    25.7050 0.0000e+00
      1.161      0.020     4.8234     58.680     54.292  55.076152    13.5900     0.0931     0.0852     0.0846 4.4169e+02    -0.3095      1.139      1.651    25.7061 0.0000e+00
      1.166      0.021     4.8136     58.543     78.147  79.280093    13.5900     0.1312     0.0852     0.0846 4.4313e+02    -0.3095      1.144      1.659    25.7077 0.0000e+00
      1.172      0.022     4.8039     58.395     92.450  93.795291    13.5900     0.1732     0.0852     0.0846 4.3559e+02     0.0228      1.150      1.667    25.7097 0.0000e+00
      1.178      0.024     4.7945     58.249    101.030 102.506465    13.5900     0.2152     0.0852     0.0846 4.7236e+02    -0.0376      1.155      1.675    25.7118 0.0000e+00
      1.184      0.025     4.7844     58.120    106.185 107.742594    13.5900     0.1579     0.0426     0.0846 4.3730e+02    -0.0678      1.161      1.684    25.7140 0.0000e+00
      1.190      0.026     4.7729     58.000    109.279 110.885981    13.5900     0.1846     0.0426     0.0846 4.3408e+02    -0.0074      1.167      1.693    25.7165 0.0000e+00
      1.197      0.027     4.7605     57.872    111.126 112.764863    13.5900     0.1007     0.0426     0.0846 4.4613e+02    -0.0074      1.174      1.703    25.7196 0.0000e+00
      1.205      0.028     4.7484     57.727    112.229 113.888274    13.5900     0.1045     0.0426     0.0846 4.3606e+02     0.0530      1.182      1.713    25.7229 0.0000e+00
      1.212      0.029     4.7375     57.567    112.886 114.559791    13.5900     0.1236     0.0426     0.2115 4.6848e+02    -0.0074      1.189      1.724    25.7261 0.0000e+00
      1.220      0.029     4.7276     57.407    113.278 114.962485    13.5900     0.1160     0.0426     0.2115 4.3549e+02     0.0077      1.197      1.735    25.7286 0.0000e+00
      1.228      0.029     4.7169     57.272    113.514 115.207741    13.5900     0.1427     0.0426     0.2115 4.4856e+02     0.0681      1.204      1.746    25.7307 0.0000e+00
      1.235      0.029     4.7049     57.185    113.664 115.364961    13.5900     0.1503     0.0426     0.2115 4.4121e+02    -0.0678      1.211      1.757    25.7327 0.0000e+00
      1.243      0.028     4.6917     57.158    113.766 115.472070    13.5900     0.1999     0.0852     0.0423 5.1169e+02    -0.0376      1.219      1.767    25.7349 0.0000e+00
      1.250      0.027     4.6784     57.198    113.831 115.537634    13.5900     0.1579     0.0852     0.0423 4.4381e+02    -0.0376      1.226      1.778    25.7373 0.0000e+00
      1.257      0.026     4.6673     57.319    113.868 115.571136    13.5900     0.1503     0.0852     0.0423 4.3266e+02     0.0530      1.233      1.788    25.7399 0.0000e+00
      1.264      0.024     4.6600     57.545    113.889 115.585509    13.5900     0.1846     0.0852     0.0423 4.7247e+02    -0.0376      1.240      1.798    25.7421 0.0000e+00
      1.270      0.022     4.6577     57.899    113.896 115.588584    13.5900     0.1732     0.0426     0.1269 4.5395e+02     0.0228      1.245      1.807    25.7435 0.0000e+00
      1.275      0.020     4.6609     58.398    113.899 115.593181    13.5900     0.1618     0.0426     0.1269 4.7618e+02    -0.0980      1.250      1.814    25.7435 0.0000e+00
      1.279      0.019     4.6709     59.032    113.905 115.604525    13.5900     0.1770     0.0426     0.1269 4.4719e+02    -0.0980      1.254      1.819    25.7417 0.0000e+00
      1.283      0.019     4.6896     59.742    113.912 115.617642    13.5900     0.1923     0.0426     0.1269 5.0781e+02    -0.0980      1.258      1.825    25.7389 0.0000e+00
      1.287      0.019     4.7186     60.443    113.923 115.632032    13.5900     0.1579     0.0426     0.1269 4.4554e+02    -0.1434      1.262      1.831    25.7371 0.0000e+00
      1.292      0.021     4.7592     61.068    113.933 115.643532    13.5000     0.1808     0.0426     0.0846 4.4535e+02     0.0228      1.267      1.838    25.7377 0.0000e+00
      1.298      0.023     4.8106     61.600    113.940 115.647211    13.5000     0.1694     0.0426     0.0846 4.3625e+02    -0.3246      1.272      1.846    25.7400 0.0000e+00
      1.304      0.025     4.8683     62.053    113.946 115.648048    13.5000     0.1618     0.0426     0.0846 4.4073e+02    -0.2642      1.279      1.855    25.7424 0.0000e+00
      1.311      0.026     4.9253     62.450    113.951 115.650265    13.5000     0.1770     0.0426     0.0846 4.4885e+02    -0.3246      1.285      1.864    25.7441 0.0000e+00
      1.318      0.028     4.9762     62.793    113.955 115.654453    13.6800     0.1885     0.0852     0.0846 4.4409e+02    -0.3549      1.292      1.874    25.7445 0.0000e+00
      1.325      0.030     5.0197     63.074    113.955 115.657729    13.6800     0.1732     0.0852     0.0846 4.5385e+02    -0.1736      1.299      1.884    25.7431 0.0000e+00
      1.333      0.031     5.0568     63.271    113.952 115.660966    13.6800     0.1732     0.0852     0.0846 4.5120e+02    -0.3246      1.306      1.895    25.7408 0.0000e+00
      1.341      0.033     5.0892     63.360    113.951 115.669029    13.6800     0.1732     0.0852     0.0846 4.2939e+02    -0.3397      1.315      1.907    25.7394 0.0000e+00
      1.350      0.035     5.1172     63.330    113.949 115.676068    13.5000     0.1732     0.0426     0.1269 4.6706e+02    -0.1736      1.323      1.919    25.7396 0.0000e+00
      1.359      0.036     5.1399     63.190    113.936 115.671962    13.5000     0.1503     0.0426     0.1269 4.4719e+02    -0.0376      1.332      1.933    25.7411 0.0000e+00
      1.368      0.037     5.1557     62.966    113.912 115.655617    13.5000     0.1846     0.0426     0.1269 4.9819e+02     0.0077      1.342      1.946    25.7438 0.0000e+00
      1.378      0.038     5.1626     62.712    113.887 115.638672    13.5000     0.1999     0.0426     0.1269 4.3711e+02    -0.1283      1.351      1.960    25.7475 0.0000e+00
      1.388      0.038     5.1599     62.493    113.873 115.632608    13.6800     0.1694     0.0426     0.1269 4.3323e+02    -0.0980      1.361      1.974    25.7515 0.0000e+00
      1.398      0.039     5.1481     62.364    113.865 115.631810    13.6800     0.1694     0.0426     0.1269 4.3445e+02    -0.2642      1.371      1.988    25.7554 0.0000e+00
      1.408      0.039     5.1295     62.339    113.857 115.628065    13.6800     0.1846     0.0426     0.1269 4.8023e+02    -0.2793      1.380      2.002    25.7592 0.0000e+00
      1.417      0.039     5.1084     62.390    113.850 115.624374    13.6800     0.1770     0.0426     0.1269 4.2995e+02    -0.2944      1.390      2.016    25.7629 0.0000e+00
      1.427      0.039     5.0903     62.471    113.847 115.623754    13.6800     0.1694     0.0426     0.1269 4.5100e+02    -0.2189      1.400      2.030    25.7665 0.0000e+00
      1.438      0.039     5.0795     62.543    113.843 115.622038    13.6800     0.1656     0.1278     0.1692 4.3521e+02    -0.2189      1.410      2.045    25.7696 0.0000e+00
      1.448      0.038     5.0772     62.587    113.837 115.618770    13.6800     0.1694     0.1278     0.1692 4.4973e+02    -0.2642      1.419      2.059    25.7718 0.0000e+00
      1.458      0.037     5.0812     62.589    113.830 115.613078    13.6800     0.1961     0.1278     0.1692 4.6161e+02    -0.3095      1.429      2.074    25.7733 0.0000e+00
      1.468      0.036     5.0877     62.543    113.803 115.587445    13.6800     0.1770     0.1278     0.1692 4.3521e+02    -0.2642      1.439      2.087    25.7744 0.0000e+00
      1.477      0.034     5.0935     62.455    113.743 115.527036    13.6800     0.1808     0.0426     0.0846 4.4622e+02    -0.2944      1.448      2.101    25.7753 0.0000e+00
      1.485      0.032     5.0970     62.360    113.644 115.427742    13.6800     0.1846     0.0426     0.0846 4.5702e+02    -0.2642      1.456      2.113    25.7763 0.0000e+00
      1.493      0.029     5.0971     62.287    113.493 115.275083    13.6800     0.1732     0.0426     0.0846 4.2808e+02    -0.2340      1.464      2.123    25.7771 0.0000e+00
      1.500      0.027     5.0933     62.237    113.257 115.036350    13.6800     0.1656     0.0426     0.0846 4.5901e+02    -0.3246      1.471      2.133    25.7778 0.0000e+00
      1.506      0.025     5.0860     62.180    112.870 114.643881    13.5900     0.1999     0.0426     0.0846 4.2799e+02    -0.3851      1.477      2.142    25.7783 0.0000e+00
      1.512      0.022     5.0782     62.077    112.213 113.977019    13.5900     0.1885     0.0426     0.0846 4.4169e+02    -0.0829      1.483      2.151    25.7788 0.0000e+00
      1.518      0.020     5.0723     61.910    111.103 112.849933    13.5900     0.1770     0.0426     0.0846 4.3445e+02    -0.1585      1.488      2.159    25.7792 0.0000e+00
      1.523      0.018     5.0682     61.694    109.242 110.962069    13.5900     0.1732     0.0426     0.0846 4.3493e+02    -0.0074      1.493      2.166    25.7794 0.0000e+00
      1.527      0.017     5.0636     61.458    106.140 107.813995    13.5900     0.1732     0.0426     0.0846 4.7981e+02    -0.0376      1.497      2.172    25.7795 0.0000e+00
      1.531      0.015     5.0552     61.237    100.976 102.574224    13.5900     0.1923     0.0426     0.0846 5.0814e+02    -0.0829      1.501      2.178    25.7795 0.0000e+00
      1.534      0.014     5.0415     61.070     92.387  93.857484    13.5900     0.1694     0.0426     0.0846 4.5652e+02    -0.0225      1.505      2.182    25.7796 0.0000e+00
      1.537      0.014     5.0239     60.999     78.086  79.343311    13.5900     0.1961     0.0426     0.0846 4.6342e+02    -0.0980      1.508      2.187    25.7800 0.0000e+00
      1.540      0.016     5.0047     61.062     54.249  55.149258    13.5900     0.1770     0.0426     0.0846 6.0884e+02    -0.0376      1.511      2.191    25.7806 0.0000e+00
      1.544      0.018     4.9866     61.274     14.515  14.815580    13.6800     0.1770     0.0426     0.1692 4.6523e+02    -0.2491      1.514      2.196    25.7814 0.0000e+00
      1.548      0.021     4.9729     61.606    -51.714 -52.417371    13.6800     0.1732     0.0426     0.1692 4.9700e+02    -0.2793      1.518      2.202    25.7825 0.0000e+00
      1.554      0.023     4.9670     62.022   -162.102-164.482381    13.6800     0.1579     0.0426     0.1692 4.6696e+02    -0.2944      1.524      2.211    25.7837 0.0000e+00
      1.562      0.025     4.9721     62.544   -346.092-351.267453    13.6800     0.1846     0.0426     0.1692 4.3257e+02    -0.3246      1.531      2.221    25.7849 0.0000e+00
      1.570      0.026     4.9893     63.276   -461.079-468.005750    13.6800     0.1808     0.0426     0.0846 5.0407e+02    -0.2944      1.539      2.232    25.7855 0.0000e+00
      1.577      0.026     5.0165     64.360   -346.050-351.243295    13.6800     0.1656     0.0426     0.0846 4.4817e+02    -0.2642      1.546      2.243    25.7845 0.0000e+00
      1.583      0.026     5.0507     65.883   -162.017-164.423625    13.6800     0.1808     0.0426     0.0846 4.2502e+02    -0.2793      1.553      2.252    25.7811 0.0000e+00
      1.589      0.025     5.0938     67.800    -51.593 -52.316352    13.6800     0.1618     0.0426     0.0846 5.0484e+02    -0.3397      1.558      2.260    25.7756 0.0000e+00
      1.595      0.026     5.1539     69.974     14.672  14.973798    13.6800     0.1656     0.0000     0.0846 4.4642e+02    -0.2944      1.564      2.268    25.7703 0.0000e+00
      1.601      0.027     5.2423     72.318     54.458  55.398865    13.6800     0.2075     0.0000     0.0846 4.5971e+02    -0.2642      1.570      2.277    25.7678 0.0000e+00
      1.608      0.029     5.3660     74.915     78.427  79.788863    13.6800     0.1656     0.0000     0.0846 4.2373e+02    -0.2642      1.576      2.286    25.7692 0.0000e+00
      1.615      0.031     5.5214     78.095     92.932  94.601791    13.6800     0.1923     0.0000     0.0846 4.2392e+02    -0.3246      1.584      2.297    25.7748 0.0000e+00
      1.624      0.034     5.6971     82.350    101.656 103.569777    13.6800     0.1579     0.0000     0.0846 4.4227e+02    -0.2642      1.592      2.309    25.7850 0.0000e+00
      1.633      0.036     5.8859     87.839    106.864 108.966299    13.5900     0.1846     0.0852     0.2538 4.2098e+02    -0.2340      1.601      2.323    25.8012 0.0000e+00
      1.643      0.037     6.0941     94.064    109.985 112.222437    13.5900     0.1732     0.0852     0.2538 4.5951e+02    -0.2944      1.611      2.336    25.8267 0.0000e+00
      1.653      0.037     6.3479    100.253    111.846 114.174500    13.5900     0.1961     0.0852     0.2538 4.5771e+02    -0.2793      1.621      2.351    25.8653 0.0000e+00
      1.663      0.037     6.6876    105.760    112.951 115.339038    13.5900     0.1732     0.0852     0.2538 4.2827e+02    -0.2642      1.631      2.365    25.9140 0.0000e+00
      1.672      0.036     7.1273    110.092    113.620 116.046598    13.6800     0.1503     0.0426     0.1692 4.3540e+02    -0.3397      1.640      2.379    25.9619 0.0000e+00
      1.681      0.034     7.6273    112.919    114.024 116.473862    13.6800     0.1656     0.0426     0.1692 4.3079e+02    -0.2189      1.649      2.391    26.0003 0.0000e+00
      1.689      0.033     8.1256    114.132    114.255 116.718766    13.6800     0.1541     0.0426     0.1692 4.1961e+02    -0.2491      1.657      2.403    26.0279 0.0000e+00
      1.697      0.033     8.5695    113.888    114.382 116.854619    13.6800     0.1694     0.0426     0.1692 4.2199e+02    -0.1585      1.665      2.414    26.0466 0.0000e+00
      1.705      0.033     8.9189    112.607    114.449 116.925649    13.5900     0.1618     0.0852     0.1269 5.0331e+02     0.0228      1.672      2.425    26.0587 0.0000e+00
      1.712      0.035     9.1470    110.820    114.483 116.962796    13.5900     0.1732     0.0852     0.1269 4.2976e+02    -0.0678      1.679      2.436    26.0663 0.0000e+00
      1.721      0.039     9.2447    108.949    114.494 116.975967    13.5900     0.1694     0.0852     0.1269 4.7473e+02    -0.0980      1.688      2.448    26.0710 0.0000e+00
      1.731      0.042     9.2246    107.240    114.490 116.972674    13.5900     0.1541     0.0852     0.1269 4.7483e+02    -0.0376      1.698      2.463    26.0738 0.0000e+00
      1.743      0.046     9.1206    105.798    114.481 116.964039    13.5900     0.1885     0.0852     0.1269 4.7073e+02    -0.0225      1.710      2.479    26.0756 0.0000e+00
      1.756      0.050     8.9758    104.646    114.457 116.939760    13.5900     0.1808     0.0426     0.1269 4.5208e+02    -0.0376      1.722      2.498    26.0767 0.0000e+00
      1.770      0.052     8.8242    103.758    114.430 116.911361    13.5900     0.1732     0.0426     0.1269 4.5771e+02     0.0228      1.736      2.517    26.0774 0.0000e+00
      1.784      0.054     8.6857    103.091    114.417 116.897269    13.5900     0.1846     0.0426     0.1269 4.5622e+02    -0.3246      1.749      2.537    26.0778 0.0000e+00
      1.798      0.056     8.5689    102.602    114.401 116.879726    13.5900     0.1579     0.0426     0.1269 4.6970e+02    -0.2793      1.763      2.558    26.0780 0.0000e+00
      1.813      0.057     8.4755    102.244    114.380 116.856055    13.6800     0.1579     0.0426     0.0846 4.5563e+02    -0.2038      1.777      2.578    26.0780 0.0000e+00
      1.827      0.058     8.4037    101.980    114.370 116.843942    13.6800     0.1885     0.0426     0.0846 4.2669e+02    -0.2189      1.792      2.599    26.0778 0.0000e+00
      1.842      0.060     8.3498    101.783    114.374 116.844159    13.6800     0.1846     0.0426     0.0846 4.1970e+02     0.0077      1.806      2.620    26.0774 0.0000e+00
      1.857      0.062     8.3102    101.630    114.389 116.856761    13.6800     0.1923     0.0426     0.0846 4.2697e+02    -0.0225      1.821      2.641    26.0769 0.0000e+00
      1.873      0.063     8.2813    101.498    114.421 116.885110    13.6800     0.1694     0.1278     0.0846 4.1363e+02    -0.0225      1.837      2.664    26.0761 0.0000e+00
      1.889      0.064     8.2601    101.367    114.455 116.916765    13.6800     0.1656     0.1278     0.0846 4.1498e+02    -0.0074      1.853      2.687    26.0751 0.0000e+00
      1.907      0.064     8.2443    101.228    114.476 116.936167    13.6800     0.2304     0.1278     0.0846 4.1843e+02    -0.0376      1.870      2.712    26.0738 0.0000e+00
      1.924      0.062     8.2322    101.086    114.486 116.944490    13.6800     0.2419     0.1278     0.0846 4.0651e+02    -0.0074      1.887      2.737    26.0723 0.0000e+00
      1.940      0.059     8.2217    100.953    114.511 116.967953    13.6800     0.2419     0.0426     0.2538 4.0492e+02    -0.0678      1.903      2.760    26.0707 0.0000e+00
      1.955      0.055     8.2113    100.845    114.550 117.006812    13.6800     0.2381     0.0426     0.2538 4.1229e+02    -0.0074      1.918      2.782    26.0693 0.0000e+00
      1.969      0.051     8.2002    100.764    114.565 117.021431    13.6800     0.2342     0.0426     0.2538 4.2530e+02    -0.2793      1.931      2.800    26.0682 0.0000e+00
      1.980      0.047     8.1888    100.710    114.562 117.017706    13.6800     0.2113     0.0426     0.2538 4.2199e+02    -0.2340      1.942      2.817    26.0673 0.0000e+00
      1.991      0.044     8.1781    100.691    114.569 117.024646    13.6800     0.2190     0.0426     0.2538 4.4651e+02    -0.2944      1.953      2.832    26.0666 0.0000e+00
      2.002      0.042     8.1694    100.707    114.577 117.032100    13.5900     0.2533     0.0852     0.1269 4.7329e+02    -0.2944      1.963      2.847    26.0660 0.0000e+00
      2.012      0.040     8.1629    100.747    114.575 117.030057    13.5900     0.2495     0.0852     0.1269 4.4700e+02    -0.3095      1.974      2.862    26.0657 0.0000e+00
      2.022      0.038     8.1586    100.805    114.572 117.025972    13.5900     0.2533     0.0852     0.1269 5.4877e+02    -0.2642      1.983      2.876    26.0655 0.0000e+00
      2.032      0.037     8.1571    100.878    114.549 117.002755    13.5900     0.2571     0.0852     0.1269 4.5811e+02    -0.3700      1.993      2.890    26.0653 0.0000e+00
      2.041      0.036     8.1584    100.969    114.502 116.954215    13.6800     0.2495     0.0852     0.0846 5.2407e+02    -0.2038      2.002      2.903    26.0652 0.0000e+00
      2.050      0.035     8.1616    101.077    114.457 116.907408    13.6800     0.2037     0.0852     0.0846 4.4121e+02    -0.0074      2.010      2.915    26.0651 0.0000e+00
      2.059      0.034     8.1664    101.192    114.413 116.861852    13.6800     0.1579     0.0852     0.0846 4.3644e+02    -0.0678      2.019      2.928    26.0650 0.0000e+00
      2.067      0.033     8.1724    101.292    114.367 116.815399    13.6800     0.1770     0.0852     0.0846 4.6950e+02    -0.0678      2.028      2.940    26.0648 0.0000e+00
      2.076      0.032     8.1798    101.360    114.344 116.791661    13.5900     0.1846     0.0852     0.2115 4.3578e+02    -0.0074      2.036      2.952    26.0646 0.0000e+00
      2.084      0.031     8.1886    101.393    114.353 116.800307    13.5900     0.2190     0.0852     0.2115 4.1453e+02    -0.2491      2.044      2.964    26.0643 0.0000e+00
      2.091      0.031     8.1979    101.396    114.388 116.835644    13.5900     0.2075     0.0852     0.2115 3.9381e+02    -0.3397      2.051      2.975    26.0641 0.0000e+00
      2.099      0.031     8.2060    101.371    114.437 116.885096    13.5900     0.2533     0.0852     0.2115 3.9236e+02    -0.2340      2.058      2.985    26.0641 0.0000e+00
      2.106      0.032     8.2115    101.323    114.478 116.925848    13.5900     0.2419     0.0852     0.2115 3.9510e+02    -0.2340      2.066      2.996    26.0641 0.0000e+00
      2.114      0.032     8.2142    101.262    114.497 116.944768    13.5900     0.2266     0.0426     0.1269 4.0589e+02    -0.0225      2.074      3.007    26.0640 0.0000e+00
      2.123      0.033     8.2145    101.202    114.505 116.950902    13.5900     0.2419     0.0426     0.1269 4.0395e+02    -0.0678      2.082      3.020    26.0639 0.0000e+00
      2.132      0.034     8.2125    101.159    114.512 116.957884    13.5900     0.2381     0.0426     0.1269 3.9898e+02    -0.0376      2.091      3.032    26.0636 0.0000e+00
      2.141      0.034     8.2087    101.151    114.507 116.951578    13.5900     0.2419     0.0426     0.1269 4.0037e+02    -0.0376      2.100      3.045    26.0631 0.0000e+00
      2.150      0.034     8.2038    101.182    114.478 116.922301    13.6800     0.2152     0.0426     0.1692 4.0272e+02    -0.2944      2.108      3.058    26.0625 0.0000e+00
      2.159      0.034     8.1990    101.235    114.455 116.898245    13.6800     0.2419     0.0426     0.1692 4.1779e+02    -0.3095      2.117      3.070    26.0620 0.0000e+00
      2.168      0.033     8.1956    101.274    114.450 116.892997    13.6800     0.2152     0.0426     0.1692 4.0828e+02    -0.3700      2.126      3.083    26.0617 0.0000e+00
      2.176      0.033     8.1950    101.291    114.458 116.901156    13.6800     0.2152     0.0426     0.1692 4.0677e+02    -0.3549      2.134      3.095    26.0614 0.0000e+00
      2.184      0.032     8.1976    101.303    114.478 116.920898    13.6800     0.2304     0.0852     0.3384 4.2985e+02    -0.3246      2.142      3.107    26.0612 0.0000e+00
      2.192      0.032     8.2019    101.307    114.511 116.953488    13.6800     0.2075     0.0852     0.3384 4.0237e+02    -0.3549      2.150      3.118    26.0610 0.0000e+00
      2.200      0.032     8.2051    101.287    114.539 116.981616    13.6800     0.2304     0.0852     0.3384 4.0997e+02    -0.2491      2.157      3.129    26.0609 0.0000e+00
      2.208      0.033     8.2064    101.249    114.537 116.978783    13.6800     0.2533     0.0852     0.3384 4.2669e+02    -0.2793      2.165      3.140    26.0607 0.0000e+00
      2.216      0.034     8.2074    101.217    114.506 116.946234    13.5900     0.2381     0.0852     0.0846 4.1184e+02    -0.0678      2.173      3.152    26.0605 0.0000e+00
      2.225      0.035     8.2078    101.199    114.464 116.901289    13.5900     0.2228     0.0852     0.0846 3.9398e+02    -0.0678      2.182      3.165    26.0603 0.0000e+00
      2.234      0.037     8.2062    101.187    114.447 116.881961    13.5900     0.2113     0.0852     0.0846 3.8888e+02    -0.0527      2.191      3.178    26.0600 0.0000e+00
      2.244      0.039     8.2032    101.171    114.469 116.901098    13.5900     0.2571     0.0852     0.0846 3.9159e+02    -0.0074      2.200      3.192    26.0596 0.0000e+00
      2.254      0.040     8.2006    101.163    114.490 116.917801    13.5900     0.2037     0.0852     0.0846 4.1050e+02    -0.3246      2.210      3.206    26.0591 0.0000e+00
      2.264      0.042     8.1993    101.163    114.487 116.910526    13.5900     0.2190     0.0426     0.0846 3.8627e+02    -0.3095      2.221      3.221    26.0585 0.0000e+00
      2.275      0.043     8.1984    101.154    114.482 116.901332    13.5900     0.1999     0.0426     0.0846 3.8956e+02    -0.1283      2.232      3.237    26.0576 0.0000e+00
      2.287      0.044     8.1974    101.105    114.488 116.903766    13.5900     0.2152     0.0426     0.0846 3.8326e+02    -0.3397      2.243      3.253    26.0562 0.0000e+00
      2.299      0.044     8.1970    100.987    114.496 116.910478    13.5900     0.2381     0.0426     0.0846 3.8669e+02    -0.0527      2.254      3.270    26.0543 0.0000e+00
      2.310      0.045     8.1973    100.811    114.513 116.927256    13.5900     0.2571     0.0426     0.1269 3.7396e+02    -0.0225      2.266      3.286    26.0522 0.0000e+00
      2.322      0.045     8.1969    100.618    114.535 116.950576    13.5900     0.2228     0.0426     0.1269 3.7364e+02    -0.0678      2.277      3.302    26.0504 0.0000e+00
      2.333      0.045     8.1931    100.444    114.539 116.954656    13.5900     0.2190     0.0426     0.1269 4.0334e+02    -0.1131      2.288      3.318    26.0491 0.0000e+00
      2.344      0.046     8.1836    100.315    114.534 116.950583    13.5900     0.2991     0.0426     0.1269 3.8027e+02    -0.0225      2.299      3.334    26.0484 0.0000e+00
      2.356      0.047     8.1694    100.258    114.562 116.979272    13.5900     0.2915     0.0852     0.0423 3.8535e+02     0.0379      2.310      3.351    26.0482 0.0000e+00
      2.368      0.048     8.1538    100.286    114.608 117.026374    13.5900     0.3067     0.0852     0.0423 3.8922e+02    -0.0678      2.322      3.368    26.0483 0.0000e+00
      2.381      0.048     8.1396    100.397    114.636 117.054448    13.5900     0.2915     0.0852     0.0423 3.7356e+02     0.0983      2.335      3.386    26.0484 0.0000e+00
      2.394      0.047     8.1291    100.564    114.649 117.066980    13.5900     0.3067     0.0852     0.0423 3.6808e+02    -0.0376      2.348      3.405    26.0486 0.0000e+00
      2.406      0.045     8.1245    100.743    114.646 117.063314    13.5900     0.2991     0.0852     0.0423 3.8686e+02     0.0077      2.360      3.423    26.0487 0.0000e+00
      2.418      0.042     8.1267    100.898    114.627 117.042471    13.5900     0.2915     0.0000     0.2115 3.9398e+02    -0.0829      2.372      3.439    26.0486 0.0000e+00
      2.429      0.039     8.1358    101.011    114.604 117.018892    13.5900     0.3067     0.0000     0.2115 3.9057e+02    -0.0678      2.382      3.454    26.0485 0.0000e+00
      2.438      0.036     8.1494    101.076    114.581 116.994291    13.5900     0.2800     0.0000     0.2115 3.9716e+02    -0.0376      2.391      3.468    26.0482 0.0000e+00
      2.446      0.033     8.1639    101.102    114.553 116.966108    13.5900     0.2876     0.0000     0.2115 4.0509e+02    -0.0225      2.399      3.480    26.0479 0.0000e+00
      2.454      0.031     8.1765    101.117    114.537 116.948825    13.5900     0.3067     0.0852     0.0846 4.3248e+02    -0.0376      2.406      3.490    26.0476 0.0000e+00
      2.461      0.030     8.1857    101.129    114.540 116.951836    13.5900     0.2991     0.0852     0.0846 4.4856e+02    -0.0980      2.413      3.500    26.0474 0.0000e+00
      2.468      0.029     8.1910    101.129    114.534 116.945942    13.5900     0.2266     0.0852     0.0846 4.1292e+02    -0.2189      2.420      3.510    26.0472 0.0000e+00
      2.475      0.030     8.1932    101.103    114.501 116.911572    13.5900     0.2571     0.0852     0.0846 4.0063e+02    -0.2340      2.427      3.521    26.0470 0.0000e+00
      2.483      0.031     8.1944    101.050    114.465 116.873560    13.5900     0.2075     0.0852     0.2115 4.0483e+02    -0.2340      2.435      3.532    26.0469 0.0000e+00
      2.491      0.031     8.1954    100.972    114.445 116.851770    13.5900     0.2381     0.0852     0.2115 4.1130e+02    -0.2491      2.443      3.543    26.0467 0.0000e+00
      2.500      0.032     8.1953    100.876    114.439 116.844391    13.5900     0.2266     0.0852     0.2115 4.1318e+02    -0.2944      2.451      3.555    26.0466 0.0000e+00
      2.508      0.032     8.1933    100.776    114.449 116.853455    13.5900     0.2495     0.0852     0.2115 3.8888e+02    -0.2038      2.459      3.567    26.0463 0.0000e+00
      2.517      0.032     8.1891    100.678    114.463 116.867380    13.6800     0.2113     0.0426     0.0846 4.0255e+02    -0.2944      2.468      3.579    26.0459 0.0000e+00
      2.524      0.032     8.1828    100.594    114.461 116.863878    13.6800     0.2495     0.0426     0.0846 4.1166e+02    -0.3095      2.475      3.590    26.0454 0.0000e+00
      2.532      0.033     8.1752    100.530    114.452 116.852016    13.6800     0.2419     0.0426     0.0846 4.4613e+02    -0.0678      2.483      3.601    26.0449 0.0000e+00
      2.540      0.034     8.1671    100.487    114.467 116.864630    13.6800     0.2304     0.0426     0.0846 4.3606e+02    -0.0678      2.491      3.612    26.0445 0.0000e+00
      2.549      0.036     8.1592    100.463    114.505 116.901084    13.6800     0.2113     0.0426     0.0846 3.9621e+02    -0.0225      2.499      3.625    26.0440 0.0000e+00
      2.558      0.037     8.1525    100.463    114.533 116.927098    13.5900     0.2075     0.0426     0.1692 3.6888e+02    -0.0074      2.509      3.639    26.0434 0.0000e+00
      2.568      0.039     8.1475    100.476    114.547 116.939609    13.5900     0.2953     0.0426     0.1692 3.8376e+02    -0.0074      2.519      3.653    26.0424 0.0000e+00
      2.579      0.041     8.1441    100.482    114.563 116.953955    13.5900     0.2991     0.0426     0.1692 3.8652e+02    -0.0376      2.529      3.668    26.0412 0.0000e+00
      2.589      0.042     8.1424    100.454    114.572 116.961960    13.5900     0.2724     0.0426     0.1692 3.9898e+02    -0.0376      2.539      3.683    26.0400 0.0000e+00
      2.600      0.043     8.1425    100.383    114.585 116.973758    13.6800     0.2915     0.0426     0.1269 3.8610e+02    -0.0376      2.550      3.698    26.0390 0.0000e+00
      2.611      0.043     8.1438    100.281    114.612 117.000497    13.6800     0.2953     0.0426     0.1269 3.9510e+02    -0.0980      2.561      3.714    26.0383 0.0000e+00
      2.623      0.043     8.1443    100.174    114.622 117.009305    13.6800     0.2953     0.0426     0.1269 3.7608e+02    -0.0829      2.572      3.731    26.0376 0.0000e+00
      2.635      0.043     8.1422    100.079    114.601 116.986532    13.6800     0.2953     0.0426     0.1269 3.7113e+02    -0.0074      2.584      3.747    26.0369 0.0000e+00
      2.646      0.043     8.1365    100.005    114.582 116.966105    13.6800     0.2876     0.0852     0.0846 4.0721e+02    -0.1283      2.594      3.763    26.0363 0.0000e+00
      2.656      0.043     8.1283     99.962    114.581 116.962576    13.6800     0.3067     0.0852     0.0846 3.8110e+02     0.2494      2.605      3.778    26.0357 0.0000e+00
      2.666      0.042     8.1197     99.944    114.572 116.951005    13.6800     0.3067     0.0852     0.0846 3.5775e+02     0.2192      2.615      3.793    26.0352 0.0000e+00
      2.677      0.042     8.1120     99.931    114.555 116.932307    13.6800     0.2800     0.0852     0.0846 3.6848e+02     0.1588      2.626      3.808    26.0346 0.0000e+00
      2.688      0.043     8.1061     99.905    114.554 116.929494    13.6800     0.2724     0.0426     0.1692 3.7838e+02     0.0983      2.637      3.824    26.0339 0.0000e+00
      2.700      0.043     8.1028     99.864    114.567 116.941816    13.6800     0.2991     0.0426     0.1692 3.7469e+02    -0.0980      2.647      3.840    26.0330 0.0000e+00
      2.711      0.043     8.1015     99.822    114.583 116.956559    13.6800     0.2648     0.0426     0.1692 3.7953e+02    -0.0074      2.658      3.855    26.0321 0.0000e+00
      2.721      0.044     8.1005     99.803    114.585 116.957655    13.6800     0.3029     0.0426     0.1692 3.7895e+02    -0.0980      2.669      3.871    26.0313 0.0000e+00
      2.732      0.044     8.0985     99.815    114.570 116.941395    13.6800     0.2953     0.0426     0.1692 3.6299e+02    -0.0376      2.679      3.886    26.0307 0.0000e+00
      2.744      0.044     8.0953     99.846    114.561 116.931444    13.6800     0.2648     0.0426     0.1692 3.7396e+02     0.1890      2.691      3.902    26.0301 0.0000e+00
      2.756      0.044     8.0920     99.889    114.563 116.933147    13.6800     0.2762     0.0426     0.1692 3.7040e+02     0.2343      2.702      3.919    26.0296 0.0000e+00
      2.767      0.043     8.0905     99.940    114.553 116.922960    13.6800     0.3105     0.0426     0.1692 3.5993e+02     0.1739      2.714      3.936    26.0292 0.0000e+00
      2.778      0.042     8.0915     99.992    114.521 116.890165    13.6800     0.2762     0.0426     0.1692 3.5265e+02     0.2041      2.725      3.952    26.0288 0.0000e+00
      2.788      0.041     8.0941    100.036    114.484 116.852018    13.6800     0.2648     0.0426     0.2538 3.5013e+02     0.2192      2.735      3.966    26.0284 0.0000e+00
      2.798      0.041     8.0976    100.073    114.465 116.832345    13.6800     0.2800     0.0426     0.2538 3.7862e+02     0.1134      2.744      3.979    26.0282 0.0000e+00
      2.807      0.043     8.1017    100.111    114.453 116.819900    13.6800     0.2838     0.0426     0.2538 3.9049e+02     0.2947      2.753      3.993    26.0282 0.0000e+00
      2.818      0.046     8.1060    100.157    114.434 116.799365    13.6800     0.2800     0.0426     0.2538 3.9296e+02     0.2494      2.763      4.008    26.0282 0.0000e+00
      2.830      0.049     8.1096    100.211    114.424 116.789264    13.6800     0.2991     0.0426     0.0846 3.6370e+02     0.1890      2.775      4.025    26.0282 0.0000e+00
      2.843      0.053     8.1125    100.261    114.434 116.798903    13.6800     0.2915     0.0426     0.0846 3.8342e+02     0.2645      2.788      4.044    26.0280 0.0000e+00
      2.857      0.056     8.1156    100.286    114.450 116.814851    13.6800     0.3182     0.0426     0.0846 3.6284e+02     0.2796      2.802      4.065    26.0277 0.0000e+00
      2.873      0.058     8.1194    100.272    114.451 116.815362    13.6800     0.2876     0.0426     0.0846 3.5074e+02     0.1588      2.817      4.086    26.0274 0.0000e+00
      2.888      0.058     8.1239    100.219    114.444 116.806573    13.6800     0.2800     0.0426     0.0846 3.5380e+02     0.1890      2.832      4.108    26.0271 0.0000e+00
      2.903      0.058     8.1280    100.138    114.467 116.828139    13.7700     0.2800     0.0426     0.1692 3.6545e+02     0.1588      2.847      4.130    26.0269 0.0000e+00
      2.919      0.058     8.1300    100.041    114.520 116.879810    13.7700     0.3220     0.0426     0.1692 3.8888e+02     0.1134      2.862      4.151    26.0268 0.0000e+00
      2.933      0.056     8.1289     99.938    114.572 116.929367    13.7700     0.2800     0.0426     0.1692 3.5985e+02     0.1739      2.876      4.172    26.0265 0.0000e+00
      2.947      0.054     8.1246     99.837    114.599 116.954023    13.7700     0.2838     0.0426     0.1692 3.5143e+02     0.1437      2.890      4.192    26.0260 0.0000e+00
      2.961      0.052     8.1182     99.734    114.596 116.948354    13.6800     0.2991     0.0426     0.0846 3.5666e+02     0.1588      2.904      4.211    26.0252 0.0000e+00
      2.974      0.050     8.1105     99.617    114.593 116.942847    13.6800     0.3220     0.0426     0.0846 3.6832e+02     0.2947      2.917      4.230    26.0241 0.0000e+00
      2.987      0.049     8.1024     99.486    114.605 116.952035    13.6800     0.2953     0.0426     0.0846 3.5860e+02     0.2947      2.929      4.248    26.0227 0.0000e+00
      2.998      0.048     8.0944     99.352    114.615 116.958367    13.6800     0.2876     0.0426     0.0846 3.6103e+02     0.1739      2.940      4.264    26.0212 0.0000e+00
      3.009      0.048     8.0862     99.219    114.633 116.971532    13.7700     0.2876     0.0852     0.0846 3.5558e+02    -0.0376      2.951      4.280    26.0199 0.0000e+00
      3.021      0.049     8.0769     99.089    114.656 116.987041    13.7700     0.3067     0.0852     0.0846 3.5837e+02    -0.0376      2.963      4.297    26.0189 0.0000e+00
      3.034      0.051     8.0665     98.960    114.649 116.973027    13.7700     0.3105     0.0852     0.0846 3.6457e+02     0.0077      2.975      4.314    26.0179 0.0000e+00
      3.047      0.052     8.0558     98.838    114.613 116.929755    13.7700     0.2953     0.0852     0.0846 3.6048e+02    -0.0225      2.988      4.334    26.0162 0.0000e+00
      3.061      0.053     8.0455     98.739    114.576 116.887683    13.7700     0.2876     0.0426     0.1269 3.3597e+02     0.0228      3.002      4.354    26.0136 0.0000e+00
      3.076      0.053     8.0354     98.677    114.554 116.861592    13.7700     0.2991     0.0426     0.1269 3.3104e+02    -0.1131      3.016      4.375    26.0104 0.0000e+00
      3.090      0.052     8.0254     98.655    114.539 116.844525    13.7700     0.2991     0.0426     0.1269 3.3692e+02     0.0077      3.030      4.394    26.0072 0.0000e+00
      3.103      0.051     8.0159     98.667    114.532 116.835931    13.7700     0.3296     0.0426     0.1269 3.3898e+02    -0.0527      3.043      4.413    26.0045 0.0000e+00
      3.115      0.049     8.0081     98.698    114.529 116.831517    13.7700     0.3563     0.0426     0.1269 3.3328e+02    -0.0225      3.055      4.431    26.0024 0.0000e+00
      3.127      0.048     8.0033     98.721    114.534 116.836107    13.9500     0.3411     0.0852     0.0846 3.4937e+02    -0.0527      3.067      4.448    26.0009 0.0000e+00
      3.139      0.047     8.0016     98.713    114.546 116.846925    13.9500     0.3678     0.0852     0.0846 3.4545e+02    -0.0225      3.079      4.465    26.0000 0.0000e+00
      3.151      0.046     8.0027     98.661    114.544 116.842855    13.9500     0.3334     0.0852     0.0846 3.3270e+02    -0.0074      3.090      4.481    25.9994 0.0000e+00
      3.162      0.046     8.0053     98.570    114.535 116.830813    13.9500     0.3563     0.0852     0.0846 3.2442e+02     0.1739      3.101      4.497    25.9991 0.0000e+00
      3.173      0.047     8.0072     98.473    114.528 116.819586    13.8600     0.3296     0.0426     0.1269 3.2597e+02     0.1437      3.112      4.514    25.9988 0.0000e+00
      3.185      0.047     8.0066     98.399    114.512 116.798181    13.8600     0.3563     0.0426     0.1269 3.3112e+02     0.2192      3.123      4.530    25.9983 0.0000e+00
      3.197      0.048     8.0025     98.360    114.502 116.782889    13.8600     0.3601     0.0426     0.1269 3.3913e+02     0.1890      3.136      4.548    25.9974 0.0000e+00
      3.210      0.049     7.9953     98.362    114.515 116.791632    13.8600     0.4212     0.0426     0.1269 3.3854e+02     0.4911      3.148      4.566    25.9961 0.0000e+00
      3.223      0.049     7.9877     98.411    114.517 116.788742    13.8600     0.4364     0.0426     0.0846 3.4530e+02     0.4005      3.161      4.584    25.9944 0.0000e+00
      3.236      0.048     7.9821     98.503    114.499 116.765446    13.8600     0.4135     0.0426     0.0846 3.2203e+02     0.4458      3.173      4.602    25.9923 0.0000e+00
      3.248      0.047     7.9792     98.625    114.500 116.761532    13.8600     0.4021     0.0426     0.0846 3.2001e+02     0.4760      3.185      4.620    25.9900 0.0000e+00
      3.260      0.045     7.9797     98.751    114.508 116.765957    13.8600     0.4173     0.0426     0.0846 3.1848e+02     0.5213      3.197      4.637    25.9878 0.0000e+00
      3.271      0.042     7.9840     98.850    114.492 116.745900    13.8600     0.4021     0.0426     0.0846 3.1952e+02     0.3854      3.208      4.653    25.9856 0.0000e+00
      3.282      0.040     7.9918     98.903    114.465 116.714014    13.7700     0.4135     0.0852     0.0846 3.1904e+02     0.4911      3.218      4.668    25.9834 0.0000e+00
      3.291      0.039     8.0020     98.914    114.441 116.683795    13.7700     0.4059     0.0852     0.0846 3.2407e+02     0.4307      3.228      4.681    25.9813 0.0000e+00
      3.300      0.039     8.0124     98.898    114.404 116.637184    13.7700     0.4173     0.0852     0.0846 3.3191e+02     0.2192      3.237      4.694    25.9796 0.0000e+00
      3.309      0.039     8.0206     98.871    114.369 116.589750    13.7700     0.4021     0.0852     0.0846 3.1463e+02     0.2494      3.246      4.707    25.9781 0.0000e+00
      3.319      0.039     8.0252     98.838    114.377 116.588843    13.8600     0.4135     0.0852     0.2115 3.1648e+02     0.2947      3.255      4.721    25.9764 0.0000e+00
      3.330      0.039     8.0265     98.802    114.408 116.614219    13.8600     0.3945     0.0852     0.2115 3.1745e+02     0.2645      3.266      4.736    25.9737 0.0000e+00
      3.341      0.039     8.0258     98.784    114.424 116.626647    13.8600     0.3868     0.0852     0.2115 3.0580e+02     0.5666      3.277      4.752    25.9696 0.0000e+00
      3.351      0.038     8.0244     98.800    114.437 116.639441    13.8600     0.3868     0.0852     0.2115 3.0593e+02     0.3854      3.287      4.767    25.9648 0.0000e+00
      3.361      0.037     8.0223     98.851    114.450 116.652013    13.9500     0.4250     0.0852     0.2115 3.0733e+02     0.4458      3.296      4.780    25.9606 0.0000e+00
      3.370      0.036     8.0198     98.923    114.452 116.653716    13.9500     0.4212     0.0852     0.2115 3.0640e+02     0.4005      3.304      4.793    25.9578 0.0000e+00
      3.378      0.035     8.0185     99.004    114.454 116.655003    13.9500     0.4021     0.0852     0.2115 2.9542e+02     0.1890      3.313      4.805    25.9565 0.0000e+00
      3.386      0.034     8.0199     99.082    114.454 116.652219    13.9500     0.3945     0.0852     0.2115 2.8995e+02     0.1890      3.321      4.817    25.9561 0.0000e+00
      3.395      0.033     8.0240     99.149    114.453 116.646620    14.0400     0.4212     0.0852     0.0423 2.8819e+02     0.2192      3.329      4.829    25.9560 0.0000e+00
      3.403      0.033     8.0299     99.188    114.464 116.654713    14.0400     0.3945     0.0852     0.0423 2.8359e+02     0.1286      3.338      4.841    25.9558 0.0000e+00
      3.412      0.033     8.0365     99.182    114.491 116.680655    14.0400     0.4021     0.0852     0.0423 2.9127e+02     0.1588      3.346      4.853    25.9551 0.0000e+00
      3.421      0.033     8.0431     99.120    114.520 116.709364    14.0400     0.4135     0.0852     0.0423 2.9146e+02     0.2192      3.355      4.865    25.9538 0.0000e+00
      3.429      0.033     8.0488     99.019    114.533 116.722497    14.0400     0.4212     0.0852     0.0423 2.9165e+02     0.2192      3.363      4.877    25.9522 0.0000e+00
      3.437      0.032     8.0522     98.923    114.529 116.719556    14.1300     0.4173     0.0426     0.0846 2.8944e+02     0.1890      3.371      4.888    25.9507 0.0000e+00
      3.445      0.032     8.0518     98.852    114.518 116.707756    14.1300     0.5013     0.0426     0.0846 2.9210e+02     0.2645      3.378      4.900    25.9497 0.0000e+00
      3.453      0.033     8.0468     98.795    114.503 116.691951    14.1300     0.4860     0.0426     0.0846 2.9516e+02     0.2494      3.386      4.911    25.9494 0.0000e+00
      3.461      0.034     8.0386     98.752    114.481 116.667925    14.1300     0.4784     0.0426     0.0846 2.9510e+02     0.2041      3.394      4.923    25.9495 0.0000e+00
      3.470      0.035     8.0307     98.736    114.441 116.625274    14.0400     0.4898     0.0426     0.0846 2.9644e+02     0.2494      3.403      4.935    25.9498 0.0000e+00
      3.479      0.036     8.0249     98.746    114.393 116.572621    14.0400     0.4936     0.0426     0.0846 3.0283e+02     0.4005      3.412      4.948    25.9499 0.0000e+00
      3.488      0.037     8.0204     98.764    114.350 116.525925    14.0400     0.4784     0.0426     0.0846 2.9587e+02     0.3552      3.421      4.961    25.9496 0.0000e+00
      3.498      0.038     8.0170     98.777    114.323 116.494734    14.0400     0.4936     0.0426     0.0846 2.9683e+02     0.4156      3.430      4.975    25.9489 0.0000e+00
      3.508      0.039     8.0158     98.788    114.314 116.482729    14.0400     0.4975     0.0426     0.0846 2.9599e+02     0.4458      3.440      4.989    25.9479 0.0000e+00
      3.518      0.040     8.0168     98.816    114.313 116.478710    14.0400     0.4822     0.0426     0.0846 2.9722e+02     0.4609      3.450      5.003    25.9466 0.0000e+00
      3.529      0.040     8.0186     98.852    114.318 116.481603    14.0400     0.5013     0.0426     0.0846 2.9184e+02     0.4609      3.460      5.018    25.9451 0.0000e+00
      3.540      0.040     8.0198     98.866    114.346 116.508181    14.0400     0.4784     0.0426     0.0846 2.9292e+02     0.3854      3.471      5.034    25.9435 0.0000e+00
      3.550      0.039     8.0209     98.834    114.387 116.547531    14.0400     0.4746     0.0426     0.0846 2.9305e+02     0.6422      3.481      5.049    25.9422 0.0000e+00
      3.560      0.038     8.0233     98.761    114.414 116.572147    14.0400     0.4784     0.0426     0.1692 2.8470e+02     0.3854      3.491      5.063    25.9411 0.0000e+00
      3.569      0.036     8.0264     98.674    114.433 116.588593    14.0400     0.4708     0.0426     0.1692 2.8261e+02     0.4005      3.500      5.077    25.9402 0.0000e+00
      3.578      0.034     8.0277     98.583    114.449 116.601254    14.0400     0.4708     0.0426     0.1692 2.8126e+02     0.5515      3.509      5.089    25.9394 0.0000e+00
      3.586      0.033     8.0252     98.482    114.449 116.597506    14.0400     0.4975     0.0426     0.1692 2.8371e+02     0.3552      3.517      5.101    25.9385 0.0000e+00
      3.594      0.033     8.0195     98.378    114.436 116.580351    14.4900     0.4326     0.0426     0.0846 2.8010e+02     0.5213      3.525      5.112    25.9372 0.0000e+00
      3.602      0.033     8.0126     98.303    114.429 116.571213    14.4900     0.4364     0.0426     0.0846 2.7515e+02     0.4156      3.533      5.124    25.9356 0.0000e+00
      3.611      0.034     8.0054     98.282    114.423 116.563654    14.4900     0.3868     0.0426     0.0846 2.7539e+02     0.4609      3.541      5.135    25.9340 0.0000e+00
      3.619      0.035     7.9975     98.313    114.404 116.541660    14.4900     0.4326     0.0426     0.0846 2.7737e+02     0.4458      3.550      5.148    25.9324 0.0000e+00
      3.629      0.037     7.9893     98.373    114.396 116.529364    14.4900     0.5013     0.0852     0.1692 2.7384e+02     0.5213      3.559      5.161    25.9310 0.0000e+00
      3.638      0.039     7.9833     98.447    114.417 116.545489    14.4900     0.4746     0.0852     0.1692 2.8169e+02     0.4458      3.568      5.175    25.9300 0.0000e+00
      3.649      0.041     7.9817     98.519    114.437 116.560332    14.4900     0.4669     0.0852     0.1692 2.8334e+02     0.4458      3.578      5.190    25.9290 0.0000e+00
      3.659      0.042     7.9843     98.581    114.416 116.531854    14.4900     0.4975     0.0852     0.1692 2.7593e+02     0.4307      3.589      5.205    25.9279 0.0000e+00
      3.670      0.044     7.9895     98.635    114.364 116.470459    14.4000     0.5165     0.0426     0.1692 2.6918e+02     0.5213      3.600      5.220    25.9263 0.0000e+00
      3.682      0.045     7.9958     98.669    114.311 116.405775    14.4000     0.5280     0.0426     0.1692 2.6865e+02     0.3400      3.611      5.237    25.9241 0.0000e+00
      3.693      0.046     8.0020     98.679    114.274 116.356551    14.4000     0.5547     0.0426     0.1692 2.7336e+02     0.4458      3.622      5.253    25.9215 0.0000e+00
      3.705      0.047     8.0075     98.662    114.254 116.321660    14.4000     0.5203     0.0426     0.1692 2.7248e+02     0.4458      3.634      5.270    25.9184 0.0000e+00
      3.718      0.048     8.0124     98.602    114.238 116.289796    14.4000     0.6119     0.0426     0.1692 2.7599e+02     0.6724      3.646      5.288    25.9147 0.0000e+00
      3.731      0.047     8.0159     98.480    114.233 116.270461    14.6700     0.6272     0.0852     0.2115 2.6761e+02     0.7177      3.659      5.306    25.9102 0.0000e+00
      3.743      0.046     8.0175     98.288    114.236 116.264497    14.6700     0.6348     0.0852     0.2115 2.6231e+02     0.7177      3.671      5.324    25.9048 0.0000e+00
      3.755      0.044     8.0170     98.013    114.237 116.260314    14.6700     0.6500     0.0852     0.2115 2.6494e+02     0.6422      3.682      5.341    25.8984 0.0000e+00
      3.766      0.041     8.0131     97.656    114.234 116.256797    14.6700     0.6310     0.0852     0.2115 2.6679e+02     0.6875      3.694      5.357    25.8917 0.0000e+00
      3.777      0.038     8.0041     97.254    114.255 116.279007    14.6700     0.6424     0.0852     0.1692 2.6259e+02     0.6875      3.704      5.371    25.8857 0.0000e+00
      3.786      0.036     7.9891     96.877    114.303 116.330866    14.6700     0.6272     0.0852     0.1692 2.5790e+02     0.7177      3.712      5.384    25.8816 0.0000e+00
      3.794      0.034     7.9671     96.587    114.324 116.354206    14.6700     0.6348     0.0852     0.1692 2.6004e+02     0.7026      3.720      5.396    25.8796 0.0000e+00
      3.801      0.033     7.9381     96.422    114.289 116.319253    14.6700     0.6500     0.0852     0.1692 2.5567e+02     0.9443      3.728      5.407    25.8791 0.0000e+00
      3.809      0.032     7.9054     96.382    114.238 116.266683    14.6700     0.6348     0.0426     0.1692 2.5164e+02     0.8839      3.735      5.418    25.8797 0.0000e+00
      3.817      0.033     7.8746     96.442    114.210 116.234478    14.6700     0.6195     0.0426     0.1692 2.5034e+02     0.9292      3.743      5.429    25.8807 0.0000e+00
      3.826      0.033     7.8509     96.564    114.216 116.234047    14.6700     0.6348     0.0426     0.1692 2.5001e+02     0.8990      3.752      5.441    25.8816 0.0000e+00
      3.834      0.034     7.8373     96.707    114.242 116.253278    14.6700     0.6806     0.0426     0.1692 2.4522e+02     1.0652      3.760      5.454    25.8820 0.0000e+00
      3.843      0.034     7.8341     96.827    114.262 116.265297    14.6700     0.7073     0.0426     0.1692 2.4141e+02     0.9896      3.769      5.467    25.8815 0.0000e+00
      3.852      0.034     7.8392     96.889    114.281 116.277310    14.7600     0.6920     0.0426     0.0846 2.4084e+02     0.9745      3.778      5.479    25.8800 0.0000e+00
      3.861      0.034     7.8496     96.867    114.311 116.302520    14.7600     0.6996     0.0426     0.0846 2.4141e+02     0.9443      3.787      5.492    25.8774 0.0000e+00
      3.870      0.033     7.8616     96.764    114.326 116.313649    14.7600     0.6882     0.0426     0.0846 2.4005e+02     0.8688      3.795      5.504    25.8741 0.0000e+00
      3.878      0.033     7.8719     96.627    114.303 116.287667    14.7600     0.7302     0.0426     0.0846 2.4379e+02     0.9443      3.803      5.516    25.8705 0.0000e+00
      3.886      0.033     7.8774     96.511    114.274 116.255642    14.9400     0.6920     0.0852     0.1692 2.4828e+02     0.9896      3.811      5.527    25.8673 0.0000e+00
      3.894      0.034     7.8760     96.445    114.257 116.235035    14.9400     0.6920     0.0852     0.1692 2.4490e+02     0.8839      3.819      5.539    25.8649 0.0000e+00
      3.903      0.035     7.8678     96.432    114.223 116.196351    14.9400     0.7035     0.0852     0.1692 2.4299e+02     0.8990      3.827      5.551    25.8633 0.0000e+00
      3.912      0.036     7.8568     96.457    114.179 116.145273    14.9400     0.7073     0.0852     0.1692 2.4099e+02     1.0047      3.836      5.564    25.8621 0.0000e+00
      3.921      0.037     7.8476     96.494    114.142 116.100180    14.7600     0.7187     0.0426     0.0846 2.4141e+02     0.9745      3.845      5.578    25.8610 0.0000e+00
      3.931      0.039     7.8424     96.533    114.120 116.067046    14.7600     0.7149     0.0426     0.0846 2.4105e+02     0.9443      3.855      5.592    25.8596 0.0000e+00
      3.941      0.040     7.8417     96.570    114.116 116.051033    14.7600     0.6806     0.0426     0.0846 2.3964e+02     1.2313      3.865      5.606    25.8576 0.0000e+00
      3.952      0.042     7.8440     96.591    114.116 116.035873    14.7600     0.6920     0.0426     0.0846 2.4331e+02     1.2011      3.875      5.621    25.8550 0.0000e+00
      3.962      0.044     7.8475     96.572    114.115 116.017521    14.8500     0.6806     0.0852     0.1692 2.3964e+02     1.2313      3.886      5.636    25.8516 0.0000e+00
      3.973      0.045     7.8513     96.507    114.137 116.019081    14.8500     0.6996     0.0852     0.1692 2.4126e+02     1.0954      3.897      5.652    25.8472 0.0000e+00
      3.985      0.046     7.8552     96.405    114.181 116.040968    14.8500     0.7187     0.0852     0.1692 2.4011e+02     1.1860      3.908      5.669    25.8418 0.0000e+00
      3.998      0.046     7.8578     96.282    114.219 116.057020    14.8500     0.6882     0.0852     0.1692 2.3736e+02     1.2011      3.920      5.686    25.8351 0.0000e+00
      4.010      0.046     7.8574     96.150    114.234 116.053515    14.8500     0.7187     0.0852     0.1692 2.3622e+02     1.2313      3.933      5.704    25.8273 0.0000e+00
      4.023      0.044     7.8533     96.018    114.226 116.031519    14.8500     0.7073     0.0426     0.1269 2.3474e+02     1.0652      3.945      5.722    25.8184 0.0000e+00
      4.034      0.043     7.8464     95.892    114.204 115.999163    14.8500     0.7797     0.0426     0.1269 2.3236e+02     0.9292      3.956      5.738    25.8086 0.0000e+00
      4.044      0.041     7.8378     95.786    114.185 115.969820    14.8500     0.7569     0.0426     0.1269 2.3674e+02     0.8990      3.966      5.752    25.7987 0.0000e+00
      4.054      0.039     7.8283     95.707    114.180 115.955663    14.8500     0.7645     0.0426     0.1269 2.3474e+02     0.9745      3.975      5.766    25.7905 0.0000e+00
      4.063      0.039     7.8184     95.657    114.175 115.942916    15.3000     0.7645     0.0426     0.2961 2.3530e+02     0.9141      3.985      5.779    25.7843 0.0000e+00
      4.073      0.039     7.8088     95.624    114.157 115.914181    15.3000     0.7683     0.0426     0.2961 2.3019e+02     1.2918      3.994      5.793    25.7796 0.0000e+00
      4.082      0.040     7.8007     95.580    114.134 115.875795    15.3000     0.7912     0.0426     0.2961 2.2706e+02     1.1709      4.003      5.806    25.7755 0.0000e+00
      4.093      0.043     7.7948     95.511    114.116 115.839520    15.3000     0.7797     0.0426     0.2961 2.2662e+02     1.1709      4.013      5.821    25.7717 0.0000e+00
      4.103      0.046     7.7913     95.429    114.112 115.815680    15.6600     0.7721     0.0852     0.2115 2.2840e+02     1.1860      4.024      5.836    25.7680 0.0000e+00
      4.115      0.050     7.7893     95.343    114.124 115.805917    15.6600     0.7607     0.0852     0.2115 2.2825e+02     1.1407      4.035      5.853    25.7634 0.0000e+00
      4.128      0.054     7.7865     95.275    114.136 115.795625    15.6600     0.7797     0.0852     0.2115 2.2687e+02     1.1256      4.048      5.871    25.7571 0.0000e+00
      4.142      0.058     7.7821     95.244    114.124 115.762061    15.6600     0.7607     0.0852     0.2115 2.2485e+02     1.2918      4.062      5.892    25.7492 0.0000e+00
      4.158      0.061     7.7766     95.237    114.098 115.716271    15.6600     0.7645     0.0852     0.2115 2.2339e+02     1.1407      4.078      5.914    25.7402 0.0000e+00
      4.175      0.064     7.7710     95.235    114.078 115.678043    15.7500     0.8255     0.0852     0.2538 2.1831e+02     1.5335      4.094      5.938    25.7306 0.0000e+00
      4.192      0.065     7.7669     95.225    114.061 115.645182    15.7500     0.8103     0.0852     0.2538 2.1807e+02     1.4277      4.111      5.962    25.7209 0.0000e+00
      4.209      0.065     7.7657     95.194    114.049 115.620922    15.7500     0.8446     0.0852     0.2538 2.1926e+02     1.4730      4.128      5.987    25.7115 0.0000e+00
      4.226      0.063     7.7664     95.134    114.043 115.606792    15.7500     0.8293     0.0852     0.2538 2.1628e+02     1.3824      4.145      6.011    25.7027 0.0000e+00
      4.243      0.060     7.7673     95.046    114.038 115.599025    15.9300     0.8293     0.0426     0.2115 2.1380e+02     1.6845      4.161      6.035    25.6949 0.0000e+00
      4.258      0.056     7.7675     94.940    114.051 115.613548    15.9300     0.8713     0.0426     0.2115 2.1021e+02     1.5788      4.176      6.057    25.6883 0.0000e+00
      4.273      0.052     7.7657     94.840    114.098 115.664233    15.9300     0.8789     0.0426     0.2115 2.0943e+02     1.6845      4.190      6.077    25.6830 0.0000e+00
      4.285      0.047     7.7612     94.778    114.140 115.710601    15.9300     0.8637     0.0426     0.2115 2.0861e+02     1.6543      4.202      6.095    25.6795 0.0000e+00
      4.296      0.042     7.7542     94.767    114.164 115.737017    16.6500     0.8713     0.0852     0.1269 2.1030e+02     1.6996      4.213      6.110    25.6781 0.0000e+00
      4.306      0.038     7.7455     94.804    114.195 115.768525    16.6500     0.9590     0.0852     0.1269 2.1338e+02     1.8809      4.222      6.124    25.6787 0.0000e+00
      4.314      0.035     7.7371     94.884    114.214 115.787529    16.6500     0.9590     0.0852     0.1269 2.1044e+02     1.9262      4.231      6.136    25.6803 0.0000e+00
      4.322      0.032     7.7319     94.993    114.208 115.781098    16.6500     0.9362     0.0852     0.1269 2.0766e+02     1.8809      4.239      6.148    25.6818 0.0000e+00
      4.330      0.030     7.7309     95.103    114.196 115.767516    16.7400     0.9285     0.1278     0.2538 2.0984e+02     1.9866      4.246      6.159    25.6827 0.0000e+00
      4.337      0.028     7.7339     95.189    114.180 115.747161    16.7400     0.8942     0.1278     0.2538 2.0939e+02     1.9262      4.253      6.169    25.6828 0.0000e+00
      4.344      0.027     7.7404     95.238    114.154 115.716604    16.7400     0.8789     0.1278     0.2538 2.0939e+02     1.8960      4.260      6.179    25.6828 0.0000e+00
      4.351      0.026     7.7493     95.246    114.133 115.689694    16.7400     0.8980     0.1278     0.2538 2.0807e+02     1.8809      4.267      6.189    25.6825 0.0000e+00
      4.357      0.026     7.7584     95.216    114.114 115.665256    16.7400     0.8713     0.1278     0.2538 2.0578e+02     1.8960      4.273      6.198    25.6817 0.0000e+00
      4.364      0.025     7.7656     95.155    114.110 115.656771    16.8300     0.8789     0.0852     0.2115 2.0627e+02     1.5788      4.279      6.207    25.6802 0.0000e+00
      4.370      0.024     7.7699     95.072    114.128 115.671976    16.8300     0.9018     0.0852     0.2115 2.0547e+02     1.6090      4.285      6.216    25.6782 0.0000e+00
      4.376      0.024     7.7709     94.981    114.130 115.672926    16.8300     0.9056     0.0852     0.2115 2.0578e+02     1.7298      4.292      6.225    25.6760 0.0000e+00
      4.383      0.023     7.7687     94.903    114.115 115.659876    16.8300     0.8942     0.0852     0.2115 2.0471e+02     1.7147      4.298      6.234    25.6738 0.0000e+00
      4.388      0.022     7.7640     94.853    114.102 115.651343    16.7400     0.8942     0.0852     0.3384 2.0070e+02     1.3673      4.303      6.242    25.6718 0.0000e+00
      4.394      0.021     7.7575     94.838    114.084 115.635055    16.7400     0.8713     0.0852     0.3384 1.9927e+02     1.4579      4.309      6.250    25.6702 0.0000e+00
      4.399      0.021     7.7502     94.856    114.081 115.630667    16.7400     0.8713     0.0852     0.3384 2.0035e+02     1.4730      4.314      6.257    25.6698 0.0000e+00
      4.404      0.021     7.7436     94.899    114.117 115.663006    16.7400     0.9285     0.0852     0.3384 1.9974e+02     1.3371      4.319      6.264    25.6708 0.0000e+00
      4.409      0.021     7.7393     94.951    114.153 115.690699    16.6500     0.8866     0.0852     0.2961 2.0096e+02     1.5939      4.324      6.271    25.6726 0.0000e+00
      4.414      0.023     7.7380     94.997    114.153 115.675134    16.6500     0.8866     0.0852     0.2961 2.0026e+02     1.6845      4.329      6.278    25.6736 0.0000e+00
      4.419      0.025     7.7395     95.020    114.136 115.636158    16.6500     0.9133     0.0852     0.2961 1.9647e+02     1.6090      4.334      6.286    25.6730 0.0000e+00
      4.426      0.027     7.7433     95.003    114.115 115.583376    16.6500     0.8827     0.0852     0.2961 1.9460e+02     1.6845      4.340      6.295    25.6710 0.0000e+00
      4.433      0.030     7.7481     94.928    114.089 115.520711    16.8300     0.9552     0.0426     0.2961 1.9363e+02     1.9413      4.347      6.305    25.6672 0.0000e+00
      4.441      0.032     7.7527     94.777    114.067 115.463445    16.8300     0.9705     0.0426     0.2961 1.9183e+02     1.9564      4.355      6.317    25.6608 0.0000e+00
      4.450      0.034     7.7560     94.551    114.057 115.426304    16.8300     0.9438     0.0426     0.2961 1.8898e+02     1.8658      4.364      6.330    25.6509 0.0000e+00
      4.460      0.035     7.7565     94.264    114.068 115.417380    16.8300     0.9705     0.0426     0.2961 1.8750e+02     1.8507      4.373      6.343    25.6373 0.0000e+00
      4.469      0.035     7.7526     93.947    114.088 115.420296    16.8300     1.0239     0.0426     0.2961 1.8795e+02     2.3190      4.383      6.357    25.6212 0.0000e+00
      4.478      0.035     7.7425     93.645    114.120 115.437827    17.1900     1.0201     0.1278     0.2538 1.8820e+02     2.3039      4.391      6.369    25.6058 0.0000e+00
      4.487      0.034     7.7257     93.403    114.157 115.462649    17.1900     1.0086     0.1278     0.2538 1.8799e+02     2.3190      4.400      6.382    25.5939 0.0000e+00
      4.495      0.034     7.7035     93.241    114.165 115.461382    17.1900     1.0163     0.1278     0.2538 1.8898e+02     2.3039      4.408      6.393    25.5851 0.0000e+00
      4.503      0.033     7.6786     93.155    114.146 115.433690    17.1900     1.0849     0.1278     0.2538 1.8852e+02     2.5305      4.416      6.405    25.5777 0.0000e+00
      4.512      0.033     7.6549     93.125    114.120 115.400185    16.7400     1.0849     0.0852     0.2115 1.8616e+02     2.5305      4.425      6.418    25.5711 0.0000e+00
      4.520      0.033     7.6358     93.123    114.100 115.369932    16.7400     1.0735     0.0852     0.2115 1.8657e+02     2.5758      4.433      6.430    25.5656 0.0000e+00
      4.529      0.032     7.6232     93.122    114.069 115.324864    16.7400     1.0849     0.0852     0.2115 1.8665e+02     2.5305      4.441      6.441    25.5615 0.0000e+00
      4.537      0.032     7.6166     93.111    114.027 115.262961    16.7400     1.1002     0.0852     0.2115 1.8503e+02     2.2435      4.449      6.453    25.5582 0.0000e+00
      4.545      0.032     7.6147     93.078    113.998 115.205712    16.6500     1.0773     0.0852     0.2538 1.8487e+02     2.3039      4.457      6.464    25.5548 0.0000e+00
      4.553      0.032     7.6151     93.001    113.992 115.159849    16.6500     1.0773     0.0852     0.2538 1.8560e+02     2.3341      4.465      6.475    25.5506 0.0000e+00
      4.561      0.033     7.6159     92.860    114.014 115.129138    16.6500     1.0735     0.0852     0.2538 1.8592e+02     2.3039      4.473      6.487    25.5446 0.0000e+00
      4.569      0.035     7.6161     92.642    114.049 115.097390    16.6500     1.1231     0.0852     0.2538 1.8604e+02     2.8628      4.481      6.499    25.5359 0.0000e+00
      4.578      0.037     7.6152     92.320    114.083 115.052133    16.6500     1.1421     0.0852     0.2538 1.8495e+02     2.9535      4.489      6.511    25.5235 0.0000e+00
      4.587      0.039     7.6112     91.854    114.127 115.005295    16.8300     1.1307     0.0852     0.2115 1.8252e+02     2.7571      4.498      6.524    25.5063 0.0000e+00
      4.597      0.042     7.6029     91.199    114.162 114.940381    16.8300     1.1345     0.0852     0.2115 1.8117e+02     2.8175      4.508      6.539    25.4832 0.0000e+00
      4.608      0.044     7.5891     90.330    114.178 114.850074    16.8300     1.4168     0.0852     0.2115 1.8094e+02     5.2496      4.519      6.555    25.4537 0.0000e+00
      4.620      0.045     7.5675     89.253    114.204 114.774280    16.8300     1.3520     0.0852     0.2115 1.7937e+02     5.0986      4.531      6.571    25.4185 0.0000e+00
      4.633      0.045     7.5347     88.011    114.251 114.742774    17.1000     1.3710     0.0852     0.2538 1.7552e+02     5.2647      4.543      6.589    25.3787 0.0000e+00
      4.645      0.044     7.4869     86.694    114.315 114.763149    17.1000     1.3825     0.0852     0.2538 1.7283e+02     5.2496      4.555      6.607    25.3349 0.0000e+00
      4.657      0.041     7.4219     85.429    114.382 114.828835    17.1000     1.6419     0.0852     0.2538 1.7152e+02     6.6545      4.567      6.624    25.2882 0.0000e+00
      4.668      0.037     7.3394     84.356    114.414 114.895355    17.1000     1.6304     0.0852     0.2538 1.7015e+02     6.6092      4.578      6.639    25.2438 0.0000e+00
      4.677      0.032     7.2419     83.600    114.374 114.900462    17.2800     1.6571     0.0426     0.3384 1.6886e+02     6.6092      4.586      6.652    25.2094 0.0000e+00
      4.684      0.027     7.1362     83.252    114.285 114.841525    17.2800     1.6228     0.0426     0.3384 1.7141e+02     6.6092      4.593      6.662    25.1902 0.0000e+00
      4.689      0.023     7.0323     83.345    114.210 114.766825    17.2800     1.5465     0.0426     0.3384 1.7182e+02     6.0956      4.599      6.670    25.1895 0.0000e+00
      4.694      0.021     6.9422     83.832    114.171 114.698437    17.2800     1.5732     0.0426     0.3384 1.7279e+02     6.1409      4.603      6.677    25.2046 0.0000e+00
      4.698      0.019     6.8775     84.586    114.162 114.630123    17.2800     1.5885     0.0426     0.2538 1.7313e+02     6.2013      4.608      6.683    25.2244 0.0000e+00
      4.703      0.019     6.8472     85.440    114.178 114.573656    17.2800     1.5808     0.0426     0.2538 1.7347e+02     6.2467      4.612      6.689    25.2374 0.0000e+00
      4.707      0.019     6.8548     86.230    114.202 114.527971    17.2800     1.6343     0.0426     0.2538 1.7201e+02     6.5337      4.616      6.696    25.2381 0.0000e+00
      4.712      0.020     6.8966     86.828    114.184 114.438887    17.2800     1.6266     0.0426     0.2538 1.7141e+02     6.3977      4.621      6.702    25.2250 0.0000e+00
      4.718      0.021     6.9619     87.177    114.136 114.302647    17.2800     1.6381     0.0426     0.2538 1.7044e+02     6.3524      4.626      6.710    25.1992 0.0000e+00
      4.723      0.023     7.0363     87.282    114.112 114.160908    17.1000     1.6381     0.0852     0.3384 1.6864e+02     6.3373      4.632      6.718    25.1673 0.0000e+00
      4.729      0.025     7.1053     87.193    114.096 113.995867    17.1000     1.6495     0.0852     0.3384 1.6827e+02     7.1379      4.638      6.726    25.1366 0.0000e+00
      4.736      0.026     7.1586     86.978    114.125 113.853489    17.1000     1.6152     0.0852     0.3384 1.6882e+02     7.0775      4.644      6.736    25.1057 0.0000e+00
      4.743      0.027     7.1924     86.705    114.242 113.817775    17.1000     1.6228     0.0852     0.3384 1.6809e+02     7.2135      4.651      6.746    25.0669 0.0000e+00
      4.751      0.028     7.2079     86.461    114.343 113.831197    17.1000     1.6228     0.0852     0.1269 1.6758e+02     7.1833      4.658      6.757    25.0155 0.0000e+00
      4.758      0.028     7.2092     86.335    114.362 113.825340    17.1000     1.7640     0.0852     0.1269 1.6711e+02     6.6545      4.666      6.768    24.9502 0.0000e+00
      4.766      0.028     7.2013     86.357    114.344 113.816645    17.1000     1.7449     0.0852     0.1269 1.6725e+02     6.5941      4.673      6.778    24.8751 0.0000e+00
      4.773      0.028     7.1876     86.480    114.331 113.826792    17.1000     1.7449     0.0852     0.1269 1.6653e+02     6.6092      4.680      6.788    24.8087 0.0000e+00
      4.780      0.027     7.1724     86.637    114.319 113.834496    17.5500     1.7601     0.0852     0.1692 1.6649e+02     6.5639      4.687      6.798    24.7705 0.0000e+00
      4.786      0.026     7.1634     86.786    114.281 113.789821    17.5500     1.6953     0.0852     0.1692 1.6462e+02     8.3465      4.694      6.808    24.7597 0.0000e+00
      4.793      0.025     7.1646     86.893    114.239 113.700854    17.5500     1.6877     0.0852     0.1692 1.6242e+02     8.2407      4.700      6.817    24.7638 0.0000e+00
      4.800      0.024     7.1735     86.923    114.238 113.615857    17.5500     1.6991     0.0852     0.1692 1.6171e+02     8.2558      4.707      6.827    24.7739 0.0000e+00
      4.806      0.022     7.1855     86.845    114.250 113.520158    17.5500     1.6953     0.0852     0.1692 1.6280e+02     8.2860      4.713      6.835    24.7821 0.0000e+00
      4.811      0.021     7.1982     86.667    114.252 113.392231    18.2700     1.6915     0.1278     0.3807 1.6323e+02     8.9658      4.718      6.843    24.7792 0.0000e+00
      4.816      0.019     7.2099     86.437    114.276 113.265946    18.2700     1.6800     0.1278     0.3807 1.6234e+02     8.9960      4.723      6.850    24.7585 0.0000e+00
      4.820      0.018     7.2172     86.209    114.303 113.123616    18.2700     1.7067     0.1278     0.3807 1.6196e+02     8.9658      4.727      6.856    24.7218 0.0000e+00
      4.825      0.018     7.2170     86.009    114.300 112.927280    18.2700     1.7067     0.1278     0.3807 1.6118e+02     8.9809      4.732      6.863    24.6746 0.0000e+00
      4.829      0.017     7.2097     85.843    114.294 112.704559    18.0900     1.7105     0.1278     0.2961 1.5969e+02     9.5096      4.736      6.869    24.6179 0.0000e+00
      4.834      0.017     7.1993     85.714    114.295 112.472038    18.0900     1.6877     0.1278     0.2961 1.5976e+02     9.5248      4.741      6.876    24.5523 0.0000e+00
      4.838      0.017     7.1902     85.621    114.310 112.235686    18.0900     1.6800     0.1278     0.2961 1.5965e+02     9.5852      4.745      6.882    24.4781 0.0000e+00
      4.842      0.017     7.1849     85.556    114.349 112.020443    18.0900     1.6648     0.1278     0.2961 1.5962e+02     9.5852      4.749      6.888    24.3936 0.0000e+00
      4.846      0.017     7.1837     85.515    114.422 111.858877    18.0000     1.6266     0.1278     0.4653 1.5924e+02     9.5096      4.753      6.894    24.2992 0.0000e+00
      4.851      0.017     7.1866     85.494    114.523 111.775870    18.0000     1.6228     0.1278     0.4653 1.5941e+02     9.4794      4.757      6.899    24.1969 0.0000e+00
      4.855      0.018     7.1935     85.499    114.595 111.743279    18.0000     1.6571     0.1278     0.4653 1.5799e+02     9.5399      4.762      6.906    24.0874 0.0000e+00
      4.860      0.019     7.2030     85.541    114.593 111.706419    18.0000     1.6266     0.1278     0.4653 1.5687e+02     9.6305      4.766      6.913    23.9763 0.0000e+00
      4.865      0.020     7.2132     85.631    114.543 111.635474    18.2700     1.5847     0.0852     0.3384 1.5741e+02     8.4824      4.771      6.920    23.8748 0.0000e+00
      4.870      0.021     7.2222     85.762    114.473 111.515531    18.2700     1.5694     0.0852     0.3384 1.5848e+02     8.4673      4.776      6.927    23.7955 0.0000e+00
      4.876      0.023     7.2287     85.897    114.396 111.340599    18.2700     1.5694     0.0852     0.3384 1.5782e+02     8.5731      4.781      6.934    23.7505 0.0000e+00
      4.881      0.025     7.2344     86.005    114.358 111.150003    18.2700     1.5503     0.0852     0.3384 1.5724e+02     8.5126      4.787      6.943    23.7348 0.0000e+00
      4.888      0.027     7.2433     86.071    114.391 110.984886    18.2700     1.7449     0.0852     0.3384 1.5653e+02    10.4311      4.793      6.952    23.7253 0.0000e+00
      4.895      0.028     7.2574     86.064    114.474 110.845191    18.0000     1.7754     0.0852     0.3807 1.5646e+02    10.3707      4.801      6.962    23.7027 0.0000e+00
      4.903      0.029     7.2748     85.961    114.579 110.739640    18.0000     1.7296     0.0852     0.3807 1.5383e+02    10.4614      4.808      6.974    23.6588 0.0000e+00
      4.911      0.028     7.2931     85.772    114.691 110.686057    18.0000     1.7640     0.0852     0.3807 1.5160e+02    10.4009      4.816      6.986    23.5921 0.0000e+00
      4.919      0.027     7.3105     85.513    114.777 110.670143    18.0000     1.6419     0.0852     0.3807 1.5082e+02     9.6456      4.824      6.997    23.5060 0.0000e+00
      4.926      0.025     7.3231     85.206    114.794 110.639668    19.4400     1.6457     0.1278     0.5922 1.5147e+02     9.7665      4.831      7.007    23.4099 0.0000e+00
      4.932      0.023     7.3269     84.877    114.743 110.562515    19.4400     1.6228     0.1278     0.5922 1.5180e+02     9.7362      4.837      7.015    23.3192 0.0000e+00
      4.937      0.021     7.3205     84.552    114.674 110.454104    19.4400     1.6152     0.1278     0.5922 1.5184e+02     9.7060      4.842      7.022    23.2487 0.0000e+00
      4.942      0.020     7.3044     84.252    114.630 110.351502    19.4400     1.6953     0.1278     0.5922 1.5197e+02     9.6909      4.846      7.029    23.2056 0.0000e+00
      4.946      0.020     7.2809     83.984    114.626 110.275332    20.8800     1.6991     0.1278     0.5076 1.5236e+02     9.6305      4.851      7.035    23.1852 0.0000e+00
      4.951      0.021     7.2545     83.737    114.649 110.219273    20.8800     1.6877     0.1278     0.5076 1.5213e+02     9.7060      4.856      7.042    23.1726 0.0000e+00
      4.957      0.022     7.2292     83.497    114.687 110.176369    20.8800     1.7144     0.1278     0.5076 1.5105e+02     9.7362      4.861      7.050    23.1545 0.0000e+00
      4.963      0.024     7.2071     83.257    114.730 110.139176    20.8800     1.8135     0.1278     0.5076 1.5075e+02    10.6124      4.867      7.058    23.1282 0.0000e+00
      4.969      0.026     7.1885     83.009    114.773 110.091773    20.8800     1.8135     0.1278     0.5076 1.4974e+02    10.5671      4.873      7.067    23.0968 0.0000e+00
      4.976      0.028     7.1720     82.740    114.814 110.015523    21.6000     1.8212     0.1278     0.4230 1.4870e+02    10.6577      4.879      7.077    23.0628 0.0000e+00
      4.983      0.029     7.1561     82.426    114.872 109.920078    21.6000     1.8288     0.1278     0.4230 1.4841e+02    10.7182      4.887      7.087    23.0282 0.0000e+00
      4.991      0.031     7.1401     82.032    114.963 109.831961    21.6000     1.9356     0.1278     0.4230 1.4661e+02    14.2531      4.894      7.099    22.9939 0.0000e+00
      4.999      0.032     7.1240     81.517    115.068 109.753654    21.6000     1.9585     0.1278     0.4230 1.4522e+02    14.2229      4.903      7.111    22.9556 0.0000e+00
      5.008      0.032     7.1076     80.853    115.149 109.676262    21.7800     1.9471     0.1278     0.3807 1.4399e+02    14.3588      4.911      7.123    22.9052 0.0000e+00
      5.016      0.033     7.0894     80.044    115.209 109.617123    21.7800     1.9432     0.1278     0.3807 1.4381e+02    14.2531      4.919      7.135    22.8397 0.0000e+00
      5.024      0.033     7.0657     79.129    115.269 109.598450    21.7800     2.0005     0.1278     0.3807 1.4309e+02    15.7033      4.927      7.146    22.7634 0.0000e+00
      5.033      0.034     7.0318     78.169    115.320 109.603264    21.7800     2.0195     0.1278     0.3807 1.4306e+02    15.6731      4.935      7.158    22.6858 0.0000e+00
      5.041      0.034     6.9835     77.238    115.352 109.604860    23.5800     2.0234     0.1704     0.3807 1.4244e+02    15.6429      4.943      7.170    22.6185 0.0000e+00
      5.050      0.036     6.9202     76.412    115.378 109.599666    23.5800     2.0157     0.1704     0.3807 1.4062e+02    15.5975      4.952      7.182    22.5680 0.0000e+00
      5.059      0.037     6.8455     75.756    115.391 109.576301    23.5800     1.9242     0.1704     0.3807 1.3926e+02    16.8816      4.961      7.196    22.5348 0.0000e+00
      5.069      0.038     6.7650     75.302    115.366 109.510539    23.5800     1.9356     0.1704     0.3807 1.3841e+02    16.8212      4.971      7.210    22.5159 0.0000e+00
      5.079      0.039     6.6860     75.051    115.300 109.394837    24.4800     1.9089     0.2130     0.4230 1.3709e+02    16.9571      4.981      7.224    22.5037 0.0000e+00
      5.090      0.039     6.6161     74.964    115.229 109.254323    24.4800     1.9318     0.2130     0.4230 1.3576e+02    16.9420      4.991      7.239    22.4906 0.0000e+00
      5.100      0.039     6.5613     74.971    115.205 109.143488    24.4800     2.0539     0.2130     0.4230 1.3435e+02    18.0297      5.002      7.254    22.4750 0.0000e+00
      5.110      0.037     6.5243     74.991    115.233 109.082753    24.4800     2.0234     0.2130     0.4230 1.3336e+02    18.0146      5.012      7.268    22.4571 0.0000e+00
      5.120      0.035     6.5054     74.958    115.268 109.039922    24.4800     2.0691     0.2130     0.4230 1.3212e+02    17.9693      5.021      7.282    22.4340 0.0000e+00
      5.129      0.033     6.5019     74.826    115.277 108.981578    27.1800     2.0539     0.2130     0.4653 1.3055e+02    17.9541      5.030      7.295    22.4023 0.0000e+00
      5.137      0.031     6.5072     74.585    115.261 108.898161    27.1800     1.9814     0.2130     0.4653 1.2850e+02    16.3982      5.038      7.307    22.3639 0.0000e+00
      5.145      0.028     6.5137     74.260    115.257 108.819404    27.1800     1.9318     0.2130     0.4653 1.2855e+02    16.4435      5.045      7.317    22.3260 0.0000e+00
      5.151      0.026     6.5150     73.892    115.291 108.784276    27.1800     1.9547     0.2130     0.4653 1.2839e+02    16.5039      5.052      7.327    22.2929 0.0000e+00
      5.157      0.023     6.5071     73.528    115.342 108.793401    28.0800     1.9661     0.2556     0.5076 1.2780e+02    16.2924      5.057      7.335    22.2639 0.0000e+00
      5.163      0.022     6.4897     73.213    115.364 108.807226    28.0800     1.9432     0.2556     0.5076 1.2744e+02    16.1112      5.063      7.343    22.2346 0.0000e+00
      5.168      0.020     6.4655     72.993    115.345 108.801449    28.0800     1.9967     0.2556     0.5076 1.2775e+02    16.1716      5.068      7.350    22.2022 0.0000e+00
      5.173      0.019     6.4371     72.901    115.320 108.794526    28.0800     1.9623     0.2556     0.5076 1.2855e+02    16.1565      5.073      7.357    22.1727 0.0000e+00
      5.177      0.018     6.4075     72.945    115.299 108.780614    26.1000     1.9318     0.2556     0.4230 1.2855e+02    16.0961      5.077      7.364    22.1558 0.0000e+00
      5.182      0.017     6.3804     73.100    115.262 108.736013    26.1000     2.1378     0.2556     0.4230 1.2920e+02    17.0024      5.081      7.370    22.1529 0.0000e+00
      5.186      0.016     6.3606     73.323    115.222 108.672820    26.1000     2.1378     0.2556     0.4230 1.2894e+02    17.0931      5.085      7.376    22.1583 0.0000e+00
      5.189      0.015     6.3518     73.561    115.195 108.614165    26.1000     2.1225     0.2556     0.4230 1.2839e+02    17.0780      5.089      7.381    22.1652 0.0000e+00
      5.193      0.015     6.3553     73.771    115.186 108.570395    25.0200     2.1302     0.2130     0.4230 1.2900e+02    17.1535      5.093      7.387    22.1679 0.0000e+00
      5.197      0.015     6.3693     73.919    115.198 108.543830    25.0200     2.1302     0.2130     0.4230 1.2855e+02    17.7275      5.097      7.392    22.1635 0.0000e+00
      5.201      0.015     6.3901     73.974    115.217 108.517390    25.0200     2.1225     0.2130     0.4230 1.2844e+02    17.6369      5.100      7.397    22.1526 0.0000e+00
      5.204      0.015     6.4126     73.919    115.247 108.488022    25.0200     2.1187     0.2130     0.4230 1.2766e+02    17.8031      5.104      7.403    22.1382 0.0000e+00
      5.208      0.015     6.4328     73.757    115.313 108.483876    25.0200     2.1187     0.2130     0.4230 1.2744e+02    17.7275      5.108      7.408    22.1229 0.0000e+00
      5.212      0.016     6.4477     73.500    115.423 108.521836    27.9000     2.1073     0.2556     0.5076 1.2769e+02    17.7729      5.111      7.414    22.1068 0.0000e+00
      5.216      0.017     6.4549     73.164    115.546 108.582031    27.9000     2.1302     0.2556     0.5076 1.2788e+02    17.5010      5.115      7.419    22.0873 0.0000e+00
      5.221      0.019     6.4532     72.764    115.637 108.620537    27.9000     2.1187     0.2556     0.5076 1.2855e+02    17.5614      5.120      7.425    22.0624 0.0000e+00
      5.225      0.022     6.4425     72.305    115.698 108.629627    27.9000     2.1340     0.2556     0.5076 1.2850e+02    17.4405      5.124      7.432    22.0336 0.0000e+00
      5.231      0.024     6.4235     71.791    115.766 108.635716    28.5300     2.1035     0.2982     0.4230 1.2794e+02    17.3952      5.130      7.440    22.0056 0.0000e+00
      5.237      0.026     6.3972     71.223    115.841 108.640425    28.5300     2.5498     0.2982     0.4230 1.2634e+02    19.9029      5.136      7.449    21.9814 0.0000e+00
      5.245      0.029     6.3647     70.584    115.902 108.633009    28.5300     2.5689     0.2982     0.4230 1.2500e+02    19.8424      5.143      7.460    21.9608 0.0000e+00
      5.253      0.030     6.3270     69.860    115.950 108.619486    28.5300     2.5651     0.2982     0.4230 1.2311e+02    20.0086      5.151      7.471    21.9402 0.0000e+00
      5.261      0.031     6.2850     69.064    115.996 108.610241    28.5300     2.5765     0.2556     0.4653 1.2199e+02    19.8727      5.159      7.483    21.9154 0.0000e+00
      5.269      0.030     6.2387     68.233    116.045 108.608804    28.5300     2.7405     0.2556     0.4653 1.2199e+02    22.1084      5.167      7.495    21.8871 0.0000e+00
      5.277      0.029     6.1860     67.417    116.098 108.610793    28.5300     2.7291     0.2556     0.4653 1.2086e+02    22.0631      5.175      7.506    21.8591 0.0000e+00
      5.285      0.028     6.1256     66.668    116.145 108.612736    28.5300     2.7558     0.2556     0.4653 1.1818e+02    22.2142      5.182      7.517    21.8338 0.0000e+00
      5.292      0.026     6.0584     66.042    116.169 108.609151    28.5300     2.7596     0.2556     0.4653 1.1757e+02    22.0631      5.189      7.527    21.8115 0.0000e+00
      5.298      0.024     5.9879     65.585    116.173 108.597083    29.5200     2.5994     0.2556     0.5922 1.1698e+02    23.8457      5.196      7.536    21.7908 0.0000e+00
      5.304      0.021     5.9186     65.323    116.170 108.569316    29.5200     2.6070     0.2556     0.5922 1.1706e+02    23.7097      5.201      7.544    21.7703 0.0000e+00
      5.309      0.019     5.8550     65.247    116.155 108.516449    29.5200     2.6070     0.2556     0.5922 1.1726e+02    23.7852      5.206      7.551    21.7524 0.0000e+00
      5.313      0.017     5.8013     65.323    116.136 108.452368    29.5200     2.6146     0.2556     0.5922 1.1711e+02    23.7248      5.211      7.557    21.7412 0.0000e+00
      5.317      0.015     5.7620     65.511    116.125 108.401964    29.8800     2.7825     0.2982     0.5076 1.1630e+02    26.5346      5.215      7.563    21.7340 0.0000e+00
      5.321      0.013     5.7402     65.771    116.130 108.371788    29.8800     2.8016     0.2982     0.5076 1.1648e+02    26.4591      5.218      7.568    21.7235 0.0000e+00
      5.324      0.011     5.7354     66.070    116.146 108.349793    29.8800     2.8092     0.2982     0.5076 1.1658e+02    26.4137      5.221      7.572    21.7066 0.0000e+00
      5.326      0.010     5.7443     66.380    116.162 108.322117    29.8800     2.8168     0.2982     0.5076 1.1597e+02    26.4289      5.224      7.576    21.6870 0.0000e+00
      5.329      0.008     5.7627     66.690    116.168 108.285375    29.3400     3.0800     0.2982     0.4653 1.1562e+02    28.4531      5.226      7.579    21.6695 0.0000e+00
      5.330      0.007     5.7873     66.988    116.152 108.245758    29.3400     3.0877     0.2982     0.4653 1.1547e+02    28.3625      5.227      7.582    21.6544 0.0000e+00
      5.332      0.006     5.8154     67.270    116.100 108.196698    29.3400     3.1067     0.2982     0.4653 1.1549e+02    28.4229      5.229      7.584    21.6387 0.0000e+00
      5.333      0.005     5.8448     67.532    116.030 108.137110    29.3400     3.0877     0.2982     0.4653 1.1557e+02    28.4531      5.230      7.586    21.6203 0.0000e+00
      5.334      0.004     5.8740     67.764    115.978 108.079097    29.4300     3.2937     0.2556     0.5922 1.1569e+02    28.6193      5.231      7.587    21.6022 0.0000e+00
      5.335      0.004     5.9015     67.960    115.959 108.033176    29.4300     3.2860     0.2556     0.5922 1.1559e+02    28.6193      5.232      7.589    21.5916 0.0000e+00
      5.336      0.003     5.9264     68.128    115.974 108.007093    29.4300     3.2937     0.2556     0.5922 1.1524e+02    28.6797      5.233      7.590    21.5911 0.0000e+00
      5.337      0.003     5.9492     68.272    116.022 108.003886    29.4300     3.2860     0.2556     0.5922 1.1482e+02    28.5589      5.234      7.590    21.5934 0.0000e+00
      5.337      0.002     5.9701     68.392    116.076 108.012698    29.4300     3.4081     0.2556     0.5922 1.1494e+02    28.2114      5.234      7.591    21.5895 0.0000e+00
      5.338      0.002     5.9889     68.486    116.104 108.025879    29.0700     3.4081     0.2982     0.5499 1.1459e+02    28.2718      5.235      7.592    21.5776 0.0000e+00
      5.338      0.002     6.0056     68.556    116.110 108.054940    29.0700     3.3967     0.2982     0.5499 1.1412e+02    28.1963      5.235      7.593    21.5602 0.0000e+00
      5.339      0.002     6.0208     68.598    116.101 108.093637    29.0700     3.4081     0.2982     0.5499 1.1395e+02    28.1208      5.236      7.593    21.5393 0.0000e+00
      5.339      0.001     6.0334     68.615    116.090 108.138301    29.0700     3.4959     0.2982     0.5499 1.1427e+02    28.1510      5.236      7.594    21.5215 0.0000e+00
      5.340      0.001     6.0423     68.610    116.101 108.196849    29.3400     3.4730     0.2982     0.6768 1.1454e+02    28.0452      5.236      7.595    21.5162 0.0000e+00
      5.340      0.001     6.0473     68.591    116.126 108.256907    29.3400     3.4768     0.2982     0.6768 1.1412e+02    28.0603      5.236      7.595    21.5263 0.0000e+00
      5.340      0.001     6.0487     68.565    116.156 108.306504    29.3400     3.4882     0.2982     0.6768 1.1380e+02    28.1963      5.237      7.595    21.5465 0.0000e+00
      5.340      0.001     6.0474     68.530    116.185 108.346871    29.3400     3.4844     0.2982     0.6768 1.1363e+02    29.1631      5.237      7.595    21.5699 0.0000e+00
      5.340      0.001     6.0445     68.477    116.207 108.376777    30.0600     3.4768     0.2982     0.5499 1.1355e+02    29.0725      5.237      7.596    21.5911 0.0000e+00
      5.340      0.001     6.0410     68.404    116.206 108.382207    30.0600     3.4768     0.2982     0.5499 1.1326e+02    29.1027      5.237      7.596    21.6066 0.0000e+00
      5.340      0.001     6.0376     68.325    116.175 108.350613    30.0600     3.4920     0.2982     0.5499 1.1304e+02    29.1178      5.237      7.596    21.6162 0.0000e+00
      5.341      0.001     6.0339     68.254    116.138 108.303561    30.0600     3.4806     0.2982     0.5499 1.1326e+02    30.7644      5.238      7.596    21.6218 0.0000e+00
      5.341      0.001     6.0287     68.190    116.128 108.274483    30.0600     3.4806     0.2982     0.5499 1.1289e+02    30.7342      5.238      7.597    21.6258 0.0000e+00
      5.341      0.001     6.0220     68.124    116.154 108.275615    30.0600     3.4768     0.2982     0.4653 1.1308e+02    30.8550      5.238      7.597    21.6283 0.0000e+00
      5.341      0.001     6.0151     68.056    116.198 108.291263    30.0600     3.5035     0.2982     0.4653 1.1286e+02    30.7946      5.238      7.597    21.6273 0.0000e+00
      5.342      0.001     6.0095     67.997    116.225 108.289616    30.0600     3.4386     0.2982     0.4653 1.1272e+02    30.5831      5.238      7.597    21.6220 0.0000e+00
      5.342      0.001     6.0049     67.955    116.242 108.274230    30.0600     3.4234     0.2982     0.4653 1.1240e+02    30.5378      5.239      7.598    21.6134 0.0000e+00
      5.342      0.001     6.0002     67.941    116.270 108.264994    29.7000     3.4005     0.2982     0.4653 1.1203e+02    30.6133      5.239      7.598    21.6033 0.0000e+00
      5.342      0.001     5.9955     67.951    116.294 108.251444    29.7000     3.3890     0.2982     0.4653 1.1174e+02    30.5378      5.239      7.598    21.5927 0.0000e+00
      5.342      0.001     5.9916     67.975    116.306 108.225967    29.7000     3.6065     0.2982     0.4653 1.1181e+02    31.7916      5.239      7.598    21.5812 0.0000e+00
      5.342      0.001     5.9895     68.008    116.300 108.185768    29.7000     3.6103     0.2982     0.4653 1.1147e+02    31.8974      5.239      7.599    21.5678 0.0000e+00
      5.343      0.001     5.9899     68.043    116.278 108.130119    29.3400     3.6217     0.2982     0.5499 1.1133e+02    31.7916      5.239      7.599    21.5527 0.0000e+00
      5.343      0.001     5.9926     68.069    116.258 108.074169    29.3400     3.6103     0.2982     0.5499 1.1143e+02    31.8974      5.240      7.599    21.5369 0.0000e+00
      5.343      0.001     5.9966     68.082    116.239 108.012991    29.3400     3.6523     0.2982     0.5499 1.1123e+02    31.5650      5.240      7.599    21.5214 0.0000e+00
      5.343      0.001     6.0013     68.082    116.222 107.942267    29.3400     3.6523     0.2982     0.5499 1.1106e+02    31.5953      5.240      7.599    21.5062 0.0000e+00
      5.343      0.001     6.0062     68.077    116.232 107.879120    29.3400     3.6675     0.2982     0.4653 1.1075e+02    31.6406      5.240      7.600    21.4911 0.0000e+00
      5.343      0.001     6.0104     68.072    116.276 107.832696    29.3400     3.6790     0.2982     0.4653 1.1053e+02    31.4895      5.240      7.600    21.4753 0.0000e+00
      5.343      0.000     6.0137     68.056    116.321 107.780614    29.3400     3.4386     0.2982     0.4653 1.1058e+02    30.5680      5.240      7.600    21.4567 0.0000e+00
      5.343      0.000     6.0164     68.011    116.336 107.706983    29.3400     3.4081     0.2982     0.4653 1.1044e+02    30.4925      5.240      7.600    21.4327 0.0000e+00
      5.344      0.000     6.0196     67.927    116.340 107.638141    29.3400     3.4386     0.2982     0.4653 1.1032e+02    30.6587      5.240      7.600    21.4018 0.0000e+00
      5.344      0.000     6.0235     67.805    116.348 107.589712    29.4300     3.4196     0.3408     0.5076 1.0984e+02    30.5076      5.240      7.600    21.3644 0.0000e+00
      5.343     -0.001     6.0268     67.661    116.356 107.560775    29.4300     3.4157     0.3408     0.5076 1.0996e+02    32.1240      5.240      7.600    21.3241 0.0000e+00
      5.343     -0.001     6.0272     67.524    116.372 107.557607    29.4300     3.4234     0.3408     0.5076 1.0982e+02    32.0182      5.240      7.600    21.2864 0.0000e+00
      5.343     -0.002     6.0235     67.415    116.379 107.565366    29.4300     3.4157     0.3408     0.5076 1.0955e+02    31.9578      5.240      7.600    21.2549 0.0000e+00
      5.343     -0.002     6.0155     67.337    116.347 107.556136    29.6100     3.4348     0.2982     0.5499 1.0929e+02    31.9578      5.239      7.599    21.2312 0.0000e+00
      5.342     -0.003     6.0046     67.293    116.277 107.529455    29.6100     3.7324     0.2982     0.5499 1.0941e+02    33.6346      5.239      7.598    21.2157 0.0000e+00
      5.341     -0.005     5.9933     67.278    116.188 107.500201    29.6100     3.7171     0.2982     0.5499 1.0901e+02    33.6950      5.238      7.597    21.2080 0.0000e+00
      5.340     -0.006     5.9835     67.285    116.107 107.484566    29.6100     3.7362     0.2982     0.5499 1.0910e+02    33.5138      5.237      7.595    21.2084 0.0000e+00
      5.338     -0.008     5.9756     67.306    116.040 107.482381    29.7000     3.7095     0.2982     0.6345 1.0910e+02    33.6195      5.235      7.593    21.2171 0.0000e+00
      5.336     -0.011     5.9698     67.332    115.980 107.481073    29.7000     3.7209     0.2982     0.6345 1.0896e+02    34.5863      5.233      7.590    21.2336 0.0000e+00
      5.333     -0.015     5.9659     67.356    115.937 107.488291    29.7000     3.7171     0.2982     0.6345 1.0830e+02    34.6316      5.230      7.586    21.2562 0.0000e+00
      5.330     -0.019     5.9635     67.379    115.931 107.521954    29.7000     3.7400     0.2982     0.6345 1.0823e+02    34.6468      5.227      7.581    21.2819 0.0000e+00
      5.325     -0.025     5.9624     67.411    115.968 107.595040    29.7000     3.7171     0.2982     0.6345 1.0809e+02    34.6921      5.222      7.574    21.3075 0.0000e+00
      5.318     -0.032     5.9620     67.456    116.038 107.703048    29.7000     3.7705     0.3408     0.6345 1.0802e+02    35.5380      5.216      7.565    21.3308 0.0000e+00
      5.310     -0.041     5.9617     67.523    116.107 107.828801    29.7000     3.7858     0.3408     0.6345 1.0790e+02    35.5531      5.208      7.553    21.3510 0.0000e+00
      5.300     -0.054     5.9617     67.614    116.168 107.981843    29.7000     3.7972     0.3408     0.6345 1.0764e+02    35.5380      5.197      7.538    21.3683 0.0000e+00
      5.286     -0.069     5.9626     67.736    116.245 108.206986    29.7000     3.8010     0.3408     0.6345 1.0778e+02    35.4625      5.184      7.518    21.3847 0.0000e+00
      5.268     -0.088     5.9644     67.918    116.319 108.508292    29.8800     3.0419     0.3408     0.5922 1.0788e+02    27.6525      5.166      7.493    21.4036 0.0000e+00
      5.245     -0.109     5.9672     68.205    116.325 108.822179    29.8800     3.0686     0.3408     0.5922 1.0901e+02    27.7431      5.144      7.460    21.4300 0.0000e+00
      5.216     -0.132     5.9704     68.642    116.242 109.098420    29.8800     3.0495     0.3408     0.5922 1.1215e+02    27.6374      5.115      7.419    21.4715 0.0000e+00
      5.179     -0.156     5.9734     69.270    116.093 109.318735    29.8800     3.0190     0.3408     0.5922 1.1979e+02    27.6374      5.079      7.366    21.5376 0.0000e+00
      5.135     -0.179     5.9778     70.127    115.910 109.483913    29.5200     2.1492     0.2982     0.4653 1.2457e+02    18.4224      5.035      7.303    21.6376 0.0000e+00
      5.084     -0.199     5.9874     71.249    115.733 109.618026    29.5200     2.1149     0.2982     0.4653 1.3089e+02    18.4829      4.986      7.231    21.7704 0.0000e+00
      5.028     -0.216     6.0078     72.649    115.587 109.756848    29.5200     2.1149     0.2982     0.4653 1.3718e+02    18.4678      4.931      7.151    21.9228 0.0000e+00
      4.969     -0.228     6.0443     74.278    115.488 109.931408    29.5200     2.1111     0.2982     0.4653 1.4148e+02    18.3922      4.873      7.067    22.0784 0.0000e+00
      4.908     -0.237     6.1017     76.048    115.442 110.160276    27.7200     2.0234     0.2556     0.5076 1.4671e+02    15.6882      4.813      6.980    22.2238 0.0000e+00
      4.845     -0.243     6.1837     77.866    115.415 110.428515    27.7200     1.9852     0.2556     0.5076 1.5246e+02    15.6126      4.752      6.892    22.3537 0.0000e+00
      4.782     -0.246     6.2905     79.652    115.370 110.695705    27.7200     2.0234     0.2556     0.5076 1.5673e+02    15.6580      4.690      6.802    22.4735 0.0000e+00
      4.719     -0.248     6.4172     81.334    115.360 110.995126    27.7200     1.9890     0.2556     0.5076 1.6362e+02    15.5824      4.628      6.712    22.5896 0.0000e+00
      4.655     -0.249     6.5552     82.855    115.399 111.354646    27.7200     1.7487     0.2556     0.5076 1.6978e+02    12.3043      4.565      6.621    22.7077 0.0000e+00
      4.591     -0.248     6.6957     84.198    115.355 111.668202    25.0200     1.7487     0.2130     0.3807 1.7370e+02    12.4856      4.502      6.530    22.8349 0.0000e+00
      4.528     -0.247     6.8319     85.396    115.200 111.869469    25.0200     1.7792     0.2130     0.3807 1.8110e+02    12.3043      4.440      6.440    22.9693 0.0000e+00
      4.464     -0.246     6.9587     86.477    115.057 112.024139    25.0200     1.7449     0.2130     0.3807 1.9042e+02    12.2741      4.378      6.350    23.1031 0.0000e+00
      4.402     -0.245     7.0703     87.433    114.985 112.193464    25.0200     1.4511     0.2130     0.3807 1.9558e+02     6.8811      4.316      6.260    23.2427 0.0000e+00
      4.340     -0.243     7.1642     88.242    114.981 112.420602    22.0500     1.4321     0.1278     0.3807 2.0232e+02     6.8207      4.256      6.173    23.3971 0.0000e+00
      4.279     -0.242     7.2456     88.888    115.023 112.730134    22.0500     1.4473     0.1278     0.3807 2.0821e+02     6.8811      4.196      6.086    23.5497 0.0000e+00
      4.218     -0.242     7.3200     89.381    115.028 113.052642    22.0500     1.4359     0.1278     0.3807 2.1632e+02     6.7603      4.136      5.999    23.6772 0.0000e+00
      4.156     -0.241     7.3868     89.769    114.944 113.304179    22.0500     1.2719     0.1278     0.3807 2.2262e+02     4.9928      4.075      5.911    23.7810 0.0000e+00
      4.094     -0.240     7.4414     90.113    114.842 113.503853    19.3500     1.2795     0.0852     0.3384 2.3165e+02     5.0079      4.015      5.823    23.8813 0.0000e+00
      4.032     -0.238     7.4798     90.450    114.785 113.708925    19.3500     1.2566     0.0852     0.3384 2.4026e+02     4.9475      3.954      5.735    23.9977 0.0000e+00
      3.971     -0.234     7.5020     90.808    114.746 113.920095    19.3500     1.2490     0.0852     0.3384 2.4666e+02     4.9626      3.894      5.648    24.1361 0.0000e+00
      3.911     -0.229     7.5143     91.216    114.684 114.113695    19.3500     1.0887     0.0852     0.3384 2.5164e+02     3.3613      3.835      5.563    24.2813 0.0000e+00
      3.853     -0.222     7.5249     91.683    114.609 114.291372    18.0900     1.0735     0.0852     0.3384 2.5712e+02     3.2405      3.778      5.480    24.4122 0.0000e+00
      3.796     -0.212     7.5371     92.206    114.555 114.476522    18.0900     1.0506     0.0852     0.3384 2.6140e+02     3.2556      3.723      5.400    24.5260 0.0000e+00
      3.742     -0.199     7.5517     92.770    114.508 114.654536    18.0900     1.0697     0.0852     0.3384 2.6865e+02     3.2103      3.670      5.323    24.6348 0.0000e+00
      3.691     -0.183     7.5700     93.353    114.440 114.790905    18.0900     0.7874     0.0852     0.3384 2.7503e+02     1.8809      3.619      5.250    24.7460 0.0000e+00
      3.644     -0.163     7.5932     93.928    114.400 114.934000    18.0900     0.7263     0.0852     0.3384 2.8304e+02     1.8356      3.573      5.183    24.8560 0.0000e+00
      3.603     -0.141     7.6218     94.464    114.374 115.079991    17.3700     0.7683     0.0852     0.2961 2.9324e+02     1.9564      3.533      5.124    24.9602 0.0000e+00
      3.570     -0.117     7.6546     94.950    114.293 115.141829    17.3700     0.7645     0.0852     0.2961 2.9324e+02     1.8507      3.501      5.077    25.0584 0.0000e+00
      3.544     -0.094     7.6901     95.369    114.227 115.162015    17.3700     0.6462     0.0852     0.2961 2.8856e+02     0.9745      3.476      5.041    25.1475 0.0000e+00
      3.526     -0.073     7.7261     95.694    114.241 115.217926    17.3700     0.6310     0.0852     0.2961 2.8353e+02     0.8235      3.458      5.015    25.2275 0.0000e+00
      3.512     -0.056     7.7596     95.883    114.283 115.290473    15.7500     0.6729     0.0426     0.2115 2.8156e+02     0.9594      3.445      4.996    25.3029 0.0000e+00
      3.502     -0.043     7.7906     95.903    114.325 115.373000    15.7500     0.6310     0.0426     0.2115 2.8291e+02     0.9443      3.435      4.981    25.3654 0.0000e+00
      3.494     -0.034     7.8197     95.762    114.357 115.465518    15.7500     0.7530     0.0426     0.2115 2.8101e+02     1.9262      3.426      4.969    25.4033 0.0000e+00
      3.487     -0.029     7.8437     95.524    114.352 115.540704    15.7500     0.7492     0.0426     0.2115 2.8353e+02     1.8809      3.420      4.959    25.4216 0.0000e+00
      3.481     -0.025     7.8574     95.262    114.311 115.584616    16.4700     0.7683     0.0852     0.2961 2.8744e+02     1.8507      3.414      4.951    25.4347 0.0000e+00
      3.475     -0.023     7.8566     95.032    114.239 115.584972    16.4700     0.7874     0.0852     0.2961 2.8193e+02     1.8809      3.408      4.943    25.4523 0.0000e+00
      3.470     -0.024     7.8413     94.873    114.177 115.571869    16.4700     0.6500     0.0852     0.2961 2.8053e+02     0.9141      3.403      4.936    25.4787 0.0000e+00
      3.465     -0.026     7.8168     94.800    114.168 115.597811    16.4700     0.6577     0.0852     0.2961 2.7816e+02     0.9443      3.398      4.928    25.5135 0.0000e+00
      3.459     -0.030     7.7900     94.816    114.186 115.649716    16.4700     0.6424     0.0852     0.2961 2.7629e+02     0.9896      3.392      4.920    25.5511 0.0000e+00
      3.452     -0.035     7.7666     94.913    114.179 115.673431    16.1100     0.6310     0.0852     0.2538 2.7846e+02     0.8688      3.385      4.909    25.5829 0.0000e+00
      3.442     -0.043     7.7506     95.062    114.142 115.657284    16.1100     0.6577     0.0852     0.2538 2.7390e+02     1.9413      3.376      4.896    25.6046 0.0000e+00
      3.431     -0.054     7.7424     95.224    114.094 115.608971    16.1100     0.8217     0.0852     0.2538 2.7539e+02     1.9564      3.365      4.880    25.6201 0.0000e+00
      3.418     -0.067     7.7416     95.361    114.033 115.513611    16.1100     0.8370     0.0852     0.2538 2.7557e+02     1.9413      3.352      4.861    25.6345 0.0000e+00
      3.401     -0.084     7.7477     95.430    113.998 115.409769    15.3900     0.8103     0.0426     0.1692 2.7188e+02     1.9111      3.335      4.837    25.6479 0.0000e+00
      3.379     -0.104     7.7585     95.382    114.013 115.339743    15.3900     0.8255     0.0426     0.1692 2.7271e+02     1.8205      3.314      4.806    25.6574 0.0000e+00
      3.352     -0.126     7.7717     95.190    114.044 115.284855    15.3900     0.8866     0.0426     0.1692 2.7171e+02     3.7692      3.287      4.768    25.6576 0.0000e+00
      3.317     -0.151     7.7850     94.866    114.083 115.250459    15.3900     0.8866     0.0426     0.1692 2.7943e+02     3.7692      3.253      4.718    25.6428 0.0000e+00
      3.275     -0.175     7.7949     94.449    114.135 115.251376    15.2100     0.8713     0.0852     0.0846 2.8483e+02     3.7390      3.211      4.658    25.6132 0.0000e+00
      3.225     -0.198     7.7962     93.993    114.170 115.263851    15.2100     0.8904     0.0852     0.0846 2.9248e+02     3.7390      3.163      4.588    25.5757 0.0000e+00
      3.170     -0.218     7.7859     93.546    114.161 115.259213    15.2100     0.6996     0.0852     0.0846 3.0060e+02     2.2132      3.109      4.509    25.5379 0.0000e+00
      3.111     -0.234     7.7640     93.159    114.099 115.220226    15.2100     0.7149     0.0852     0.0846 3.0554e+02     2.1377      3.050      4.424    25.5053 0.0000e+00
      3.047     -0.247     7.7331     92.891    113.976 115.126499    15.4800     0.7035     0.0852     0.2115 3.1662e+02     2.1075      2.988      4.334    25.4828 0.0000e+00
      2.981     -0.255     7.6972     92.798    113.770 114.951041    15.4800     0.6844     0.0852     0.2115 3.2280e+02     2.2435      2.924      4.240    25.4729 0.0000e+00
      2.913     -0.260     7.6603     92.897    113.656 114.871031    15.4800     0.5890     0.0852     0.2115 3.3422e+02     1.2162      2.857      4.144    25.4750 0.0000e+00
      2.845     -0.263     7.6272     93.141    113.815 115.069105    15.4800     0.5814     0.0852     0.2115 3.4119e+02     1.1709      2.790      4.047    25.4852 0.0000e+00
      2.777     -0.264     7.6034     93.449    114.053 115.350117    15.4800     0.5890     0.0852     0.2115 3.4771e+02     1.0954      2.723      3.950    25.4986 0.0000e+00
      2.710     -0.264     7.5938     93.761    114.199 115.543041    14.8500     0.5928     0.0426     0.2115 3.5612e+02     1.2011      2.658      3.855    25.5130 0.0000e+00
      2.644     -0.266     7.5997     94.061    114.277 115.669325    14.8500     0.4822     0.0426     0.2115 3.5558e+02     0.8235      2.593      3.761    25.5284 0.0000e+00
      2.578     -0.271     7.6173     94.373    114.298 115.742650    14.8500     0.4631     0.0426     0.2115 3.5884e+02     0.7932      2.528      3.667    25.5447 0.0000e+00
      2.510     -0.278     7.6401     94.723    114.268 115.770571    14.8500     0.4898     0.0426     0.2115 3.6545e+02     0.7026      2.461      3.570    25.5626 0.0000e+00
      2.439     -0.287     7.6628     95.120    114.184 115.748538    14.6700     0.4708     0.0426     0.1692 3.6968e+02     0.6875      2.392      3.470    25.5822 0.0000e+00
      2.365     -0.298     7.6844     95.562    114.146 115.774669    14.6700     0.3945     0.0426     0.1692 3.7829e+02     0.5062      2.320      3.364    25.6032 0.0000e+00
      2.287     -0.308     7.7067     96.051    114.242 115.937930    14.6700     0.4212     0.0426     0.1692 3.8635e+02     0.5213      2.243      3.253    25.6258 0.0000e+00
      2.206     -0.318     7.7317     96.573    114.383 116.147869    14.6700     0.4288     0.0426     0.1692 3.9742e+02     0.4911      2.163      3.138    25.6511 0.0000e+00
      2.122     -0.325     7.7601     97.096    114.480 116.314483    14.6700     0.4173     0.0852     0.1692 4.1435e+02     0.4911      2.081      3.019    25.6787 0.0000e+00
      2.037     -0.331     7.7922     97.599    114.515 116.418206    14.6700     0.2953     0.0852     0.1692 4.2855e+02     0.1890      1.998      2.898    25.7070 0.0000e+00
      1.952     -0.334     7.8279     98.067    114.503 116.470704    14.6700     0.2953     0.0852     0.1692 4.3041e+02     0.1739      1.914      2.776    25.7359 0.0000e+00
      1.865     -0.334     7.8662     98.493    114.484 116.507979    14.6700     0.2876     0.0852     0.1692 4.3342e+02     0.1739      1.830      2.654    25.7653 0.0000e+00
      1.779     -0.333     7.9045     98.878    114.481 116.551973    14.6700     0.2876     0.0852     0.1692 4.5692e+02     0.2947      1.745      2.531    25.7951 0.0000e+00
      1.693     -0.328     7.9411     99.235    114.488 116.598421    14.0400     0.2304     0.0426     0.0846 5.5549e+02     0.2494      1.661      2.409    25.8249 0.0000e+00
      1.609     -0.321     7.9752     99.577    114.500 116.647711    14.0400     0.2304     0.0426     0.0846 5.6733e+02     0.0983      1.578      2.289    25.8531 0.0000e+00
      1.527     -0.311     8.0062     99.903    114.510 116.694989    14.0400     0.2571     0.0426     0.0846 5.2248e+02     0.1437      1.497      2.172    25.8779 0.0000e+00
      1.447     -0.296     8.0345    100.192    114.516 116.734863    14.0400     0.2113     0.0426     0.0846 4.7247e+02     0.2494      1.419      2.058    25.8984 0.0000e+00
      1.371     -0.275     8.0610    100.419    114.533 116.781970    13.8600     0.1045     0.0426     0.0846 4.7483e+02    -0.2642      1.345      1.950    25.9156 0.0000e+00
      1.301     -0.251     8.0864    100.575    114.561 116.836872    13.8600     0.1160     0.0426     0.0846 4.9249e+02    -0.2340      1.276      1.850    25.9318 0.0000e+00
      1.238     -0.222     8.1105    100.689    114.585 116.886212    13.8600     0.1198     0.0426     0.0846 4.9819e+02    -0.2038      1.214      1.761    25.9477 0.0000e+00
      1.184     -0.192     8.1318    100.781    114.585 116.909147    13.8600     0.1160     0.0426     0.0846 5.3477e+02    -0.2189      1.161      1.684    25.9624 0.0000e+00
      1.140     -0.161     8.1483    100.850    114.569 116.913794    14.0400     0.1084     0.0852     0.0423 6.4605e+02    -0.1131      1.119      1.622    25.9754 0.0000e+00
      1.106     -0.133     8.1593    100.899    114.542 116.905395    14.0400     0.1236     0.0852     0.0423 4.5612e+02     0.0681      1.085      1.573    25.9871 0.0000e+00
      1.078     -0.107     8.1669    100.944    114.500 116.875709    14.0400     0.1160     0.0852     0.0423 4.3568e+02    -0.0980      1.057      1.534    25.9979 0.0000e+00
      1.056     -0.086     8.1729    100.996    114.476 116.858822    14.0400     0.1198     0.0852     0.0423 4.7836e+02    -0.0829      1.035      1.502    26.0079 0.0000e+00
      1.038     -0.068     8.1772    101.048    114.476 116.860231    13.7700     0.1084     0.0426     0.0846 4.3135e+02    -0.0225      1.018      1.476    26.0172 0.0000e+00
      1.024     -0.055     8.1799    101.072    114.466 116.846312    13.7700     0.1198     0.0426     0.0846 4.9335e+02    -0.1283      1.004      1.456    26.0254 0.0000e+00
      1.013     -0.044     8.1826    101.040    114.450 116.823353    13.7700     0.1198     0.0426     0.0846 4.8685e+02    -0.0980      0.993      1.441    26.0314 0.0000e+00
      1.004     -0.035     8.1864    100.939    114.440 116.807229    13.7700     0.0931     0.0426     0.0846 4.5149e+02    -0.0980      0.985      1.428    26.0344 0.0000e+00
      0.997     -0.028     8.1905    100.767    114.427 116.791642    13.7700     0.1732     0.0426     0.0846 4.7721e+02     0.0681      0.978      1.418    26.0351 0.0000e+00
      0.991     -0.022     8.1927    100.551    114.422 116.788432    13.9500     0.1694     0.0426     0.1692 5.1069e+02    -0.1434      0.972      1.410    26.0335 0.0000e+00
      0.986     -0.017     8.1906    100.345    114.437 116.806747    13.9500     0.1732     0.0426     0.1692 5.2853e+02    -0.0225      0.967      1.403    26.0304 0.0000e+00
      0.983     -0.013     8.1828    100.198    114.447 116.817469    13.9500     0.1656     0.0426     0.1692 7.5991e+02    -0.0225      0.964      1.398    26.0278 0.0000e+00
      0.980     -0.009     8.1689    100.140    114.441 116.807459    13.9500     0.1618     0.0426     0.1692 5.1448e+02     0.1890      0.961      1.394    26.0271 0.0000e+00
      0.979     -0.006     8.1513    100.158    114.445 116.806047    13.7700     0.1579     0.0852     0.0000 6.2208e+02     0.1588      0.960      1.392    26.0280 0.0000e+00
      0.978     -0.004     8.1344    100.221    114.464 116.820855    13.7700     0.1579     0.0852     0.0000 1.2790e+03     0.2041      0.959      1.391    26.0292 0.0000e+00
      0.977     -0.002     8.1225    100.298    114.478 116.835832    13.7700     0.1694     0.0852     0.0000 9.4641e+02     0.2041      0.958      1.390    26.0293 0.0000e+00
      0.977     -0.001     8.1180    100.371    114.485 116.848971    13.7700     0.1656     0.0852     0.0000 9.7374e+02     0.4307      0.958      1.389    26.0277 0.0000e+00
      0.977     -0.001     8.1199    100.431    114.496 116.869777    13.8600     0.1656     0.0426     0.1269 6.6024e+02     0.5364      0.958      1.389    26.0251 0.0000e+00
      0.977     -0.001     8.1253    100.471    114.516 116.901798    13.8600     0.1694     0.0426     0.1269 1.6536e+03     0.5515      0.958      1.389    26.0233 0.0000e+00
      0.977     -0.000     8.1314    100.484    114.520 116.915575    13.8600     0.1579     0.0426     0.1269 7.3219e+02     0.3552      0.958      1.389    26.0236 0.0000e+00
      0.977      0.000     8.1369    100.482    114.494 116.896782    13.8600     0.1503     0.0426     0.1269 7.5859e+02     0.1890      0.958      1.389    26.0262 0.0000e+00
      0.976      0.001     8.1412    100.492    114.460 116.868407    13.8600     0.1770     0.0426     0.1269 7.1211e+02     0.2494      0.957      1.388    26.0305 0.0000e+00
      0.976      0.003     8.1437    100.535    114.443 116.856885    13.7700     0.1732     0.0426     0.1269 1.0534e+03     0.1588      0.957      1.388    26.0352 0.0000e+00
      0.977      0.004     8.1442    100.610    114.455 116.873143    13.7700     0.2113     0.0426     0.1269 6.7504e+02     0.1739      0.958      1.389    26.0395 0.0000e+00
      0.978      0.005     8.1435    100.687    114.472 116.891517    13.7700     0.1732     0.0426     0.1269 1.4715e+03     0.2041      0.959      1.392    26.0430 0.0000e+00
      0.981      0.006     8.1438    100.731    114.473 116.890906    13.7700     0.1732     0.0426     0.1269 1.2801e+03     0.1739      0.962      1.395    26.0460 0.0000e+00
      0.983      0.007     8.1470    100.726    114.460 116.871149    13.8600     0.1656     0.0426     0.1692 5.9201e+02     0.1588      0.964      1.398    26.0484 0.0000e+00
      0.985      0.007     8.1528    100.682    114.441 116.842976    13.8600     0.1694     0.0426     0.1692 1.2316e+03     0.1890      0.966      1.401    26.0501 0.0000e+00
      0.986      0.006     8.1590    100.617    114.438 116.830872    13.8600     0.1656     0.0426     0.1692 8.7577e+02     0.2192      0.967      1.403    26.0506 0.0000e+00
      0.988      0.004     8.1627    100.536    114.436 116.823610    13.8600     0.1541     0.0426     0.1692 2.0693e+03     0.1890      0.969      1.405    26.0497 0.0000e+00
      0.989      0.003     8.1627    100.441    114.404 116.787253    13.9500     0.1808     0.0426     0.1269 7.5334e+02     0.2796      0.970      1.407    26.0471 0.0000e+00
      0.990      0.001     8.1597    100.349    114.366 116.746106    13.9500     0.1808     0.0426     0.1269 8.1234e+02     0.2343      0.971      1.408    26.0432 0.0000e+00
      0.990      0.000     8.1549    100.280    114.346 116.723195    13.9500     0.1770     0.0426     0.1269 6.1309e+02     0.1588      0.971      1.408    26.0395 0.0000e+00
      0.989     -0.001     8.1487    100.246    114.338 116.712410    13.9500     0.1618     0.0426     0.1269 1.7516e+03     0.2343      0.970      1.406    26.0370 0.0000e+00
      0.988     -0.001     8.1413    100.245    114.354 116.726876    13.9500     0.1579     0.0426     0.1692 6.1563e+02     0.1890      0.969      1.405    26.0355 0.0000e+00
      0.987     -0.003     8.1339    100.263    114.380 116.752449    13.9500     0.1732     0.0426     0.1692 7.3411e+02     0.2645      0.969      1.405    26.0344 0.0000e+00
      0.988     -0.004     8.1285    100.289    114.406 116.777951    13.9500     0.1732     0.0426     0.1692 6.0541e+02    -0.1131      0.969      1.405    26.0333 0.0000e+00
      0.988     -0.006     8.1259    100.323    114.438 116.810182    13.9500     0.1656     0.0426     0.1692 1.3596e+03    -0.0829      0.969      1.405    26.0323 0.0000e+00
      0.986     -0.008     8.1259    100.349    114.470 116.841736    13.9500     0.1732     0.0426     0.1692 1.1546e+03    -0.0678      0.967      1.403    26.0314 0.0000e+00
      0.982     -0.009     8.1275    100.355    114.493 116.865029    13.8600     0.1770     0.0426     0.1692 6.3782e+02    -0.0829      0.964      1.398    26.0308 0.0000e+00
      0.978     -0.010     8.1297    100.351    114.503 116.874271    13.8600     0.1885     0.0426     0.1692 6.4088e+02     0.0681      0.960      1.392    26.0304 0.0000e+00
      0.975     -0.010     8.1325    100.346    114.497 116.867928    13.8600     0.1656     0.0426     0.1692 8.9151e+02     0.0228      0.956      1.387    26.0302 0.0000e+00
      0.973     -0.010     8.1346    100.325    114.486 116.856307    13.8600     0.1732     0.0426     0.1692 8.9793e+02    -0.0980      0.954      1.384    26.0299 0.0000e+00
      0.971     -0.012     8.1352    100.273    114.487 116.856311    13.9500     0.1579     0.0426     0.1269 7.9315e+02    -0.0678      0.953      1.382    26.0296 0.0000e+00
      0.970     -0.015     8.1349    100.200    114.490 116.859939    13.9500     0.1808     0.0426     0.1269 6.9908e+02    -0.0376      0.952      1.380    26.0294 0.0000e+00
      0.967     -0.020     8.1346    100.132    114.473 116.844159    13.9500     0.1579     0.0426     0.1269 1.4724e+03    -0.0678      0.949      1.376    26.0291 0.0000e+00
      0.962     -0.028     8.1329    100.096    114.443 116.814764    13.9500     0.1846     0.0426     0.1269 6.8822e+02    -0.0074      0.944      1.369    26.0287 0.0000e+00
      0.954     -0.039     8.1287    100.110    114.418 116.789914    13.9500     0.1732     0.0426     0.1269 1.6929e+03    -0.0225      0.936      1.357    26.0286 0.0000e+00
      0.944     -0.053     8.1227    100.177    114.393 116.764983    13.9500     0.1999     0.0426     0.1269 1.2090e+03    -0.0980      0.926      1.342    26.0288 0.0000e+00
      0.930     -0.071     8.1172    100.282    114.363 116.735323    13.9500     0.1656     0.0426     0.1269 6.4395e+02    -0.1283      0.912      1.323    26.0293 0.0000e+00
      0.913     -0.094     8.1141    100.396    114.346 116.719025    13.9500     0.1732     0.0426     0.1269 1.6315e+03    -0.0980      0.895      1.298    26.0298 0.0000e+00
      0.889     -0.123     8.1152    100.483    114.356 116.729741    13.9500     0.1503     0.0426     0.1269 6.9197e+02    -0.1585      0.872      1.265    26.0303 0.0000e+00
      0.857     -0.158     8.1206    100.514    114.377 116.752331    13.9500     0.1846     0.0852     0.1269 1.2826e+03    -0.0678      0.841      1.219    26.0307 0.0000e+00
      0.815     -0.197     8.1290    100.493    114.392 116.774817    13.9500     0.1923     0.0852     0.1269 7.0733e+02    -0.0829      0.799      1.159    26.0309 0.0000e+00
      0.760     -0.238     8.1383    100.438    114.414 116.813197    13.9500     0.1503     0.0852     0.1269 2.9424e+03    -0.0678      0.746      1.081    26.0312 0.0000e+00
      0.693     -0.278     8.1453    100.360    114.440 116.867705    13.9500     0.1961     0.0852     0.1269 6.7754e+02    -0.0074      0.679      0.985    26.0314 0.0000e+00
      0.613     -0.313     8.1477    100.268    114.466 116.936878    13.6800     0.1236     0.0426     0.0846 9.5800e+02    -0.0376      0.601      0.872    26.0322 0.0000e+00
      0.524     -0.340     8.1456    100.164    114.527 117.055164    13.6800     0.1007     0.0426     0.0846 1.2896e+03    -0.0225      0.514      0.746    26.0350 0.0000e+00
      0.430     -0.357     8.1401    100.017    114.608 117.210110    13.6800     0.0969     0.0426     0.0846 1.3026e+03    -0.0678      0.421      0.611    26.0419 0.0000e+00
      0.332     -0.363     8.1320     99.761    114.660 117.345037    13.6800     0.1007     0.0426     0.0846 7.1149e+02    -0.0678      0.325      0.472    26.0543 0.0000e+00
      0.234     -0.357     8.1219     99.301    114.680 117.445932    14.4000     0.0511     0.0000     0.3384 1.9796e+03    -0.1283      0.229      0.333    26.0727 0.0000e+00
      0.140     -0.342     8.1097     98.568    114.701 117.531706    14.4000     0.0435     0.0000     0.3384 1.8900e+03     0.0379      0.137      0.199    26.0974 0.0000e+00
      0.052     -0.317     8.0932     97.558    114.772 117.641238    14.4000     0.0740     0.0000     0.3384 1.7132e+03     0.0681      0.051      0.074    26.1286 0.0000e+00
     -0.027     -0.286     8.0674     96.334    114.942 117.819737    14.4000     0.0511     0.0000     0.3384 1.4632e+03    -0.0376     -0.026     -0.038    26.1642 0.0000e+00
     -0.096     -0.252     8.0251     94.996    115.233 118.098804     4.1400   245.1263    -0.8946     3.2148 1.1411e+03   -10.3553     -0.094     -0.136    26.1993 0.0000e+00
     -0.153     -0.217     7.9617     93.645    115.637 118.478850     4.1400   245.1301    -0.8946     3.2148 9.8053e+02   -10.3855     -0.150     -0.218    26.2276 0.0000e+00
     -0.199     -0.183     7.8778     92.359    116.088 118.903209     4.1400   245.1110    -0.8946     3.2148 8.6517e+02   -10.3402     -0.195     -0.283    26.2436 0.0000e+00
     -0.236     -0.153     7.7786     91.187    116.511 119.299025     4.1400   245.1263    -0.8946     3.2148 6.9137e+02   -10.3251     -0.231     -0.336    26.2457 0.0000e+00
     -0.265     -0.128     7.6716     90.152    116.896 119.659836     4.1400     5.9869    -0.8946     3.2148 4.3351e+02    10.4916     -0.260     -0.378    26.2373 0.0000e+00
     -0.288     -0.109     7.5644     89.241    117.334 120.077857     0.0000     6.0098    -1.3206     0.6345 1.9883e+02    10.4311     -0.283     -0.410    26.2229 0.0000e+00
     -0.305     -0.096     7.4628     88.435    117.862 120.594546     0.0000     5.9907    -1.3206     0.6345 1.3215e+02    10.4765     -0.300     -0.435    26.2065 0.0000e+00
     -0.319     -0.088     7.3702     87.800    118.340 121.065638     0.0000     5.9907    -1.3206     0.6345 1.2184e+02    10.4765     -0.312     -0.453    26.1906 0.0000e+00
     -0.328     -0.085     7.2885     87.541    118.537 121.260679     0.0000    -0.2350    -1.3206     0.6345 1.1955e+02    -1.0195     -0.322     -0.467    26.1760 0.0000e+00
     -0.335 -9.990e-29     7.2165 -9.990e-29 -9.990e-29 -9.990e-29     0.0000 -9.990e-29    -3.1950    11.4633 1.1607e+02 -9.990e-29     -0.329     -0.477    26.1634 0.0000e+00
     -0.340 -9.990e-29     7.1527 -9.990e-29 -9.990e-29 -9.990e-29     0.0000 -9.990e-29    -3.1950    11.4633 1.0941e+02 -9.990e-29     -0.333     -0.484    26.1531 0.0000e+00
     -0.343 -9.990e-29     7.1023 -9.990e-29 -9.990e-29 -9.990e-29     0.0000 -9.990e-29    -3.1950    11.4633 1.0711e+02 -9.990e-29     -0.336     -0.488    26.1456 0.0000e+00
     -0.344 -9.990e-29     7.0817 -9.990e-29 -9.990e-29 -9.990e-29     0.0000 -9.990e-29    -3.1950    11.4633 1.0556e+02 -9.990e-29     -0.337     -0.489    26.1427 0.0000e+00
