* Sea-Bird SBE19plus  Data File:
* FileName = C:\R\Reservoirs\Data\DataNotYetUploadedToEDI\Raw_CTD\RawDownloads\062022_bvr01_0005.hex
* Software version 2.8.0.119
* Temperature SN = 7809
* Conductivity SN = 7809
* System UpLoad Time = Jun 21 2022 11:24:37
* <ApplicationData>
* <Seaterm232>
* <SoftwareVersion>2.8.0.119</SoftwareVersion>
* <BuildDate>07-Nov-2018</BuildDate>
* </Seaterm232>
* </ApplicationData>
* <InstrumentState>
* <HardwareData DeviceType='SBE19plus' SerialNumber='01907809'>
*
*    <Manufacturer>Sea-Bird Electronics, Inc.</Manufacturer>
*
*    <FirmwareVersion>3.1.8</FirmwareVersion>
*
*    <FirmwareDate>Mar  9 2016 16:22:29</FirmwareDate>
*
*    <CommandSetVersion>1.4</CommandSetVersion>
*
*    <PCBAssembly PCBSerialNum='120721' AssemblyNum='41054J'/>
*
*    <PCBAssembly PCBSerialNum='120715' AssemblyNum='41967A'/>
*
*    <PCBAssembly PCBSerialNum='116699' AssemblyNum='41606'/>
*
*    <PCBAssembly PCBSerialNum='120719' AssemblyNum='41059D'/>
*
*    <MfgDate>28-Apr-2017</MfgDate>
*
*    <InternalSensors>
*
*       <Sensor id='Main Temperature'>
*
*          <type>temperature0</type>
*
*          <SerialNumber>01907809</SerialNumber>
*
*       </Sensor>
*
*       <Sensor id='Main Conductivity'>
*
*          <type>conductivity-0</type>
*
*          <SerialNumber>01907809</SerialNumber>
*
*       </Sensor>
*
*       <Sensor id='Main Pressure'>
*
*          <type>strain-0</type>
*
*          <SerialNumber>10586018</SerialNumber>
*
*       </Sensor>
*
*    </InternalSensors>
*
*    <ExternalSensors>
*
*       <Sensor id='volt 0'>
*
*          <type>pH</type>
*
*          <SerialNumber>27-0363</SerialNumber>
*
*       </Sensor>
*
*       <Sensor id='volt 1'>
*
*          <type>ORP</type>
*
*          <SerialNumber>27-0363</SerialNumber>
*
*       </Sensor>
*
*       <Sensor id='volt 2'>
*
*          <type>OXY</type>
*
*          <SerialNumber>43-0434</SerialNumber>
*
*       </Sensor>
*
*       <Sensor id='volt 3'>
*
*          <type>PAR</type>
*
*          <SerialNumber>1122</SerialNumber>
*
*       </Sensor>
*
*       <Sensor id='volt 4'>
*
*          <type>ECO AFL/FL</type>
*
*          <SerialNumber>FLNTURT-2496</SerialNumber>
*
*       </Sensor>
*
*       <Sensor id='volt 5'>
*
*          <type>ECO-NTU</type>
*
*          <SerialNumber>FLNTURT-2496</SerialNumber>
*
*       </Sensor>
*
*       <Sensor id='serial'>
*
*          <type>not assigned</type>
*
*          <SerialNumber>not assigned</SerialNumber>
*
*       </Sensor>
*
*    </ExternalSensors>
*
* </HardwareData>
* <StatusData DeviceType='SBE19plus' SerialNumber='01907809'>
*
*    <DateTime>2022-06-21T08:21:43</DateTime>
*
*    <LoggingState>not logging</LoggingState>
*
*    <EventSummary numEvents='0'/>
*
*    <Power>
*
*       <vMain>12.6</vMain>
*
*       <vLith>8.4</vLith>
*
*       <iMain>63.1</iMain>
*
*       <iPump>109.6</iPump>
*
*       <iExt01>20.5</iExt01>
*
*       <iExt2345>39.0</iExt2345>
*
*    </Power>
*
*    <MemorySummary>
*
*       <Bytes>141427</Bytes>
*
*       <Samples>6149</Samples>
*
*       <SamplesFree>2854639</SamplesFree>
*
*       <SampleLength>23</SampleLength>
*
*       <Profiles>5</Profiles>
*
*    </MemorySummary>
*
* </StatusData>
* <ConfigurationData DeviceType='SBE19plus' SerialNumber='01907809'>
*
*    <ProfileMode>
*
*       <ScansToAverage>1</ScansToAverage>
*
*       <MinimumCondFreq>5</MinimumCondFreq>
*
*       <PumpDelay>40</PumpDelay>
*
*       <AutoRun>no</AutoRun>
*
*       <IgnoreSwitch>no</IgnoreSwitch>
*
*    </ProfileMode>
*
*    <Battery>
*
*       <Type>alkaline</Type>
*
*       <CutOff>7.5</CutOff>
*
*    </Battery>
*
*    <DataChannels>
*
*       <ExtVolt0>yes</ExtVolt0>
*
*       <ExtVolt1>yes</ExtVolt1>
*
*       <ExtVolt2>yes</ExtVolt2>
*
*       <ExtVolt3>yes</ExtVolt3>
*
*       <ExtVolt4>yes</ExtVolt4>
*
*       <ExtVolt5>yes</ExtVolt5>
*
*       <SBE38>no</SBE38>
*
*       <WETLABS>no</WETLABS>
*
*       <OPTODE>no</OPTODE>
*
*       <SBE63>no</SBE63>
*
*       <SeaFET>no</SeaFET>
*
*       <GTD>no</GTD>
*
*    </DataChannels>
*
*    <EchoCharacters>yes</EchoCharacters>
*
*    <OutputExecutedTag>yes</OutputExecutedTag>
*
*    <OutputFormat>raw HEX</OutputFormat>
*
* </ConfigurationData>
* <CalibrationCoefficients DeviceType='SBE19plus' SerialNumber='01907809'>
*
*    <Calibration format='TEMP1' id='Main Temperature'>
*
*       <SerialNum>01907809</SerialNum>
*
*       <CalDate>25-Sep-21</CalDate>
*
*       <TA0>1.232513e-03</TA0>
*
*       <TA1>2.763223e-04</TA1>
*
*       <TA2>-9.501887e-07</TA2>
*
*       <TA3>1.718014e-07</TA3>
*
*       <TOFFSET>0.000000e+00</TOFFSET>
*
*    </Calibration>
*
*    <Calibration format='WBCOND0' id='Main Conductivity'>
*
*       <SerialNum>01907809</SerialNum>
*
*       <CalDate>25-Sep-21</CalDate>
*
*       <G>-1.004440e+00</G>
*
*       <H>1.264604e-01</H>
*
*       <I>-7.854363e-05</I>
*
*       <J>2.210938e-05</J>
*
*       <CPCOR>-9.570000e-08</CPCOR>
*
*       <CTCOR>3.250000e-06</CTCOR>
*
*       <CSLOPE>1.000000e+00</CSLOPE>
*
*    </Calibration>
*
*    <Calibration format='STRAIN0' id='Main Pressure'>
*
*       <SerialNum>10586018</SerialNum>
*
*       <CalDate>10-Sep-21</CalDate>
*
*       <PA0>4.789196e-02</PA0>
*
*       <PA1>4.853655e-04</PA1>
*
*       <PA2>-3.689276e-12</PA2>
*
*       <PTCA0>5.254946e+05</PTCA0>
*
*       <PTCA1>1.325193e+01</PTCA1>
*
*       <PTCA2>-3.889275e-01</PTCA2>
*
*       <PTCB0>2.516687e+01</PTCB0>
*
*       <PTCB1>3.750000e-04</PTCB1>
*
*       <PTCB2>0.000000e+00</PTCB2>
*
*       <PTEMPA0>-5.401644e+01</PTEMPA0>
*
*       <PTEMPA1>5.390655e+01</PTEMPA1>
*
*       <PTEMPA2>-2.194112e-02</PTEMPA2>
*
*       <POFFSET>-1.280000e-01</POFFSET>
*
*       <PRANGE>1.600000e+02</PRANGE>
*
*    </Calibration>
*
*    <Calibration format='VOLT0' id='Volt 0'>
*
*       <OFFSET>-4.920000e-02</OFFSET>
*
*       <SLOPE>1.248122e+00</SLOPE>
*
*    </Calibration>
*
*    <Calibration format='VOLT0' id='Volt 1'>
*
*       <OFFSET>-4.784000e-02</OFFSET>
*
*       <SLOPE>1.248871e+00</SLOPE>
*
*    </Calibration>
*
*    <Calibration format='VOLT0' id='Volt 2'>
*
*       <OFFSET>-4.864632e-02</OFFSET>
*
*       <SLOPE>1.248714e+00</SLOPE>
*
*    </Calibration>
*
*    <Calibration format='VOLT0' id='Volt 3'>
*
*       <OFFSET>-4.743790e-02</OFFSET>
*
*       <SLOPE>1.248571e+00</SLOPE>
*
*    </Calibration>
*
*    <Calibration format='VOLT0' id='Volt 4'>
*
*       <OFFSET>-4.671263e-02</OFFSET>
*
*       <SLOPE>1.248951e+00</SLOPE>
*
*    </Calibration>
*
*    <Calibration format='VOLT0' id='Volt 5'>
*
*       <OFFSET>-4.871053e-02</OFFSET>
*
*       <SLOPE>1.249136e+00</SLOPE>
*
*    </Calibration>
*
*    <Calibration format='FREQ0' id='external frequency channel'>
*
*       <EXTFREQSF>1.000014e+00</EXTFREQSF>
*
*    </Calibration>
*
* </CalibrationCoefficients>
* <EventCounters DeviceType='SBE19plus' SerialNumber='01907809'>
*
*    <EventSummary numEvents='0'/>
*
* </EventCounters></InstrumentState>
* <Headers>
*
* cast   5 20 Jun 2022 11:46:03 samples 5175 to 6149, avg = 1, stop = mag switch
*
# nquan = 15
# nvalues = 975                         
# units = specified
# name 0 = depFM: Depth [fresh water, m]
# name 1 = dz/dtM: Descent Rate [m/s]
# name 2 = sbeox0Mg/L: Oxygen, SBE 43 [mg/l]
# name 3 = sbeox0PS: Oxygen, SBE 43 [% saturation]
# name 4 = specc: Specific Conductance [uS/cm]
# name 5 = c0uS/cm: Conductivity [uS/cm]
# name 6 = flECO-AFL: Fluorescence, WET Labs ECO-AFL/FL [mg/m^3]
# name 7 = ph: pH
# name 8 = orp: Oxidation Reduction Potential [mV]
# name 9 = par/sat/log: PAR/Logarithmic, Satlantic
# name 10 = turbWETntu0: Turbidity, WET Labs ECO [NTU]
# name 11 = prdM: Pressure, Strain Gauge [db]
# name 12 = prdE: Pressure, Strain Gauge [psi]
# name 13 = tv290C: Temperature [ITS-90, deg C]
# name 14 = flag:  0.000e+00
# span 0 =     -0.591,      9.489       
# span 1 =     -0.554,      0.214       
# span 2 =     0.0573,    10.7993       
# span 3 =      0.514,    126.080       
# span 4 =      0.091,    291.764       
# span 5 =   0.084033, 203.614358       
# span 6 =    -0.1388,     4.5168       
# span 7 =     -2.471,     10.003       
# span 8 = -1240.7455,   207.6897       
# span 9 = 1.2358e-01, 5.8307e+02       
# span 10 =    -0.2803,   349.9707      
# span 11 =     -0.580,      9.307      
# span 12 =     -0.840,     13.498      
# span 13 =     9.7380,    23.3639      
# span 14 = 0.0000e+00, 0.0000e+00      
# interval = seconds: 0.25
# start_time = Jun 20 2022 11:46:03 [Instrument's time stamp, header]
# bad_flag = -9.990e-29
# <Sensors count="9" >
#   <sensor Channel="1" >
#     <!-- Count, Temperature -->
#     <TemperatureSensor SensorID="58" >
#       <SerialNumber>7809</SerialNumber>
#       <CalibrationDate>25-Sep-21</CalibrationDate>
#       <A0>1.23251324e-003</A0>
#       <A1>2.76322262e-004</A1>
#       <A2>-9.50188734e-007</A2>
#       <A3>1.71801404e-007</A3>
#       <Slope>1.00000000</Slope>
#       <Offset>0.0000</Offset>
#     </TemperatureSensor>
#   </sensor>
#   <sensor Channel="2" >
#     <!-- Frequency 0, Conductivity -->
#     <ConductivitySensor SensorID="3" >
#       <SerialNumber>7809</SerialNumber>
#       <CalibrationDate>25-Sep-21</CalibrationDate>
#       <UseG_J>1</UseG_J>
#       <!-- Cell const and series R are applicable only for wide range sensors. -->
#       <SeriesR>0.0000</SeriesR>
#       <CellConst>2000.0000</CellConst>
#       <ConductivityType>0</ConductivityType>
#       <Coefficients equation="0" >
#         <A>0.00000000e+000</A>
#         <B>0.00000000e+000</B>
#         <C>0.00000000e+000</C>
#         <D>0.00000000e+000</D>
#         <M>0.0</M>
#         <CPcor>-9.57000000e-008</CPcor>
#       </Coefficients>
#       <Coefficients equation="1" >
#         <G>-1.00443970e+000</G>
#         <H>1.26460406e-001</H>
#         <I>-7.85436262e-005</I>
#         <J>2.21093811e-005</J>
#         <CPcor>-9.57000000e-008</CPcor>
#         <CTcor>3.2500e-006</CTcor>
#         <!-- WBOTC not applicable unless ConductivityType = 1. -->
#         <WBOTC>0.00000000e+000</WBOTC>
#       </Coefficients>
#       <Slope>1.00000000</Slope>
#       <Offset>0.00000</Offset>
#     </ConductivitySensor>
#   </sensor>
#   <sensor Channel="3" >
#     <!-- Count, Pressure, Strain Gauge -->
#     <PressureSensor SensorID="46" >
#       <SerialNumber>7809</SerialNumber>
#       <CalibrationDate>10-Sep-21</CalibrationDate>
#       <PA0>4.78919585e-002</PA0>
#       <PA1>4.85365526e-004</PA1>
#       <PA2>-3.68927597e-012</PA2>
#       <PTEMPA0>-5.40164371e+001</PTEMPA0>
#       <PTEMPA1>5.39065456e+001</PTEMPA1>
#       <PTEMPA2>-2.19411190e-002</PTEMPA2>
#       <PTCA0>5.25494622e+005</PTCA0>
#       <PTCA1>1.32519328e+001</PTCA1>
#       <PTCA2>-3.88927502e-001</PTCA2>
#       <PTCB0>2.51668750e+001</PTCB0>
#       <PTCB1>3.75000000e-004</PTCB1>
#       <PTCB2>0.00000000e+000</PTCB2>
#       <Offset>0.000000</Offset>
#     </PressureSensor>
#   </sensor>
#   <sensor Channel="4" >
#     <!-- A/D voltage 0, Oxygen, SBE 43 -->
#     <OxygenSensor SensorID="38" >
#       <SerialNumber>0434</SerialNumber>
#       <CalibrationDate>25-Sep-21</CalibrationDate>
#       <Use2007Equation>1</Use2007Equation>
#       <CalibrationCoefficients equation="0" >
#         <!-- Coefficients for Owens-Millard equation. -->
#         <Boc>0.0000</Boc>
#         <Soc>0.0000e+000</Soc>
#         <offset>0.0000</offset>
#         <Pcor>0.00e+000</Pcor>
#         <Tcor>0.0000</Tcor>
#         <Tau>0.0</Tau>
#       </CalibrationCoefficients>
#       <CalibrationCoefficients equation="1" >
#         <!-- Coefficients for Sea-Bird equation - SBE calibration in 2007 and later. -->
#         <Soc>4.7287e-001</Soc>
#         <offset>-0.5046</offset>
#         <A>-3.6094e-003</A>
#         <B> 1.1544e-004</B>
#         <C>-1.3802e-006</C>
#         <D0> 2.5826e+000</D0>
#         <D1> 1.92634e-004</D1>
#         <D2>-4.64803e-002</D2>
#         <E> 3.6000e-002</E>
#         <Tau20> 0.7700</Tau20>
#         <H1>-3.3000e-002</H1>
#         <H2> 5.0000e+003</H2>
#         <H3> 1.4500e+003</H3>
#       </CalibrationCoefficients>
#     </OxygenSensor>
#   </sensor>
#   <sensor Channel="5" >
#     <!-- A/D voltage 1, PAR/Logarithmic, Satlantic -->
#     <PARLog_SatlanticSensor SensorID="76" >
#       <SerialNumber>1122</SerialNumber>
#       <CalibrationDate>08-Sep-2021</CalibrationDate>
#       <a0>9.6751e-001</a0>
#       <a1>8.0992e-001</a1>
#       <Im>1.3589e+000</Im>
#       <Multiplier>1.0000e+000</Multiplier>
#     </PARLog_SatlanticSensor>
#   </sensor>
#   <sensor Channel="6" >
#     <!-- A/D voltage 2, pH -->
#     <pH_Sensor SensorID="43" >
#       <SerialNumber>0363</SerialNumber>
#       <CalibrationDate>16-Sep-21</CalibrationDate>
#       <Slope>4.5144</Slope>
#       <Offset>2.4957</Offset>
#     </pH_Sensor>
#   </sensor>
#   <sensor Channel="7" >
#     <!-- A/D voltage 3, Oxidation Reduction Potential -->
#     <OxidationReductionPotentialSensor SensorID="41" >
#       <SerialNumber>0363</SerialNumber>
#       <CalibrationDate>16-Sep-21</CalibrationDate>
#       <B>2.499480</B>
#       <M>-0.496195</M>
#       <Offset>0.0</Offset>
#     </OxidationReductionPotentialSensor>
#   </sensor>
#   <sensor Channel="8" >
#     <!-- A/D voltage 4, Fluorometer, WET Labs ECO-AFL/FL -->
#     <FluoroWetlabECO_AFL_FL_Sensor SensorID="20" >
#       <SerialNumber>FLNTURT-2496</SerialNumber>
#       <CalibrationDate>02-Sep-2021</CalibrationDate>
#       <ScaleFactor>4.80000000e+001</ScaleFactor>
#       <!-- Dark output -->
#       <Vblank>0.0550</Vblank>
#     </FluoroWetlabECO_AFL_FL_Sensor>
#   </sensor>
#   <sensor Channel="9" >
#     <!-- A/D voltage 5, Turbidity Meter, WET Labs, ECO-NTU -->
#     <TurbidityMeter SensorID="67" >
#       <SerialNumber>FLNTURT-2496</SerialNumber>
#       <CalibrationDate>02-Sep-2021</CalibrationDate>
#       <ScaleFactor>197.000000</ScaleFactor>
#       <!-- Dark output -->
#       <DarkVoltage>0.070000</DarkVoltage>
#     </TurbidityMeter>
#   </sensor>
# </Sensors>
# datcnv_date = Jun 21 2022 11:51:19, 7.26.7.129 [datcnv_vars = 14]
# datcnv_in = C:\R\Reservoirs\Data\DataNotYetUploadedToEDI\Raw_CTD\RawDownloads\062022_fcr50_0005.hex C:\R\Reservoirs\Data\DataNotYetUploadedToEDI\Raw_CTD\SBE19plusV2_7809.xmlcon
# datcnv_skipover = 0
# datcnv_ox_hysteresis_correction = yes
# datcnv_ox_tau_correction = yes
# filter_date = Jun 21 2022 11:51:39, 7.26.7.129
# filter_in = C:\R\Reservoirs\Data\DataNotYetUploadedToEDI\Raw_CTD\RawDownloads\062022_fcr50_0005.cnv
# filter_low_pass_tc_A = 0.030
# filter_low_pass_tc_B = 0.150
# filter_low_pass_A_vars = sbeox0Mg/L prdM prdE tv290C
# filter_low_pass_B_vars = depFM dz/dtM sbeox0PS specc c0uS/cm flECO-AFL ph orp par/sat/log turbWETntu0
# alignctd_date = Jun 21 2022 11:52:04, 7.26.7.129
# alignctd_in = C:\R\Reservoirs\Data\DataNotYetUploadedToEDI\Raw_CTD\RawDownloads\062022_fcr50_0005.cnv
# alignctd_adv = dz/dtM 1.000, sbeox0PS 1.000, specc 1.000, c0uS/cm 1.000, flECO-AFL 1.000, ph 1.000, orp 1.000, turbWETntu0 1.000                                                                                                   
# file_type = ascii
*END*
     -0.591 4.3139e-20     7.5855     85.140      0.109   0.100087    -0.1018     -2.471 -1240.7455 4.4110e+02     0.0224     -0.579     -0.840    21.0394 0.0000e+00
     -0.590 3.9217e-21     7.5843     85.155      0.094   0.086277    -0.0969     -2.471 -1240.7455 4.2300e+02    -0.0007     -0.578     -0.839    21.0399 0.0000e+00
     -0.590 3.5652e-22     7.5814     85.159      0.106   0.097474    -0.0775     -2.471 -1240.7455 4.1101e+02     0.0368     -0.579     -0.839    21.0404 0.0000e+00
     -0.591 3.2410e-23     7.5834     85.128      0.118   0.108869    -0.0751     -2.471 -1240.7455 4.1532e+02     0.0321     -0.579     -0.840    21.0406 0.0000e+00
     -0.591 2.9464e-24     7.5830     85.113      0.106   0.097464    -0.0766     -2.471 -1240.7455 4.2419e+02     0.0107     -0.579     -0.840    21.0406 0.0000e+00
     -0.590 2.6786e-25     7.5848     85.143      0.094   0.086172    -0.0708     -2.471 -1240.7455 4.2911e+02     0.0509     -0.578     -0.839    21.0410 0.0000e+00
     -0.590 2.4351e-26     7.5876     85.170      0.107   0.098935    -0.0717     -2.471 -1240.7455 4.3379e+02     0.0397     -0.579     -0.839    21.0418 0.0000e+00
     -0.590 2.2137e-27     7.5816     85.181      0.136   0.125188    -0.0790     -2.471 -1240.7455 4.3896e+02    -0.0228     -0.579     -0.840    21.0425 0.0000e+00
     -0.590 2.0125e-28     7.5784     85.191      0.163   0.150394    -0.0768     -2.471 -1240.7455 4.4205e+02    -0.0551     -0.578     -0.839    21.0426 0.0000e+00
     -0.590 1.8320e-29     7.5845     85.171      0.163   0.150498    -0.0692     -2.471 -1240.7455 4.4807e+02    -0.1114     -0.579     -0.840    21.0428 0.0000e+00
     -0.590 1.9418e-30     7.5870     85.161      0.137   0.126443    -0.0697     -2.471 -1240.7455 4.6146e+02    -0.2258     -0.578     -0.839    21.0430 0.0000e+00
     -0.591 3.2163e-30     7.5856     85.190      0.122   0.112748    -0.0750     -2.471 -1240.7455 4.7554e+02    -0.2770     -0.579     -0.840    21.0429 0.0000e+00
     -0.591 3.3730e-29     7.5901     85.202      0.121   0.111513    -0.0755     -2.471 -1240.7455 4.8382e+02    -0.2176     -0.579     -0.840    21.0430 0.0000e+00
     -0.591 3.7088e-28     7.5858     85.193      0.121   0.111503    -0.0754     -2.471 -1240.7455 4.8672e+02    -0.1565     -0.579     -0.839    21.0434 0.0000e+00
     -0.591 4.0796e-27     7.5818     85.187      0.122   0.112633    -0.0814     -2.470 -1240.7455 4.8762e+02    -0.1528     -0.579     -0.840    21.0440 0.0000e+00
     -0.591 4.4876e-26     7.5895     85.182      0.136   0.125178    -0.0901     -2.470 -1240.7455 4.9115e+02    -0.1729     -0.579     -0.840    21.0442 0.0000e+00
     -0.591 4.9364e-25     7.5892     85.182      0.148   0.136583    -0.0893     -2.470 -1240.7455 5.0050e+02    -0.1603     -0.579     -0.840    21.0445 0.0000e+00
     -0.591 5.4300e-24     7.5871     85.184      0.135   0.123933    -0.0716     -2.470 -1240.7455 5.1455e+02    -0.1715     -0.579     -0.840    21.0450 0.0000e+00
     -0.591 5.9730e-23     7.5875     85.184      0.108   0.098822    -0.0678     -2.470 -1240.7455 5.2615e+02    -0.2403     -0.579     -0.840    21.0452 0.0000e+00
     -0.591 6.5703e-22     7.5862     85.176      0.094   0.086162    -0.0767     -2.470 -1240.7455 5.2505e+02    -0.2398     -0.579     -0.840    21.0452 0.0000e+00
     -0.591 7.2273e-21     7.5868     85.171      0.106   0.097472    -0.0715     -2.470 -1240.7455 5.0616e+02    -0.1658     -0.579     -0.839    21.0457 0.0000e+00
     -0.591 7.9501e-20     7.5864     85.178      0.118   0.108971    -0.0797     -2.470 -1240.7455 4.7067e+02    -0.1657     -0.579     -0.840    21.0461 0.0000e+00
     -0.591 8.7451e-19     7.5873     85.183      0.108   0.098593    -0.0920     -2.470 -1240.7455 4.1813e+02    -0.2389     -0.579     -0.839    21.0466 0.0000e+00
     -0.591 9.6196e-18     7.5858     85.176      0.108   0.098592    -0.0788     -2.470 -1240.7455 3.5314e+02    -0.2641     -0.579     -0.840    21.0469 0.0000e+00
     -0.591 1.0582e-16     7.5847     85.168      0.119   0.108961    -0.0698     -2.470 -1240.7455 2.9277e+02    -0.2318     -0.579     -0.840    21.0469 0.0000e+00
     -0.590 1.1640e-15     7.5861     85.166      0.106   0.097357    -0.0828     -2.470 -1240.7455 2.4779e+02    -0.1572     -0.578     -0.839    21.0467 0.0000e+00
     -0.590 1.2804e-14     7.5872     85.158      0.092   0.084897    -0.0859     -2.470 -1240.7455 2.1732e+02    -0.0445     -0.578     -0.838    21.0468 0.0000e+00
     -0.590 1.4084e-13     7.5860     85.154      0.092   0.084906    -0.0748     -2.470 -1240.7455 1.9999e+02     0.0380     -0.579     -0.839    21.0470 0.0000e+00
     -0.590 1.5492e-12     7.5844     85.161      0.106   0.097461    -0.0734     -2.470 -1240.7455 1.9505e+02     0.0209     -0.579     -0.839    21.0472 0.0000e+00
     -0.590 1.7042e-11     7.5857     85.171      0.120   0.110102    -0.0770     -2.470 -1240.7455 2.0026e+02    -0.0812     -0.579     -0.839    21.0475 0.0000e+00
     -0.590 1.8746e-10     7.5840     85.180      0.121   0.111147    -0.0851     -2.470 -1240.7455 2.1121e+02    -0.1710     -0.578     -0.838    21.0476 0.0000e+00
     -0.590 2.0620e-09     7.5832     85.186      0.120   0.110102    -0.0882     -2.470 -1240.7455 2.2681e+02    -0.1773     -0.578     -0.839    21.0474 0.0000e+00
     -0.590 2.2682e-08     7.5848     85.191      0.106   0.097454    -0.0819     -2.470 -1240.7455 2.4306e+02    -0.1574     -0.578     -0.838    21.0475 0.0000e+00
     -0.590 2.4951e-07     7.5853     85.194      0.092   0.084828    -0.0837     -2.470 -1240.7452 2.5165e+02    -0.2029     -0.578     -0.839    21.0472 0.0000e+00
     -0.590      0.000     7.5864     85.198      0.091   0.084033    -0.0766     -2.470 -1240.7425 2.5574e+02    -0.2157     -0.578     -0.839    21.0475 0.0000e+00
     -0.590      0.000     7.5866     85.203      0.096   0.087853    -0.0541     -2.469 -1240.7121 2.6473e+02    -0.1414     -0.579     -0.839    21.0476 0.0000e+00
     -0.590      0.000     7.5871     85.204      0.142   0.131008    -0.0529     -2.461 -1240.3778 2.8282e+02    -0.1585     -0.578     -0.839    21.0485 0.0000e+00
     -0.590      0.004     7.5876     85.201      0.655   0.605819    -0.0794     -2.370 -1236.7006 3.1043e+02    -0.2520     -0.578     -0.838    21.0478 0.0000e+00
     -0.590      0.015     7.5870     85.193      5.611   5.195758    -0.0914     -1.371 -1196.2513 3.4518e+02    -0.2466     -0.578     -0.839    21.0495 0.0000e+00
     -0.590      0.037     7.5888     85.192     17.566  16.302783    -0.0726      1.185  -751.3097 3.7763e+02    -0.2295     -0.579     -0.838    21.0466 0.0000e+00
     -0.589      0.067     7.5874     85.197     29.987  27.920358    -0.0598      4.180   -32.0898 4.0036e+02    -0.2508     -0.580     -0.840    21.0508 0.0000e+00
     -0.577      0.104     7.5891     85.196     36.541  34.148543    -0.0706      6.403   207.6897 4.1824e+02    -0.0253     -0.576     -0.836    21.0439 0.0000e+00
     -0.542      0.144     7.5831     85.202     38.187  35.827020    -0.0780      7.781   123.7697 4.3541e+02     0.4462     -0.538     -0.780    21.0740 0.0000e+00
     -0.491      0.181     7.5549     85.224     38.190  35.978178    -0.0739      8.606   106.3390 4.5004e+02     0.8051     -0.481     -0.696    21.2605 0.0000e+00
     -0.434      0.207     7.5205     85.279     38.101  36.039796    -0.0219      9.105    98.8065 4.6344e+02     1.4793     -0.428     -0.621    21.5075 0.0000e+00
     -0.370      0.214     7.4887     85.425     37.994  36.064949     0.5091      9.390    95.0731 4.7788e+02     8.1530     -0.365     -0.530    21.7127 0.0000e+00
     -0.302      0.202     7.4626     85.663     37.846  36.028837     1.4530      9.557    93.0339 4.9107e+02    20.3859     -0.293     -0.426    21.8996 0.0000e+00
     -0.242      0.177     7.4359     85.926     37.644  35.920362     1.9530      9.664    92.2188 4.9958e+02    27.0609     -0.232     -0.336    22.1004 0.0000e+00
     -0.198      0.145     7.4090     86.178     37.349  35.704679     2.0009      9.732    91.7577 5.0391e+02    27.4065     -0.187     -0.272    22.3009 0.0000e+00
     -0.171      0.109     7.3980     86.403     37.021  35.450260     2.0158      9.778    90.7280 5.0771e+02    23.8820     -0.163     -0.236    22.4669 0.0000e+00
     -0.156      0.075     7.4027     86.580     36.824  35.317297     2.0161      9.816    89.7491 5.1256e+02    17.2055     -0.153     -0.222    22.6033 0.0000e+00
     -0.146      0.051     7.4104     86.719     36.763  35.301897     2.0134      9.846    89.2141 5.1717e+02    13.5315     -0.143     -0.206    22.7139 0.0000e+00
     -0.138      0.038     7.4200     86.822     36.763  35.327532     2.0154      9.864    88.9912 5.2103e+02    13.2435     -0.133     -0.192    22.7971 0.0000e+00
     -0.136      0.035     7.4309     86.888     36.729  35.310247     2.0332      9.870    88.7748 5.2506e+02    13.5188     -0.134     -0.194    22.8711 0.0000e+00
     -0.132      0.037     7.4328     86.944     36.624  35.219735     2.0700      9.867    88.4052 5.2973e+02    13.9559     -0.133     -0.191    22.9559 0.0000e+00
     -0.121      0.040     7.4360     87.004     36.580  35.184317     2.0856      9.865    88.0501 5.3598e+02    14.1221     -0.121     -0.175    23.0177 0.0000e+00
     -0.105      0.041     7.4417     87.071     36.657  35.262477     2.0816      9.867    87.6643 5.4398e+02    14.1281     -0.105     -0.152    23.0463 0.0000e+00
     -0.089      0.041     7.4429     87.122     36.800  35.403847     2.0878      9.874    87.1823 5.5070e+02    13.9257     -0.085     -0.123    23.0649 0.0000e+00
     -0.076      0.036     7.4460     87.156     36.955  35.562013     2.0933      9.881    86.6958 5.5485e+02    13.4162     -0.073     -0.106    23.0794 0.0000e+00
     -0.069      0.027     7.4486     87.271     37.100  35.716446     2.0821      9.887    86.4285 5.5746e+02    13.0927     -0.067     -0.098    23.0898 0.0000e+00
     -0.066      0.017     7.4555     87.768     37.248  35.876081     2.0686      9.893    86.2733 5.5845e+02    13.0193     -0.064     -0.092    23.0930 0.0000e+00
     -0.065      0.010     7.4598     89.084     37.397  36.033719     2.0715      9.898    86.1107 5.5796e+02    12.9738     -0.064     -0.093    23.0949 0.0000e+00
     -0.064      0.005     7.4595     91.408     37.524  36.163984     2.1003      9.902    85.9250 5.5656e+02    12.9866     -0.063     -0.092    23.1056 0.0000e+00
     -0.064      0.002     7.4572     94.235     37.606  36.246296     2.1426      9.903    85.5756 5.5492e+02    13.0369     -0.063     -0.091    23.1275 0.0000e+00
     -0.064      0.001     7.4803     96.639     37.628  36.268015     2.1493      9.902    85.2418 5.5356e+02    13.0358     -0.063     -0.092    23.1552 0.0000e+00
     -0.064      0.001     7.5793     98.074     37.595  36.236342     2.1318      9.901    85.0729 5.5244e+02    12.9736     -0.062     -0.091    23.1753 0.0000e+00
     -0.064      0.000     7.7924     98.478     37.535  36.180402     2.1476      9.900    84.9108 5.5147e+02    12.9001     -0.062     -0.090    23.1847 0.0000e+00
     -0.064 1.8816e-08     8.0718     97.981     37.514  36.162365     2.1898      9.899    84.6582 5.5136e+02    12.8636     -0.062     -0.091    23.1884 0.0000e+00
     -0.064 2.0698e-07     8.2914     96.791     37.558  36.208497     2.2178      9.898    84.3408 5.5238e+02    12.8745     -0.062     -0.090    23.1875 0.0000e+00
     -0.064 2.0698e-07     8.4130     95.157     37.578  36.230889     2.2204      9.896    84.0849 5.5374e+02    12.8950     -0.063     -0.091    23.1864 0.0000e+00
     -0.064 1.8816e-08     8.4437     93.360     37.521  36.179463     2.2213      9.893    83.9737 5.5504e+02    13.2823     -0.062     -0.090    23.1884 0.0000e+00
     -0.064 1.7108e-09     8.3933     91.661     37.432  36.094011     2.2453      9.892    83.8568 5.5569e+02    14.1065     -0.062     -0.091    23.1926 0.0000e+00
     -0.063 1.5830e-10     8.2844     90.206     37.358  36.022043     2.2691      9.894    83.7902 5.5556e+02    14.6285     -0.062     -0.090    23.1971 0.0000e+00
     -0.063 4.4924e-11     8.1348     89.007     37.342  36.006836     2.2686      9.896    83.7704 5.5512e+02    14.7095     -0.062     -0.090    23.2025 0.0000e+00
     -0.064 3.3995e-10     7.9721     88.084     37.370  36.036967     2.2551      9.898    83.7894 5.5428e+02    14.8121     -0.063     -0.091    23.2085 0.0000e+00
     -0.064 3.7254e-09     7.8218     87.515     37.400  36.069298     2.2466      9.900    83.9342 5.5312e+02    15.0156     -0.062     -0.091    23.2095 0.0000e+00
     -0.064 4.0978e-08     7.6994     87.276     37.409  36.080702     2.2578      9.901    83.8004 5.5176e+02    15.1540     -0.063     -0.090    23.2054 0.0000e+00
     -0.064 4.5076e-07     7.5974     87.227     37.439  36.111447     2.2742      9.904    83.3757 5.4978e+02    15.1873     -0.062     -0.091    23.2060 0.0000e+00
     -0.063      0.000     7.5128     87.252     37.514  36.187384     2.2539      9.907    83.1012 5.4763e+02    14.8712     -0.061     -0.090    23.2110 0.0000e+00
     -0.063      0.000     7.4642     87.279     37.563  36.237912     2.2117      9.909    83.1490 5.4598e+02    14.2367     -0.062     -0.089    23.2154 0.0000e+00
     -0.063      0.001     7.4499     87.274     37.534  36.215086     2.1966      9.910    83.3506 5.4463e+02    13.9026     -0.062     -0.090    23.2185 0.0000e+00
     -0.063      0.002     7.4477     87.267     37.478  36.165050     2.2051      9.911    83.3019 5.4347e+02    13.9404     -0.063     -0.092    23.2217 0.0000e+00
     -0.063      0.003     7.4516     87.384     37.449  36.140239     2.2057      9.911    83.1622 5.4267e+02    14.0103     -0.062     -0.091    23.2258 0.0000e+00
     -0.061      0.004     7.4546     87.840     37.410  36.105334     2.1875      9.909    83.1242 5.4244e+02    13.9963     -0.060     -0.087    23.2309 0.0000e+00
     -0.059      0.004     7.4525     88.803     37.360  36.060079     2.1758      9.905    83.0148 5.4238e+02    13.9766     -0.058     -0.084    23.2365 0.0000e+00
     -0.058      0.004     7.4481     90.308     37.335  36.036950     2.1812      9.900    83.0434 5.4215e+02    13.9771     -0.057     -0.082    23.2424 0.0000e+00
     -0.058      0.003     7.4489     92.195     37.311  36.015925     2.1942      9.897    83.1268 5.4231e+02    13.9686     -0.056     -0.081    23.2479 0.0000e+00
     -0.058      0.002     7.4823     94.205     37.290  35.996097     2.2172      9.895    82.9904 5.4256e+02    13.9414     -0.056     -0.082    23.2518 0.0000e+00
     -0.058      0.001     7.5624     96.136     37.280  35.987447     2.2429      9.895    82.9435 5.4262e+02    13.8195     -0.056     -0.082    23.2544 0.0000e+00
     -0.057      0.000     7.6952     97.824     37.266  35.974754     2.2471      9.896    82.9900 5.4302e+02    13.7245     -0.056     -0.081    23.2564 0.0000e+00
     -0.057 2.0489e-08     7.8668     99.192     37.261  35.969451     2.2429      9.899    82.8639 5.4347e+02    13.7142     -0.056     -0.081    23.2587 0.0000e+00
     -0.057 2.2538e-07     8.0415    100.233     37.279  35.986739     2.2586      9.903    82.7087 5.4380e+02    13.6951     -0.056     -0.081    23.2608 0.0000e+00
     -0.057 2.2538e-07     8.2128    100.912     37.286  35.993542     2.2782      9.907    82.6624 5.4405e+02    13.6987     -0.056     -0.081    23.2619 0.0000e+00
     -0.057 2.0489e-08     8.3594    101.272     37.280  35.988297     2.2801      9.911    82.6489 5.4426e+02    13.7244     -0.056     -0.081    23.2621 0.0000e+00
     -0.057 1.8626e-09     8.4733    101.417     37.279  35.986727     2.2646      9.915    82.6313 5.4446e+02    13.7320     -0.056     -0.081    23.2619 0.0000e+00
     -0.057 1.6933e-10     8.5666    101.406     37.266  35.974563     2.2496      9.918    82.6211 5.4439e+02    13.6881     -0.056     -0.081    23.2616 0.0000e+00
     -0.057 1.5394e-11     8.6223    101.288     37.259  35.968050     2.2404      9.921    82.3541 5.4422e+02    13.6039     -0.056     -0.081    23.2610 0.0000e+00
     -0.057 1.3994e-12     8.6485    101.089     37.262  35.971393     2.2278      9.923    81.9841 5.4428e+02    13.5324     -0.055     -0.080    23.2608 0.0000e+00
     -0.057 1.2722e-13     8.6603    100.812     37.240  35.951564     2.2136      9.924    81.9322 5.4484e+02    13.4737     -0.055     -0.080    23.2613 0.0000e+00
     -0.057 1.1565e-14     8.6574    100.524     37.205  35.918534     2.2190      9.925    81.9859 5.4554e+02    13.5770     -0.056     -0.082    23.2618 0.0000e+00
     -0.057 1.0514e-15     8.6459    100.262     37.174  35.889093     2.2519      9.925    82.0310 5.4589e+02    13.8586     -0.056     -0.081    23.2623 0.0000e+00
     -0.057 9.5585e-17     8.6307     99.993     37.131  35.849250     2.2699      9.924    82.1327 5.4608e+02    13.9753     -0.055     -0.080    23.2629 0.0000e+00
     -0.057 8.6895e-18     8.6035     99.764     37.097  35.817256     2.2617      9.923    82.0113 5.4643e+02    13.8949     -0.056     -0.081    23.2637 0.0000e+00
     -0.057 7.8995e-19     8.5762     99.635     37.097  35.819314     2.2524      9.919    81.6820 5.4693e+02    13.8427     -0.056     -0.081    23.2651 0.0000e+00
     -0.057 7.1815e-20     8.5580     99.603     37.087  35.810726     2.2741      9.915    81.5071 5.4706e+02    14.0622     -0.055     -0.080    23.2669 0.0000e+00
     -0.057 6.5285e-21     8.5315     99.655     37.051  35.776832     2.3412      9.914    81.5306 5.4694e+02    14.4985     -0.056     -0.081    23.2683 0.0000e+00
     -0.057 5.9350e-22     8.5089     99.760     36.998  35.726559     2.3732      9.914    81.7086 5.4700e+02    14.6774     -0.056     -0.082    23.2698 0.0000e+00
     -0.056 5.3955e-23     8.4993     99.899     36.915  35.646755     2.3611      9.914    81.6796 5.4727e+02    14.5860     -0.055     -0.080    23.2717 0.0000e+00
     -0.056 4.9049e-24     8.4957    100.069     36.840  35.572853     2.3443      9.916    81.3530 5.4779e+02    14.3835     -0.055     -0.080    23.2739 0.0000e+00
     -0.057 4.4590e-25     8.5010    100.200     36.796  35.530519     2.3035      9.918    81.2012 5.4816e+02    14.1084     -0.056     -0.081    23.2757 0.0000e+00
     -0.057 4.0537e-26     8.5116    100.207     36.781  35.515367     2.2765      9.921    81.2197 5.4828e+02    13.9932     -0.056     -0.081    23.2764 0.0000e+00
     -0.057 3.6851e-27     8.5213    100.075     36.783  35.516463     2.2751      9.924    81.3189 5.4865e+02    13.9810     -0.056     -0.081    23.2762 0.0000e+00
     -0.057 3.3501e-28     8.5392     99.786     36.812  35.543778     2.2613      9.925    81.4539 5.4910e+02    13.8237     -0.056     -0.081    23.2751 0.0000e+00
     -0.057 3.0456e-29     8.5542     99.320     36.862  35.591988     2.2431      9.924    81.3036 5.4917e+02    13.5950     -0.056     -0.081    23.2740 0.0000e+00
     -0.057 2.7699e-30     8.5539     98.717     36.863  35.592091     2.2464      9.924    80.9649 5.4893e+02    13.5042     -0.056     -0.081    23.2737 0.0000e+00
     -0.057 2.6498e-31     8.5434     98.066     36.815  35.545011     2.2675      9.925    80.8856 5.4865e+02    13.4770     -0.056     -0.081    23.2734 0.0000e+00
     -0.057 1.6893e-31     8.5201     97.434     36.802  35.530033     2.3074      9.927    80.9474 5.4871e+02    13.4369     -0.055     -0.080    23.2728 0.0000e+00
     -0.057 1.6086e-30     8.4794     96.873     36.812  35.537810     2.3456      9.927    80.9384 5.4913e+02    13.4639     -0.055     -0.080    23.2722 0.0000e+00
     -0.057 1.7672e-29     8.4241     96.382     36.787  35.512220     2.3639      9.928    80.9484 5.4947e+02    13.4950     -0.055     -0.079    23.2710 0.0000e+00
     -0.057 1.9439e-28     8.3679     95.914     36.750  35.474268     2.3864      9.929    81.0687 5.4957e+02    13.5060     -0.055     -0.080    23.2696 0.0000e+00
     -0.057 2.1383e-27     8.3119     95.446     36.738  35.459392     2.4091      9.929    81.2733 5.4942e+02    13.6997     -0.056     -0.081    23.2677 0.0000e+00
     -0.057 2.3522e-26     8.2644     94.952     36.742  35.459169     2.4224      9.928    81.2713 5.4933e+02    14.0259     -0.056     -0.081    23.2652 0.0000e+00
     -0.056 2.5874e-25     8.2256     94.394     36.759  35.471560     2.4229      9.927    81.0451 5.4983e+02    14.1714     -0.055     -0.080    23.2622 0.0000e+00
     -0.056 2.8461e-24     8.1859     93.762     36.774  35.482392     2.4239      9.924    80.8613 5.5035e+02    14.2287     -0.055     -0.080    23.2587 0.0000e+00
     -0.057 3.1307e-23     8.1473     93.052     36.759  35.463304     2.4502      9.923    81.0288 5.5040e+02    14.6171     -0.056     -0.081    23.2543 0.0000e+00
     -0.057 3.4438e-22     8.1080     92.298     36.730  35.430992     2.4907      9.924    81.4352 5.5045e+02    15.2805     -0.056     -0.081    23.2492 0.0000e+00
     -0.057 3.7882e-21     8.0606     91.539     36.711  35.408762     2.5064      9.925    81.5592 5.5042e+02    15.6222     -0.056     -0.081    23.2438 0.0000e+00
     -0.057 4.1670e-20     8.0083     90.772     36.690  35.384746     2.4897      9.926    81.4088 5.5036e+02    15.6057     -0.055     -0.080    23.2382 0.0000e+00
     -0.057 4.5837e-19     7.9475     90.007     36.639  35.330834     2.4808      9.926    81.2523 5.5042e+02    15.5942     -0.056     -0.081    23.2326 0.0000e+00
     -0.057 5.0421e-18     7.8815     89.261     36.575  35.264188     2.4650      9.927    81.2146 5.5033e+02    15.4482     -0.056     -0.081    23.2268 0.0000e+00
     -0.057 5.5463e-17     7.8193     88.512     36.526  35.213018     2.4240      9.928    81.3832 5.5011e+02    15.1386     -0.055     -0.080    23.2210 0.0000e+00
     -0.057 6.1009e-16     7.7536     87.747     36.471  35.155992     2.3925      9.929    81.7430 5.5025e+02    14.9600     -0.056     -0.081    23.2150 0.0000e+00
     -0.056 6.7110e-15     7.6882     87.002     36.398  35.081959     2.3750      9.929    81.9506 5.5073e+02    14.8934     -0.055     -0.080    23.2091 0.0000e+00
     -0.056 7.3821e-14     7.6263     86.286     36.333  35.015375     2.3879      9.928    81.8283 5.5096e+02    15.0859     -0.055     -0.080    23.2030 0.0000e+00
     -0.056 8.1203e-13     7.5648     85.583     36.306  34.985017     2.4312      9.928    81.6413 5.5088e+02    15.5446     -0.055     -0.080    23.1970 0.0000e+00
     -0.056 8.9323e-12     7.4975     84.905     36.292  34.968527     2.4493      9.928    81.5816 5.5083e+02    15.7601     -0.055     -0.080    23.1914 0.0000e+00
     -0.056 9.8256e-11     7.4344     84.246     36.269  34.942810     2.4322      9.928    81.7095 5.5109e+02    15.7434     -0.055     -0.080    23.1860 0.0000e+00
     -0.056 1.0808e-09     7.3758     83.600     36.258  34.927696     2.4154      9.928    81.8979 5.5142e+02    15.8211     -0.055     -0.080    23.1810 0.0000e+00
     -0.056 1.1889e-08     7.3144     82.989     36.247  34.912603     2.4211      9.928    81.9660 5.5152e+02    15.9825     -0.055     -0.079    23.1763 0.0000e+00
     -0.056 1.3078e-07     7.2580     82.415     36.226  34.887135     2.4431      9.928    81.9300 5.5158e+02    16.0556     -0.055     -0.080    23.1710 0.0000e+00
     -0.056 2.3976e-07     7.2032     81.875     36.218  34.873395     2.4488      9.926    81.8935 5.5154e+02    15.9877     -0.055     -0.079    23.1656 0.0000e+00
     -0.056 1.3078e-07     7.1473     81.362     36.223  34.873270     2.4481      9.926    81.7815 5.5160e+02    15.6738     -0.055     -0.080    23.1597 0.0000e+00
     -0.056 1.1889e-08     7.0961     80.871     36.242  34.885618     2.4681      9.926    81.6095 5.5179e+02    15.1636     -0.055     -0.080    23.1531 0.0000e+00
     -0.056 1.0808e-09     7.0482     80.399     36.259  34.895868     2.4910      9.926    81.6209 5.5185e+02    14.9090     -0.055     -0.080    23.1462 0.0000e+00
     -0.056 9.8255e-11     7.0029     79.946     36.239  34.870370     2.5081      9.926    81.7467 5.5179e+02    14.9190     -0.055     -0.079    23.1388 0.0000e+00
     -0.056 8.9325e-12     6.9606     79.521     36.204  34.830947     2.5083      9.926    81.8401 5.5169e+02    14.9084     -0.055     -0.080    23.1308 0.0000e+00
     -0.056 8.1205e-13     6.9194     79.120     36.177  34.799657     2.5102      9.927    81.8905 5.5167e+02    15.1567     -0.055     -0.080    23.1223 0.0000e+00
     -0.056 7.3822e-14     6.8807     78.710     36.126  34.745664     2.5313      9.927    81.7527 5.5179e+02    15.7012     -0.055     -0.080    23.1138 0.0000e+00
     -0.056 6.7268e-15     6.8420     78.276     36.067  34.685371     2.5471      9.926    81.3788 5.5209e+02    16.0260     -0.055     -0.079    23.1056 0.0000e+00
     -0.056 7.8391e-16     6.8067     77.841     36.025  34.641332     2.5598      9.926    81.1554 5.5205e+02    16.0771     -0.055     -0.080    23.0980 0.0000e+00
     -0.056 1.9674e-15     6.7746     77.434     35.978  34.593636     2.5435      9.928    81.2886 5.5179e+02    15.9432     -0.055     -0.079    23.0911 0.0000e+00
     -0.056 2.1036e-14     6.7411     77.048     35.938  34.552526     2.4999      9.929    81.5262 5.5214e+02    15.7049     -0.055     -0.080    23.0847 0.0000e+00
     -0.056 2.3135e-13     6.7039     76.657     35.912  34.524702     2.4904      9.930    81.7061 5.5256e+02    15.6218     -0.055     -0.080    23.0787 0.0000e+00
     -0.056 2.5448e-12     6.6655     76.242     35.900  34.510848     2.5123      9.930    81.5697 5.5249e+02    15.6214     -0.055     -0.080    23.0738 0.0000e+00
     -0.056 2.7993e-11     6.6319     75.828     35.904  34.511831     2.5227      9.930    81.2546 5.5241e+02    15.4273     -0.055     -0.079    23.0697 0.0000e+00
     -0.056 3.0792e-10     6.6000     75.448     35.932  34.536579     2.5081      9.930    81.1658 5.5297e+02    15.0843     -0.055     -0.080    23.0662 0.0000e+00
     -0.056 3.3871e-09     6.5683     75.133     36.087  34.683256     2.4946      9.929    81.1840 5.5354e+02    14.9244     -0.055     -0.079    23.0630 0.0000e+00
     -0.056 3.7258e-08     6.5319     75.153     36.626  35.207366     2.5004      9.928    81.3028 5.5324e+02    14.9289     -0.055     -0.080    23.0597 0.0000e+00
     -0.056 4.0984e-07     6.4951     76.701     37.410  35.991036     2.5026      9.928    81.3982 5.5265e+02    14.8989     -0.055     -0.080    23.0561 0.0000e+00
     -0.056      0.000     6.4639     81.615     37.870  36.485957     2.4883      9.927    81.2189 5.5243e+02    14.8699     -0.055     -0.079    23.0523 0.0000e+00
     -0.055      0.000     6.4335     89.896     37.964  36.625896     2.4771      9.925    81.0276 5.5277e+02    14.8859     -0.054     -0.078    23.0481 0.0000e+00
     -0.055      0.001     6.4091     99.300     37.975  36.668495     2.4747      9.925    81.0643 5.5319e+02    14.9217     -0.054     -0.079    23.0449 0.0000e+00
     -0.056      0.001     6.4507    108.000     37.973  36.683999     2.4931      9.925    81.1453 5.5344e+02    15.1320     -0.055     -0.079    23.0833 0.0000e+00
     -0.056      0.001     6.8497    115.259     37.964  36.686550     2.5334      9.925    81.2334 5.5388e+02    15.4810     -0.055     -0.079    23.1703 0.0000e+00
     -0.055      0.001     7.6567    120.783     37.970  36.699358     2.5454      9.925    81.4414 5.5441e+02    15.5897     -0.054     -0.079    23.2418 0.0000e+00
     -0.054      0.002     8.4997    124.428     37.979  36.712042     2.5308      9.925    81.4231 5.5466e+02    15.5242     -0.053     -0.077    23.2795 0.0000e+00
     -0.053      0.003     9.2543    126.080     37.978  36.713081     2.5228      9.924    81.1836 5.5451e+02    15.4399     -0.052     -0.076    23.3004 0.0000e+00
     -0.053      0.005     9.8812    126.029     37.974  36.711928     2.5150      9.923    81.2132 5.5444e+02    15.2871     -0.052     -0.075    23.3132 0.0000e+00
     -0.053      0.007    10.3483    124.974     37.957  36.698103     2.4954      9.918    81.4368 5.5493e+02    15.1464     -0.052     -0.076    23.3222 0.0000e+00
     -0.052      0.008    10.6706    123.610     37.927  36.672748     2.4770      9.912    81.5635 5.5583e+02    15.0705     -0.051     -0.075    23.3263 0.0000e+00
     -0.049      0.009    10.7993    122.311     37.910  36.659025     2.4757      9.907    81.7125 5.5681e+02    15.0868     -0.048     -0.070    23.3295 0.0000e+00
     -0.044      0.009    10.7713    121.164     37.907  36.659014     2.4965      9.903    81.8625 5.5744e+02    15.3096     -0.042     -0.061    23.3331 0.0000e+00
     -0.040      0.008    10.6566    120.201     37.920  36.672621     2.5370      9.901    81.7430 5.5790e+02    15.6801     -0.038     -0.055    23.3361 0.0000e+00
     -0.039      0.006    10.5296    119.475     37.945  36.696720     2.5569      9.901    81.3850 5.5852e+02    15.8436     -0.038     -0.056    23.3398 0.0000e+00
     -0.039      0.005    10.4177    118.995     37.945  36.696730     2.5461      9.902    80.9761 5.5912e+02    15.7841     -0.038     -0.056    23.3447 0.0000e+00
     -0.039      0.006    10.3189    118.704     37.920  36.672746     2.5400      9.908    80.8427 5.5976e+02    15.6431     -0.038     -0.055    23.3481 0.0000e+00
     -0.039      0.012    10.2340    118.477     37.907  36.660387     2.5494      9.916    80.9765 5.6069e+02    15.4715     -0.039     -0.056    23.3491 0.0000e+00
     -0.038      0.022    10.1719    118.167     37.920  36.674129     2.5595      9.922    80.8740 5.6179e+02    15.4176     -0.038     -0.055    23.3488 0.0000e+00
     -0.035      0.033    10.1330    117.775     37.957  36.712072     2.5542      9.927    80.5495 5.5839e+02    15.4014     -0.036     -0.052    23.3485 0.0000e+00
     -0.025      0.043    10.1114    117.435     37.982  36.738674     2.5433      9.928    79.9770 4.9876e+02    15.6167     -0.028     -0.042    23.3489 0.0000e+00
     -0.008      0.051    10.0985    117.199     37.984  36.742122     2.5443      9.928    79.0290 3.9931e+02    16.1753     -0.009     -0.013    23.3498 0.0000e+00
      0.012      0.057    10.0716    117.042     37.994  36.753766     2.5583      9.932    78.3797 3.5786e+02    16.5536      0.013      0.019    23.3517 0.0000e+00
      0.029      0.063    10.0310    116.972     37.992  36.752632     2.5708      9.937    78.3216 3.5414e+02    16.6379      0.031      0.045    23.3545 0.0000e+00
      0.043      0.068    10.0000    116.968     37.967  36.728411     2.5789      9.942    78.4988 3.4650e+02    16.5116      0.044      0.062    23.3580 0.0000e+00
      0.054      0.072     9.9827    117.005     37.952  36.714566     2.5889      9.947    78.6291 3.3751e+02    16.2231      0.052      0.073    23.3607 0.0000e+00
      0.070      0.077     9.9663    117.060     37.950  36.712059     2.6008      9.951    78.6063 3.2036e+02    16.0868      0.065      0.095    23.3624 0.0000e+00
      0.094      0.082     9.9619    117.068     37.937  36.698097     2.6232      9.954    78.5668 3.0103e+02    16.0938      0.091      0.133    23.3638 0.0000e+00
      0.121      0.087     9.9626    117.038     37.913  36.672575     2.6427      9.956    78.5827 2.8163e+02    15.8631      0.120      0.174    23.3639 0.0000e+00
      0.146      0.088     9.9647    117.028     37.899  36.657128     2.6367      9.957    78.7118 2.6383e+02    15.3809      0.145      0.210    23.3636 0.0000e+00
      0.168      0.083     9.9738    116.998     37.883  36.638158     2.6177      9.959    79.0956 2.4810e+02    15.1146      0.165      0.239    23.3631 0.0000e+00
      0.190      0.077     9.9743    116.901     37.883  36.633436     2.6124      9.960    79.5229 2.3452e+02    15.1364      0.187      0.271    23.3616 0.0000e+00
      0.209      0.072     9.9678    116.743     37.917  36.663441     2.6226      9.963    79.6622 2.2612e+02    15.1659      0.208      0.301    23.3591 0.0000e+00
      0.224      0.067     9.9705    116.522     37.940  36.683871     2.6332      9.966    79.6619 2.2004e+02    14.9942      0.221      0.319    23.3558 0.0000e+00
      0.237      0.066     9.9718    116.390     37.948  36.690212     2.6330      9.970    79.8629 2.1130e+02    14.6312      0.231      0.334    23.3516 0.0000e+00
      0.254      0.067     9.9606    116.421     37.874  36.613280     2.6196      9.972    80.3715 2.0227e+02    14.3975      0.250      0.361    23.3453 0.0000e+00
      0.270      0.068     9.9536    116.451     37.608  36.324415     2.6130      9.974    80.9944 1.9463e+02    14.3887      0.265      0.385    23.3400 0.0000e+00
      0.288      0.070     9.9270    116.415     37.167  35.797437     2.6194      9.977    81.5436 1.8526e+02    14.4569      0.279      0.405    23.3387 0.0000e+00
      0.309      0.072     9.9095    116.325     36.799  35.250985     2.6132      9.982    81.8495 1.7501e+02    14.5389      0.303      0.439    23.3385 0.0000e+00
      0.329      0.073     9.9251    116.120     36.766  34.980069     2.5972      9.988    81.8535 1.6696e+02    14.5939      0.325      0.471    23.3367 0.0000e+00
      0.347      0.072     9.9291    115.661     36.933  34.931024     2.5925      9.991    81.8499 1.6021e+02    14.5760      0.340      0.493    23.3202 0.0000e+00
      0.364      0.068     9.9474    114.923     37.061  34.911326     2.6057      9.994    82.0634 1.5301e+02    14.4591      0.356      0.516    23.2059 0.0000e+00
      0.383      0.063     9.9947    114.014     37.106  34.868530     2.6236      9.998    82.5424 1.4572e+02    14.2734      0.375      0.545    22.9154 0.0000e+00
      0.400      0.061    10.0550    113.041     37.081  34.793918     2.6181     10.000    83.0819 1.4067e+02    14.1409      0.395      0.573    22.5451 0.0000e+00
      0.412      0.062    10.0737    112.126     37.029  34.706603     2.6056     10.001    83.3374 1.3798e+02    14.1215      0.406      0.589    22.2480 0.0000e+00
      0.422      0.064    10.0376    111.369     36.991  34.637069     2.6059     10.001    83.3950 1.3406e+02    14.1753      0.410      0.595    22.0668 0.0000e+00
      0.437      0.064     9.9771    110.824     36.970  34.587218     2.6130     10.001    83.4339 1.2745e+02    14.2452      0.425      0.616    21.9673 0.0000e+00
      0.459      0.067     9.8979    110.509     36.954  34.547665     2.6248     10.001    83.5500 1.2017e+02    14.2486      0.450      0.652    21.9045 0.0000e+00
      0.481      0.072     9.8245    110.379     36.895  34.475841     2.6239     10.001    84.1106 1.1452e+02    14.1831      0.474      0.687    21.8575 0.0000e+00
      0.498      0.078     9.7648    110.349     36.778  34.352851     2.6187      9.999    84.9631 1.1072e+02    14.0671      0.490      0.711    21.8123 0.0000e+00
      0.512      0.078     9.7246    110.354     36.696  34.265306     2.6202      9.996    85.2537 1.0646e+02    13.9061      0.500      0.726    21.7682 0.0000e+00
      0.532      0.074     9.7043    110.344     36.681  34.241611     2.6176      9.996    85.0429 9.9976e+01    13.8077      0.517      0.750    21.7358 0.0000e+00
      0.559      0.069     9.7007    110.288     36.635  34.193154     2.6199      9.998    85.1675 9.3429e+01    13.7649      0.549      0.797    21.7141 0.0000e+00
      0.583      0.065     9.7022    110.166     36.565  34.123248     2.6236      9.998    85.4703 8.9963e+01    13.6956      0.577      0.838    21.6985 0.0000e+00
      0.595      0.060     9.7073    109.894     36.537  34.093845     2.6368     10.000    85.4345 8.8647e+01    13.7558      0.585      0.850    21.6818 0.0000e+00
      0.602      0.055     9.7111    109.463     36.537  34.091259     2.6716     10.001    85.3362 8.6635e+01    13.9470      0.588      0.852    21.6676 0.0000e+00
      0.613      0.051     9.7053    108.991     36.540  34.091975     2.6948     10.001    85.4864 8.3865e+01    14.0258      0.600      0.872    21.6618 0.0000e+00
      0.626      0.054     9.7007    108.528     36.486  34.039104     2.6930     10.002    85.8741 8.1572e+01    13.9898      0.615      0.892    21.6557 0.0000e+00
      0.638      0.062     9.6796    108.096     36.338  33.895830     2.6822     10.003    86.2384 7.8993e+01    13.9908      0.624      0.905    21.6489 0.0000e+00
      0.653      0.071     9.6344    107.736     36.197  33.754560     2.6730     10.003    86.3637 7.5542e+01    14.1072      0.640      0.928    21.6482 0.0000e+00
      0.673      0.076     9.5935    107.422     36.112  33.662520     2.6735     10.002    86.4421 7.1627e+01    14.2353      0.659      0.956    21.6456 0.0000e+00
      0.698      0.077     9.5540    107.148     36.064  33.607220     2.6795     10.000    86.6698 6.7401e+01    14.2410      0.683      0.990    21.6412 0.0000e+00
      0.723      0.076     9.5126    106.926     36.058  33.593157     2.7037      9.998    87.0528 6.3873e+01    14.1769      0.710      1.031    21.6372 0.0000e+00
      0.744      0.075     9.4871    106.677     36.025  33.555873     2.7504      9.996    87.5448 6.1421e+01    14.1433      0.731      1.061    21.6218 0.0000e+00
      0.759      0.073     9.4631    106.337     35.942  33.473437     2.7863      9.994    87.8864 5.9658e+01    14.1759      0.746      1.083    21.6025 0.0000e+00
      0.771      0.070     9.4388    105.940     35.892  33.420669     2.8050      9.989    87.9130 5.7954e+01    14.2632      0.755      1.096    21.5881 0.0000e+00
      0.787      0.070     9.4258    105.561     35.836  33.361681     2.8434      9.986    87.8668 5.5165e+01    14.4819      0.767      1.113    21.5765 0.0000e+00
      0.809      0.076     9.4083    105.209     35.673  33.204028     2.9086      9.982    88.0162 5.2203e+01    14.8045      0.794      1.152    21.5676 0.0000e+00
      0.829      0.086     9.3777    104.808     35.502  33.036166     2.9442      9.974    88.6006 5.0452e+01    14.9871      0.818      1.185    21.5602 0.0000e+00
      0.845      0.093     9.3412    104.316     35.457  32.980540     2.9493      9.964    89.2538 4.8440e+01    15.0505      0.825      1.198    21.5515 0.0000e+00
      0.868      0.093     9.3088    103.806     35.466  32.975253     2.9618      9.957    89.5471 4.4858e+01    14.9901      0.846      1.227    21.5418 0.0000e+00
      0.903      0.088     9.2827    103.350     35.407  32.908823     2.9699      9.952    89.7385 4.1183e+01    14.7010      0.888      1.287    21.5349 0.0000e+00
      0.936      0.082     9.2514    102.941     35.312  32.811343     2.9562      9.947    89.7611 3.9119e+01    14.4590      0.924      1.342    21.5244 0.0000e+00
      0.955      0.074     9.2083    102.566     35.187  32.684246     2.9467      9.943    89.6485 3.8229e+01    14.4210      0.939      1.363    21.5025 0.0000e+00
      0.964      0.065     9.1638    102.219     34.953  32.449914     2.9544      9.940    89.8396 3.7378e+01    14.4121      0.945      1.371    21.4803 0.0000e+00
      0.974      0.058     9.1281    101.875     34.709  32.197055     2.9321      9.938    90.2655 3.6537e+01    14.2148      0.955      1.386    21.4670 0.0000e+00
      0.984      0.056     9.0935    101.515     34.573  32.036126     2.8770      9.936    90.5810 3.5576e+01    13.8794      0.965      1.399    21.4554 0.0000e+00
      0.998      0.059     9.0632    101.123     34.531  31.962291     2.8379      9.933    90.7296 3.4161e+01    13.6709      0.977      1.417    21.4404 0.0000e+00
      1.018      0.063     9.0374    100.681     34.533  31.938259     2.8421      9.931    90.7713 3.2606e+01    13.6409      0.998      1.447    21.4191 0.0000e+00
      1.038      0.064     9.0138    100.141     34.477  31.872322     2.8950      9.928    90.8274 3.1228e+01    13.6536      1.019      1.477    21.3815 0.0000e+00
      1.056      0.064     8.9925     99.486     34.335  31.735618     2.9529      9.925    91.0631 3.0080e+01    13.6201      1.037      1.504    21.3275 0.0000e+00
      1.072      0.059     8.9669     98.780     34.215  31.616751     2.9678      9.922    91.2981 2.9090e+01    13.5431      1.052      1.525    21.2713 0.0000e+00
      1.086      0.052     8.9374     98.129     34.187  31.576267     2.9587      9.918    91.3459 2.8149e+01    13.4393      1.065      1.544    21.2302 0.0000e+00
      1.099      0.047     8.8936     97.592     34.187  31.563097     2.9590      9.917    91.3833 2.7374e+01    13.4239      1.078      1.564    21.2138 0.0000e+00
      1.109      0.046     8.8331     97.116     34.154  31.520891     2.9718      9.916    91.5783 2.6847e+01    13.5283      1.090      1.579    21.2121 0.0000e+00
      1.117      0.050     8.7683     96.657     34.089  31.446329     2.9722      9.913    91.9818 2.6389e+01    13.5741      1.096      1.588    21.2027 0.0000e+00
      1.125      0.059     8.7119     96.255     34.014  31.358928     2.9559      9.905    92.7355 2.5793e+01    13.5338      1.102      1.598    21.1762 0.0000e+00
      1.138      0.069     8.6711     95.937     33.959  31.288273     2.9907      9.895    93.6358 2.4740e+01    13.8608      1.113      1.613    21.1550 0.0000e+00
      1.159      0.079     8.6335     95.699     33.913  31.225989     3.0849      9.882    94.1777 2.3193e+01    14.5894      1.134      1.643    21.1427 0.0000e+00
      1.187      0.086     8.5925     95.518     33.879  31.176407     3.1383      9.871    94.3829 2.1633e+01    15.0331      1.165      1.689    21.1223 0.0000e+00
      1.214      0.088     8.5617     95.360     33.849  31.132532     3.1363      9.861    94.3103 2.0343e+01    15.0918      1.193      1.730    21.0935 0.0000e+00
      1.239      0.084     8.5386     95.226     33.803  31.075856     3.1277      9.852    94.0736 1.9279e+01    14.9919      1.216      1.764    21.0617 0.0000e+00
      1.261      0.078     8.5227     95.101     33.733  30.998288     3.1088      9.842    94.1889 1.8470e+01    14.6462      1.238      1.796    21.0326 0.0000e+00
      1.277      0.073     8.5132     94.945     33.632  30.892003     3.0903      9.832    94.6709 1.7908e+01    14.2252      1.255      1.819    21.0063 0.0000e+00
      1.289      0.071     8.5021     94.700     33.553  30.805088     3.0876      9.822    95.5134 1.7433e+01    14.0342      1.265      1.835    20.9814 0.0000e+00
      1.302      0.071     8.4945     94.324     33.535  30.771534     3.0762      9.813    96.7188 1.6759e+01    13.9766      1.273      1.848    20.9594 0.0000e+00
      1.321      0.073     8.4878     93.858     33.517  30.739868     3.0607      9.804    97.4580 1.5821e+01    14.2120      1.292      1.875    20.9407 0.0000e+00
      1.346      0.078     8.4785     93.372     33.458  30.675775     3.0671      9.794    97.5677 1.4909e+01    14.7961      1.321      1.917    20.9232 0.0000e+00
      1.369      0.081     8.4628     92.922     33.418  30.630527     3.0870      9.784    97.7007 1.4186e+01    15.1646      1.344      1.949    20.9013 0.0000e+00
      1.389      0.081     8.4314     92.563     33.439  30.636535     3.1015      9.775    98.2052 1.3527e+01    15.2169      1.361      1.974    20.8750 0.0000e+00
      1.409      0.080     8.3913     92.266     33.510  30.685007     3.0759      9.767    99.0217 1.2873e+01    15.0181      1.382      2.005    20.8488 0.0000e+00
      1.429      0.079     8.3494     91.931     33.623  30.772803     3.0194      9.758    99.7434 1.2315e+01    14.6066      1.402      2.034    20.8343 0.0000e+00
      1.447      0.081     8.3070     91.523     33.755  30.873916     3.0005      9.747   100.3062 1.1845e+01    14.3745      1.420      2.060    20.8282 0.0000e+00
      1.465      0.086     8.2791     91.044     33.880  30.956592     3.0138      9.736   100.8363 1.1318e+01    14.3984      1.435      2.081    20.8066 0.0000e+00
      1.487      0.090     8.2625     90.434     33.984  31.011637     2.9723      9.722   101.2488 1.0671e+01    14.2455      1.455      2.111    20.7781 0.0000e+00
      1.513      0.093     8.2362     89.650     34.049  31.032231     2.8650      9.706   101.5947 1.0004e+01    13.7895      1.483      2.152    20.7586 0.0000e+00
      1.541      0.094     8.2015     88.755     34.066  31.015351     2.7895      9.691   102.0924 9.4096e+00    13.4635      1.511      2.193    20.7360 0.0000e+00
      1.567      0.093     8.1696     87.801     34.076  30.997689     2.7755      9.676   102.7927 8.8936e+00    13.4125      1.537      2.229    20.6856 0.0000e+00
      1.591      0.088     8.1286     86.811     34.108  31.008835     2.7867      9.660   103.7817 8.4374e+00    13.2741      1.560      2.263    20.6192 0.0000e+00
      1.612      0.079     8.0629     85.855     34.137  31.023303     2.7924      9.645   105.0151 8.0559e+00    12.9178      1.582      2.295    20.5634 0.0000e+00
      1.632      0.069     7.9882     84.965     34.170  31.045803     2.7774      9.631   105.8322 7.7535e+00    12.6918      1.601      2.322    20.5135 0.0000e+00
      1.648      0.059     7.9100     84.174     34.225  31.090690     2.7716      9.621   106.0898 7.4968e+00    12.6938      1.617      2.345    20.4748 0.0000e+00
      1.663      0.052     7.8202     83.604     34.270  31.122244     2.7723      9.609   106.2363 7.2904e+00    12.7026      1.632      2.366    20.4487 0.0000e+00
      1.673      0.049     7.7363     83.319     34.410  31.237116     2.7612      9.593   106.4001 7.1527e+00    12.6266      1.642      2.381    20.4327 0.0000e+00
      1.679      0.051     7.6586     83.268     34.961  31.718813     2.7454      9.577   106.6939 7.0404e+00    12.5268      1.646      2.388    20.4235 0.0000e+00
      1.687      0.055     7.5812     83.334     35.892  32.508468     2.7231      9.562   106.9493 6.8480e+00    12.5208      1.652      2.395    20.4184 0.0000e+00
      1.702      0.061     7.5296     83.359     36.757  33.176720     2.7085      9.548   106.8204 6.5250e+00    12.5534      1.666      2.416    20.4073 0.0000e+00
      1.724      0.068     7.5098     83.132     37.373  33.585083     2.6936      9.534   106.5976 6.1786e+00    12.6821      1.690      2.452    20.3827 0.0000e+00
      1.746      0.073     7.5102     82.397     37.804  33.831747     2.6595      9.518   106.9232 5.9029e+00    12.9494      1.714      2.486    20.3764 0.0000e+00
      1.766      0.075     7.5283     80.813     38.132  34.003166     2.6289      9.502   108.0037 5.6713e+00    13.0870      1.732      2.512    20.3208 0.0000e+00
      1.784      0.074     7.5649     78.098     38.402  34.135796     2.6145      9.485   109.3380 5.4460e+00    13.0822      1.750      2.538    20.1428 0.0000e+00
      1.803      0.072     7.5846     74.379     38.551  34.167107     2.6180      9.469   110.4933 5.2359e+00    12.9939      1.769      2.566    19.9225 0.0000e+00
      1.820      0.072     7.5564     70.022     38.605  34.127990     2.6304      9.450   111.3039 5.0384e+00    12.8053      1.784      2.588    19.7306 0.0000e+00
      1.837      0.074     7.4512     65.427     38.663  34.106568     2.6314      9.430   111.4813 4.8216e+00    12.6455      1.799      2.609    19.5748 0.0000e+00
      1.855      0.077     7.2126     61.017     38.751  34.098222     2.6222      9.408   111.6059 4.6092e+00    12.5658      1.819      2.639    19.4407 0.0000e+00
      1.874      0.079     6.8764     57.011     38.869  34.090368     2.6190      9.387   112.2944 4.4012e+00    12.6272      1.837      2.663    19.3009 0.0000e+00
      1.896      0.080     6.4800     53.506     38.981  34.074867     2.6255      9.367   113.2671 4.1688e+00    12.7729      1.857      2.693    19.1849 0.0000e+00
      1.921      0.082     6.0454     50.597     39.052  34.037462     2.6179      9.348   114.2464 3.9568e+00    12.7904      1.885      2.734    19.1130 0.0000e+00
      1.943      0.082     5.6440     48.112     39.134  34.018417     2.6103      9.329   115.1008 3.8079e+00    12.6678      1.908      2.767    19.0086 0.0000e+00
      1.960      0.080     5.2903     45.838     39.259  34.034692     2.6168      9.309   116.0263 3.6729e+00    12.3145      1.921      2.786    18.8488 0.0000e+00
      1.978      0.077     4.9698     43.805     39.374  34.043908     2.6127      9.291   117.2628 3.4953e+00    11.8323      1.938      2.811    18.6929 0.0000e+00
      2.000      0.076     4.7190     41.996     39.484  34.066333     2.6189      9.275   118.4352 3.3198e+00    11.6538      1.962      2.845    18.5712 0.0000e+00
      2.021      0.078     4.5099     40.341     39.611  34.115507     2.6253      9.257   119.2748 3.1983e+00    11.5920      1.985      2.877    18.4616 0.0000e+00
      2.038      0.080     4.2976     38.810     39.714  34.131137     2.6158      9.240   120.3592 3.0906e+00    11.0504      1.999      2.899    18.3425 0.0000e+00
      2.056      0.081     4.1207     37.334     39.817  34.128420     2.6535      9.222   121.9097 2.9312e+00     9.9899      2.012      2.919    18.2185 0.0000e+00
      2.079      0.079     3.9615     35.877     39.945  34.145935     2.7391      9.205   123.8259 2.7587e+00     9.1202      2.039      2.958    18.1237 0.0000e+00
      2.104      0.075     3.8076     34.414     40.050  34.152572     2.7938      9.190   125.4601 2.6391e+00     8.8360      2.066      2.996    18.0692 0.0000e+00
      2.124      0.075     3.6744     32.850     40.123  34.145153     2.7906      9.176   125.6651 2.5372e+00     8.7057      2.083      3.021    17.9782 0.0000e+00
      2.141      0.080     3.5445     31.126     40.168  34.119563     2.7167      9.161   125.4440 2.4378e+00     8.0229      2.103      3.049    17.8493 0.0000e+00
      2.154      0.086     3.4136     29.266     40.229  34.096712     2.6084      9.144   126.1423 2.3660e+00     6.9684      2.114      3.065    17.7329 0.0000e+00
      2.168      0.094     3.2866     27.339     40.368  34.122397     2.5630      9.126   127.3969 2.2599e+00     6.4767      2.119      3.074    17.6256 0.0000e+00
      2.195      0.102     3.1454     25.479     40.478  34.112957     2.5589      9.109   128.6540 2.0899e+00     6.4158      2.148      3.116    17.5420 0.0000e+00
      2.234      0.106     2.9827     23.818     40.522  34.045862     2.4342      9.092   129.5542 1.9222e+00     6.1301      2.193      3.180    17.4735 0.0000e+00
      2.270      0.105     2.8089     22.348     40.594  34.008501     2.2041      9.077   130.1079 1.7945e+00     5.6861      2.229      3.233    17.3844 0.0000e+00
      2.298      0.100     2.6255     21.007     40.652  33.978128     2.0905      9.065   130.3581 1.7076e+00     5.4891      2.255      3.270    17.2638 0.0000e+00
      2.322      0.092     2.4467     19.752     40.666  33.932154     2.0847      9.053   130.4284 1.6538e+00     5.4560      2.279      3.307    17.1322 0.0000e+00
      2.337      0.086     2.2949     18.552     40.678  33.896406     1.9923      9.038   130.7002 1.6232e+00     4.9431      2.294      3.328    17.0052 0.0000e+00
      2.349      0.084     2.1616     17.478     40.699  33.862884     1.8135      9.024   131.1489 1.5802e+00     4.0023      2.300      3.335    16.8739 0.0000e+00
      2.369      0.085     2.0357     16.607     40.762  33.843804     1.7200      9.012   131.5513 1.5081e+00     3.5427      2.319      3.364    16.7761 0.0000e+00
      2.398      0.088     1.9206     15.936     40.887  33.855853     1.7284      9.000   131.7802 1.4418e+00     3.5878      2.354      3.413    16.7105 0.0000e+00
      2.425      0.092     1.8011     15.449     41.057  33.881643     1.7400      8.989   131.9369 1.3985e+00     3.5242      2.381      3.452    16.6624 0.0000e+00
      2.448      0.092     1.6944     15.083     41.230  33.901861     1.7362      8.979   132.1563 1.3688e+00     3.3196      2.400      3.480    16.6111 0.0000e+00
      2.472      0.089     1.6155     14.775     41.347  33.909932     1.7313      8.968   132.4533 1.3354e+00     3.2321      2.424      3.516    16.5148 0.0000e+00
      2.494      0.082     1.5515     14.474     41.401  33.915711     1.7313      8.955   132.9475 1.3001e+00     3.3198      2.447      3.550    16.4118 0.0000e+00
      2.513      0.073     1.5124     14.084     41.404  33.908277     1.7108      8.943   133.3131 1.2729e+00     3.4580      2.463      3.573    16.2658 0.0000e+00
      2.533      0.068     1.4843     13.564     41.374  33.883445     1.6579      8.933   133.2598 1.2509e+00     3.5369      2.484      3.603    16.0894 0.0000e+00
      2.551      0.066     1.4572     12.978     41.345  33.869090     1.6166      8.923   133.2493 1.2385e+00     3.5210      2.506      3.635    15.9772 0.0000e+00
      2.561      0.068     1.4342     12.412     41.330  33.861538     1.6107      8.912   133.3592 1.2312e+00     3.5055      2.513      3.645    15.9424 0.0000e+00
      2.571      0.070     1.3972     11.949     41.361  33.855548     1.6114      8.899   133.3842 1.2139e+00     3.4863      2.516      3.650    15.9466 0.0000e+00
      2.590      0.070     1.3426     11.654     41.441  33.860038     1.5841      8.886   133.5511 1.1887e+00     3.2889      2.536      3.680    15.9364 0.0000e+00
      2.616      0.069     1.2814     11.525     41.501  33.852342     1.5302      8.875   133.8288 1.1607e+00     2.9292      2.564      3.720    15.9519 0.0000e+00
      2.642      0.067     1.2219     11.487     41.517  33.825842     1.4920      8.865   134.1599 1.1437e+00     2.6902      2.594      3.763    15.9846 0.0000e+00
      2.661      0.064     1.1743     11.410     41.515  33.793200     1.4967      8.855   134.3705 1.1416e+00     2.6871      2.614      3.793    15.9388 0.0000e+00
      2.670      0.062     1.1478     11.181     41.530  33.774670     1.5212      8.843   134.2254 1.1286e+00     2.6862      2.618      3.796    15.8431 0.0000e+00
      2.675      0.062     1.1393     10.807     41.595  33.791967     1.5217      8.830   134.0404 1.1063e+00     2.5771      2.623      3.802    15.7729 0.0000e+00
      2.686      0.063     1.1413     10.371     41.666  33.812073     1.5023      8.819   133.8535 1.0841e+00     2.4952      2.632      3.817    15.7312 0.0000e+00
      2.707      0.067     1.1402      9.907     41.722  33.827513     1.4869      8.808   133.7729 1.0594e+00     2.4479      2.650      3.844    15.6964 0.0000e+00
      2.734      0.073     1.1174      9.417     41.789  33.851798     1.4686      8.796   134.0981 1.0414e+00     2.3811      2.685      3.894    15.6619 0.0000e+00
      2.756      0.076     1.0764      8.932     41.846  33.852048     1.4466      8.783   134.4295 1.0297e+00     2.2678      2.709      3.929    15.6200 0.0000e+00
      2.769      0.075     1.0335      8.487     41.893  33.830477     1.4377      8.772   134.5104 1.0134e+00     2.1718      2.713      3.934    15.5665 0.0000e+00
      2.787      0.070     0.9891      8.093     41.976  33.844537     1.4359      8.764   134.5603 9.9319e-01     2.1422      2.731      3.960    15.5327 0.0000e+00
      2.810      0.066     0.9390      7.745     42.091  33.895164     1.4332      8.757   134.6888 9.7669e-01     2.1483      2.761      4.003    15.5104 0.0000e+00
      2.827      0.065     0.8900      7.393     42.191  33.935306     1.4387      8.748   134.8593 9.7036e-01     2.2120      2.775      4.024    15.4526 0.0000e+00
      2.837      0.063     0.8477      7.012     42.255  33.949406     1.4353      8.739   134.9015 9.6789e-01     2.2291      2.780      4.032    15.3689 0.0000e+00
      2.852      0.060     0.8080      6.632     42.273  33.938781     1.4173      8.732   134.7686 9.5038e-01     2.1503      2.792      4.050    15.3032 0.0000e+00
      2.872      0.061     0.7772      6.274     42.284  33.933635     1.3707      8.724   134.8881 9.3483e-01     2.1138      2.818      4.087    15.2616 0.0000e+00
      2.887      0.066     0.7441      5.960     42.326  33.950571     1.3045      8.714   135.3992 9.3526e-01     2.1630      2.837      4.114    15.2132 0.0000e+00
      2.897      0.072     0.7039      5.718     42.361  33.953319     1.2821      8.706   135.6998 9.2387e-01     2.2334      2.839      4.117    15.1604 0.0000e+00
      2.913      0.077     0.6663      5.543     42.348  33.903418     1.2832      8.699   135.5974 9.0565e-01     2.2466      2.850      4.134    15.1343 0.0000e+00
      2.939      0.081     0.6294      5.407     42.272  33.791026     1.2678      8.691   135.5374 8.9023e-01     2.1870      2.883      4.181    15.1248 0.0000e+00
      2.967      0.085     0.5969      5.305     42.192  33.672231     1.2630      8.682   135.8344 8.6684e-01     2.1952      2.913      4.225    15.1048 0.0000e+00
      2.989      0.088     0.5727      5.229     42.176  33.608322     1.2750      8.674   136.5214 8.5125e-01     2.2779      2.931      4.251    15.0798 0.0000e+00
      3.009      0.088     0.5578      5.159     42.125  33.525495     1.2802      8.665   137.3915 8.4124e-01     2.2989      2.950      4.278    15.0328 0.0000e+00
      3.030      0.087     0.5441      5.066     41.974  33.368188     1.2677      8.657   137.9229 8.2440e-01     2.2774      2.971      4.310    14.9642 0.0000e+00
      3.051      0.086     0.5351      4.912     41.862  33.228017     1.1819      8.648   137.7831 8.1739e-01     2.2571      2.991      4.340    14.9003 0.0000e+00
      3.074      0.085     0.5291      4.701     41.887  33.162134     1.0417      8.638   137.2501 8.1360e-01     2.2247      3.014      4.372    14.8337 0.0000e+00
      3.097      0.082     0.5227      4.447     42.009  33.142149     0.9790      8.630   137.0721 7.9427e-01     2.1936      3.037      4.405    14.7842 0.0000e+00
      3.120      0.078     0.5167      4.167     42.120  33.113042     0.9819      8.623   137.3503 7.7930e-01     2.2223      3.059      4.436    14.7515 0.0000e+00
      3.141      0.075     0.5002      3.877     42.185  33.063684     0.9602      8.616   137.4310 7.8282e-01     2.2638      3.083      4.472    14.7010 0.0000e+00
      3.156      0.071     0.4796      3.552     42.292  33.052489     0.9250      8.608   137.1877 7.8693e-01     2.2515      3.098      4.494    14.5989 0.0000e+00
      3.170      0.066     0.4552      3.187     42.475  33.104377     0.9220      8.601   136.7317 7.6248e-01     2.2450      3.105      4.504    14.4413 0.0000e+00
      3.189      0.061     0.4257      2.811     42.674  33.183720     0.9320      8.593   136.2184 7.1494e-01     2.2184      3.125      4.532    14.2944 0.0000e+00
      3.209      0.058     0.4000      2.449     42.841  33.250881     0.9389      8.585   135.8860 7.0009e-01     2.1351      3.152      4.571    14.1844 0.0000e+00
      3.221      0.056     0.3670      2.097     42.967  33.282297     0.9544      8.578   135.7242 7.2006e-01     2.0916      3.162      4.586    14.0756 0.0000e+00
      3.230      0.054     0.3293      1.773     43.092  33.309869     0.9695      8.571   135.6385 7.1466e-01     2.1373      3.165      4.591    13.9573 0.0000e+00
      3.243      0.053     0.2894      1.500     43.287  33.393955     0.9810      8.565   135.4520 6.9467e-01     2.2095      3.182      4.614    13.8694 0.0000e+00
      3.258      0.055     0.2537      1.272     43.562  33.538040     0.9935      8.559   135.1901 7.0045e-01     2.2129      3.197      4.638    13.8091 0.0000e+00
      3.271      0.058     0.2168      1.113     43.892  33.720393     1.0120      8.552   135.0530 6.9874e-01     2.1440      3.207      4.652    13.7282 0.0000e+00
      3.284      0.060     0.1811      1.006     44.192  33.886728     1.0212      8.545   134.9132 6.7621e-01     2.1278      3.219      4.668    13.6424 0.0000e+00
      3.303      0.061     0.1560      0.931     44.528  34.090759     1.0223      8.539   134.8772 6.5839e-01     2.1881      3.238      4.696    13.5725 0.0000e+00
      3.323      0.062     0.1285      0.902     45.097  34.475252     1.0250      8.531   135.1339 6.4928e-01     2.2236      3.262      4.731    13.4935 0.0000e+00
      3.338      0.063     0.1145      0.899     45.677  34.857853     1.0033      8.522   135.2632 6.4837e-01     2.1820      3.276      4.751    13.4058 0.0000e+00
      3.350      0.061     0.1051      0.909     46.000  35.038968     0.9685      8.517   135.2358 6.4272e-01     2.1284      3.282      4.759    13.3333 0.0000e+00
      3.366      0.059     0.0945      0.915     46.289  35.206599     0.9622      8.512   135.3191 6.2627e-01     2.1568      3.299      4.785    13.2738 0.0000e+00
      3.385      0.059     0.0945      0.914     46.636  35.426146     0.9763      8.507   135.1518 6.1529e-01     2.2516      3.323      4.821    13.2273 0.0000e+00
      3.399      0.059     0.0936      0.923     46.860  35.537459     0.9809      8.499   134.8474 6.1589e-01     2.3177      3.334      4.836    13.1588 0.0000e+00
      3.409      0.059     0.0957      0.938     47.034  35.601242     0.9686      8.491   134.8229 6.1955e-01     2.2728      3.339      4.844    13.0724 0.0000e+00
      3.424      0.059     0.0974      0.961     47.470  35.880197     0.9603      8.484   134.9409 6.1385e-01     2.1870      3.356      4.868    13.0212 0.0000e+00
      3.444      0.060     0.0950      0.985     48.099  36.310270     0.9725      8.475   135.2413 5.9811e-01     2.2033      3.380      4.903    12.9873 0.0000e+00
      3.459      0.060     0.0977      0.999     48.509  36.552449     0.9660      8.467   135.5308 5.9025e-01     2.2305      3.393      4.922    12.9243 0.0000e+00
      3.471      0.060     0.0988      1.002     48.832  36.715614     0.9397      8.458   135.1713 5.9058e-01     2.1743      3.401      4.932    12.8306 0.0000e+00
      3.488      0.061     0.1015      0.996     49.406  37.078083     0.9377      8.449   134.3367 5.8677e-01     2.1389      3.420      4.960    12.7833 0.0000e+00
      3.505      0.062     0.1053      0.995     50.063  37.510453     0.9339      8.440   133.6134 5.8081e-01     2.1438      3.441      4.990    12.7588 0.0000e+00
      3.517      0.065     0.1059      0.995     50.559  37.821151     0.9349      8.429   132.9639 5.6559e-01     2.2340      3.449      5.001    12.6773 0.0000e+00
      3.532      0.069     0.1075      0.990     51.024  38.107638     0.9669      8.418   132.1628 5.4781e-01     2.4092      3.458      5.016    12.5834 0.0000e+00
      3.553      0.074     0.1054      0.983     51.626  38.500898     0.9870      8.407   130.9833 5.4373e-01     2.4857      3.484      5.053    12.5176 0.0000e+00
      3.574      0.080     0.1060      0.964     52.234  38.897523     1.0039      8.393   129.6283 5.4478e-01     2.4424      3.507      5.086    12.4631 0.0000e+00
      3.593      0.085     0.1069      0.933     52.670  39.161236     1.2876      8.378   128.5142 5.3655e-01     2.4324      3.521      5.106    12.3995 0.0000e+00
      3.614      0.088     0.1055      0.909     52.996  39.342714     1.8284      8.364   126.9768 5.1941e-01     2.5012      3.541      5.136    12.3372 0.0000e+00
      3.640      0.086     0.1058      0.898     53.292  39.506091     2.1245      8.351   123.3442 5.0484e-01     2.5230      3.569      5.176    12.2868 0.0000e+00
      3.667      0.082     0.1041      0.875     53.505  39.614356     2.1538      8.337   116.7702 4.9285e-01     2.4566      3.597      5.218    12.2332 0.0000e+00
      3.690      0.076     0.0997      0.857     53.675  39.700319     2.1830      8.323   108.9244 4.7966e-01     2.4155      3.620      5.251    12.1727 0.0000e+00
      3.707      0.066     0.0964      0.862     53.831  39.784310     2.4612      8.310   101.7859 4.7089e-01     2.3679      3.638      5.276    12.1138 0.0000e+00
      3.721      0.056     0.0980      0.860     53.986  39.868746     2.9789      8.299    94.8166 4.6682e-01     2.2908      3.651      5.295    12.0609 0.0000e+00
      3.731      0.049     0.0942      0.848     54.232  40.023506     3.2498      8.289    87.8117 4.6198e-01     2.2343      3.658      5.306    12.0126 0.0000e+00
      3.741      0.046     0.0904      0.856     54.587  40.260091     3.2470      8.278    82.4799 4.6219e-01     2.1635      3.670      5.323    11.9763 0.0000e+00
      3.750      0.046     0.0940      0.874     54.962  40.509301     3.0785      8.267    79.0487 4.7138e-01     2.0840      3.679      5.335    11.9505 0.0000e+00
      3.759      0.048     0.0940      0.875     55.248  40.689835     2.7603      8.254    75.9231 4.7485e-01     2.0235      3.684      5.342    11.9216 0.0000e+00
      3.773      0.053     0.0897      0.865     55.518  40.857186     2.5873      8.243    72.1351 4.5498e-01     2.0132      3.698      5.363    11.8955 0.0000e+00
      3.790      0.060     0.0921      0.853     55.853  41.073823     2.5688      8.233    67.9231 4.2922e-01     1.9941      3.718      5.393    11.8750 0.0000e+00
      3.805      0.067     0.0958      0.845     56.174  41.279403     2.5692      8.223    64.0576 4.2952e-01     1.9978      3.733      5.415    11.8509 0.0000e+00
      3.820      0.071     0.0947      0.835     56.437  41.439889     2.5845      8.211    61.0173 4.3913e-01     2.0921      3.745      5.431    11.8216 0.0000e+00
      3.840      0.072     0.0939      0.820     56.638  41.555312     2.5951      8.198    58.2660 4.3256e-01     2.1772      3.764      5.459    11.7930 0.0000e+00
      3.864      0.071     0.0921      0.805     56.820  41.660038     2.5891      8.186    55.2267 4.1208e-01     2.2077      3.790      5.496    11.7670 0.0000e+00
      3.885      0.067     0.0916      0.791     56.982  41.754615     2.3545      8.175    52.1453 3.9083e-01     2.0503      3.813      5.529    11.7403 0.0000e+00
      3.900      0.062     0.0913      0.791     57.088  41.810756     1.8965      8.163    49.2305 3.8460e-01     1.7773      3.825      5.548    11.7110 0.0000e+00
      3.913      0.055     0.0886      0.800     57.230  41.894791     1.6389      8.153    46.5707 3.8235e-01     1.6735      3.836      5.565    11.6808 0.0000e+00
      3.927      0.047     0.0879      0.798     57.411  42.009470     1.6035      8.143    44.0765 3.8296e-01     1.6839      3.853      5.589    11.6555 0.0000e+00
      3.938      0.041     0.0853      0.781     57.497  42.055523     1.4848      8.133    41.1850 3.8619e-01     1.6294      3.862      5.603    11.6352 0.0000e+00
      3.947      0.039     0.0851      0.766     57.540  42.071005     1.2521      8.123    37.3369 3.7728e-01     1.4929      3.869      5.612    11.6160 0.0000e+00
      3.955      0.041     0.0880      0.767     57.732  42.196637     1.1031      8.114    33.0827 3.7135e-01     1.4335      3.879      5.626    11.5986 0.0000e+00
      3.963      0.046     0.0872      0.769     57.992  42.369281     1.0735      8.103    29.6701 3.7294e-01     1.4581      3.888      5.639    11.5833 0.0000e+00
      3.971      0.050     0.0855      0.769     58.126  42.445700     1.0522      8.091    26.7057 3.6924e-01     1.4837      3.892      5.645    11.5688 0.0000e+00
      3.986      0.055     0.0818      0.775     58.210  42.486251     1.0129      8.081    23.3097 3.6463e-01     1.5035      3.904      5.662    11.5549 0.0000e+00
      4.007      0.060     0.0843      0.781     58.307  42.542386     0.9813      8.071    20.0146 3.6488e-01     1.4585      3.932      5.702    11.5432 0.0000e+00
      4.026      0.062     0.0838      0.784     58.334  42.553497     0.9693      8.060    17.1505 3.6515e-01     1.4515      3.953      5.732    11.5298 0.0000e+00
      4.039      0.061     0.0831      0.782     58.255  42.493710     0.9673      8.049    13.9757 3.6361e-01     1.4874      3.958      5.740    11.5088 0.0000e+00
      4.054      0.058     0.0849      0.776     58.104  42.390414     0.9905      8.039    10.6235 3.6703e-01     1.4828      3.973      5.763    11.4888 0.0000e+00
      4.071      0.056     0.0848      0.762     58.069  42.382945     1.0337      8.029     8.1956 3.6915e-01     1.4975      3.998      5.797    11.4774 0.0000e+00
      4.081      0.056     0.0861      0.746     58.163  42.466845     1.0488      8.018     6.4741 3.5619e-01     1.4948      4.004      5.807    11.4697 0.0000e+00
      4.091      0.055     0.0851      0.738     58.143  42.453346     1.0314      8.007     4.4364 3.3824e-01     1.4849      4.007      5.811    11.4675 0.0000e+00
      4.108      0.054     0.0854      0.739     58.170  42.473470     1.0061      7.998     1.7977 3.2683e-01     1.5144      4.027      5.842    11.4696 0.0000e+00
      4.128      0.055     0.0831      0.736     58.398  42.646723     0.9845      7.990    -0.7367 3.2930e-01     1.5091      4.053      5.878    11.4911 0.0000e+00
      4.140      0.058     0.0810      0.732     58.573  42.771982     0.9780      7.980    -2.5460 3.3681e-01     1.4552      4.063      5.892    11.5132 0.0000e+00
      4.149      0.059     0.0798      0.737     58.618  42.782705     0.9778      7.971    -3.9036 3.1938e-01     1.4092      4.064      5.895    11.5035 0.0000e+00
      4.164      0.058     0.0812      0.745     58.653  42.776348     0.9819      7.962    -5.1923 3.0114e-01     1.4312      4.082      5.920    11.5003 0.0000e+00
      4.184      0.058     0.0800      0.745     58.745  42.821953     0.9866      7.954    -6.7708 3.1162e-01     1.5165      4.106      5.954    11.5156 0.0000e+00
      4.200      0.059     0.0793      0.736     58.850  42.890039     0.9841      7.945    -8.5334 3.1695e-01     1.5524      4.120      5.974    11.5160 0.0000e+00
      4.212      0.059     0.0803      0.727     58.876  42.901766     0.9852      7.938    -9.9842 3.0804e-01     1.4899      4.129      5.989    11.4933 0.0000e+00
      4.227      0.056     0.0815      0.722     58.887  42.900306     0.9664      7.931   -11.3199 3.1039e-01     1.4090      4.144      6.011    11.4601 0.0000e+00
      4.243      0.056     0.0823      0.737     58.949  42.935813     0.9319      7.926   -12.8095 3.1409e-01     1.4293      4.162      6.036    11.4370 0.0000e+00
      4.257      0.058     0.0793      0.754     59.004  42.950454     0.9175      7.920   -14.3157 3.0976e-01     1.5301      4.177      6.058    11.4402 0.0000e+00
      4.268      0.060     0.0802      0.747     58.974  42.886993     0.9172      7.912   -15.7646 3.1046e-01     1.5684      4.184      6.069    11.4332 0.0000e+00
      4.281      0.060     0.0773      0.733     58.833  42.739381     0.9284      7.902   -17.1636 3.0860e-01     1.5165      4.194      6.083    11.4200 0.0000e+00
      4.300      0.060     0.0799      0.727     58.647  42.561211     0.9449      7.893   -18.5836 3.0131e-01     1.4495      4.217      6.117    11.4222 0.0000e+00
      4.320      0.061     0.0845      0.724     58.544  42.445453     0.9583      7.885   -20.0281 3.0198e-01     1.4411      4.239      6.149    11.4004 0.0000e+00
      4.334      0.062     0.0812      0.719     58.551  42.418105     0.9734      7.878   -21.2927 3.0897e-01     1.4833      4.251      6.166    11.3578 0.0000e+00
      4.347      0.062     0.0798      0.709     58.584  42.420815     0.9778      7.871   -22.3441 3.0495e-01     1.4814      4.262      6.181    11.3188 0.0000e+00
      4.362      0.063     0.0796      0.703     58.602  42.414762     0.9699      7.865   -23.3616 2.8949e-01     1.4185      4.278      6.204    11.2843 0.0000e+00
      4.377      0.066     0.0794      0.703     58.620  42.408330     0.9612      7.859   -24.4757 2.8303e-01     1.3718      4.292      6.226    11.2455 0.0000e+00
      4.393      0.070     0.0793      0.714     58.639  42.406463     0.9640      7.853   -25.6620 2.8683e-01     1.3950      4.306      6.246    11.2154 0.0000e+00
      4.413      0.071     0.0773      0.727     58.636  42.392170     0.9790      7.846   -26.6062 2.7758e-01     1.4935      4.327      6.276    11.2039 0.0000e+00
      4.436      0.071     0.0771      0.730     58.525  42.298935     0.9846      7.838   -27.2877 2.5929e-01     1.5720      4.351      6.311    11.1872 0.0000e+00
      4.456      0.070     0.0765      0.730     58.364  42.167221     0.9734      7.831   -28.0519 2.4994e-01     1.5255      4.370      6.339    11.1667 0.0000e+00
      4.472      0.068     0.0781      0.717     58.343  42.131718     0.9601      7.826   -28.9626 2.4577e-01     1.4433      4.386      6.361    11.1555 0.0000e+00
      4.487      0.063     0.0811      0.694     58.362  42.123383     0.9647      7.820   -29.7808 2.5049e-01     1.4654      4.399      6.381    11.1467 0.0000e+00
      4.502      0.058     0.0795      0.683     58.309  42.066429     0.9791      7.813   -30.2879 2.4767e-01     1.5199      4.414      6.402    11.1349 0.0000e+00
      4.518      0.056     0.0812      0.695     58.174  41.950529     0.9846      7.808   -30.7912 2.3442e-01     1.5213      4.431      6.426    11.1236 0.0000e+00
      4.533      0.056     0.0796      0.712     57.995  41.800387     0.9733      7.802   -31.5641 2.4291e-01     1.4827      4.446      6.449    11.1049 0.0000e+00
      4.544      0.057     0.0757      0.717     57.900  41.709992     0.9593      7.796   -32.4060 2.5870e-01     1.4286      4.456      6.464    11.0836 0.0000e+00
      4.554      0.057     0.0741      0.716     57.803  41.618745     0.9730      7.791   -33.1412 2.6346e-01     1.5168      4.464      6.475    11.0692 0.0000e+00
      4.570      0.055     0.0762      0.716     57.704  41.521711     0.9970      7.786   -33.7422 2.6957e-01     1.7288      4.480      6.497    11.0541 0.0000e+00
      4.590      0.052     0.0793      0.721     57.700  41.488214     1.0083      7.779   -34.3381 2.6262e-01     1.8398      4.503      6.530    11.0360 0.0000e+00
      4.607      0.047     0.0790      0.728     57.530  41.340571     1.0017      7.774   -34.9261 2.4346e-01     1.8001      4.519      6.555    11.0153 0.0000e+00
      4.618      0.043     0.0792      0.719     57.002  40.941715     0.9752      7.768   -35.5166 2.3986e-01     1.6584      4.530      6.571    10.9986 0.0000e+00
      4.624      0.042     0.0785      0.702     56.469  40.534876     0.9623      7.763   -36.2297 2.5020e-01     1.5616      4.536      6.578    10.9787 0.0000e+00
      4.629      0.044     0.0790      0.688     56.440  40.480959     0.9793      7.759   -37.0091 2.5734e-01     1.5517      4.537      6.581    10.9471 0.0000e+00
      4.636      0.049     0.0817      0.678     56.839  40.733771     0.9982      7.755   -37.7128 2.5134e-01     1.5393      4.543      6.590    10.9238 0.0000e+00
      4.648      0.055     0.0799      0.680     57.047  40.864143     0.9911      7.750   -38.2860 2.3698e-01     1.5143      4.556      6.608    10.9116 0.0000e+00
      4.668      0.060     0.0768      0.688     56.868  40.725258     0.9843      7.745   -38.8635 2.2763e-01     1.4888      4.576      6.637    10.8937 0.0000e+00
      4.690      0.065     0.0767      0.696     56.680  40.576805     1.0154      7.739   -39.5318 2.2619e-01     1.5037      4.601      6.672    10.8593 0.0000e+00
      4.709      0.067     0.0740      0.713     56.633  40.528065     1.0514      7.734   -40.0854 2.1539e-01     1.5235      4.621      6.702    10.8229 0.0000e+00
      4.723      0.066     0.0753      0.723     56.544  40.453065     1.0619      7.730   -40.4814 2.0144e-01     1.5234      4.632      6.718    10.8110 0.0000e+00
      4.737      0.063     0.0767      0.711     56.435  40.367695     1.0511      7.727   -40.9635 2.0685e-01     1.5018      4.643      6.735    10.8074 0.0000e+00
      4.754      0.058     0.0762      0.693     56.374  40.320413     1.0294      7.722   -41.6126 2.2065e-01     1.4673      4.661      6.761    10.7926 0.0000e+00
      4.771      0.054     0.0791      0.686     56.291  40.261952     1.0237      7.718   -42.3074 2.3204e-01     1.4818      4.679      6.787    10.7771 0.0000e+00
      4.787      0.053     0.0818      0.689     56.158  40.168261     1.0320      7.714   -42.8257 2.3780e-01     1.4730      4.694      6.809    10.7682 0.0000e+00
      4.799      0.053     0.0788      0.690     55.950  40.012157     1.0382      7.711   -43.1472 2.3338e-01     1.4972      4.707      6.829    10.7612 0.0000e+00
      4.806      0.053     0.0762      0.671     55.731  39.833316     1.0485      7.707   -43.4407 2.2183e-01     1.6383      4.713      6.836    10.7566 0.0000e+00
      4.815      0.054     0.0758      0.667     55.528  39.654974     1.0648      7.702   -43.7072 2.1247e-01     1.7444      4.717      6.842    10.7594 0.0000e+00
      4.832      0.058     0.0756      0.696     55.363  39.504872     1.0851      7.698   -43.9612 2.1218e-01     1.7896      4.738      6.871    10.7635 0.0000e+00
      4.853      0.062     0.0787      0.713     55.359  39.477197     1.0868      7.694   -44.2742 2.1803e-01     1.7745      4.762      6.905    10.7604 0.0000e+00
      4.869      0.064     0.0734      0.696     55.431  39.510617     1.0693      7.690   -44.3946 2.1863e-01     1.6983      4.776      6.927    10.7390 0.0000e+00
      4.884      0.063     0.0718      0.686     55.471  39.528375     1.0648      7.685   -44.2977 2.1184e-01     1.6539      4.788      6.943    10.7031 0.0000e+00
      4.902      0.060     0.0780      0.694     55.440  39.501621     1.0735      7.682   -44.3069 2.0042e-01     1.6816      4.808      6.974    10.6736 0.0000e+00
      4.919      0.058     0.0819      0.687     55.354  39.440833     1.0915      7.679   -44.3343 1.8117e-01     1.6912      4.828      7.002    10.6510 0.0000e+00
      4.929      0.057     0.0767      0.682     55.335  39.427644     1.1071      7.674   -44.2843 1.7422e-01     1.5658      4.833      7.009    10.6347 0.0000e+00
      4.940      0.056     0.0743      0.694     55.314  39.405573     1.1036      7.670   -44.3898 1.8985e-01     1.4289      4.841      7.021    10.6258 0.0000e+00
      4.958      0.056     0.0793      0.690     55.181  39.300818     1.0992      7.667   -44.5784 1.9723e-01     1.4032      4.863      7.053    10.6201 0.0000e+00
      4.974      0.055     0.0758      0.678     55.020  39.175845     1.1298      7.663   -44.5857 1.9029e-01     1.4588      4.881      7.079    10.6240 0.0000e+00
      4.987      0.054     0.0742      0.688     54.925  39.099588     1.1902      7.658   -44.5639 1.8513e-01     1.5212      4.890      7.092    10.6278 0.0000e+00
      5.001      0.052     0.0786      0.693     54.811  39.013031     1.2216      7.654   -44.6599 1.7635e-01     1.5080      4.902      7.111    10.6189 0.0000e+00
      5.017      0.051     0.0776      0.678     54.557  38.826935     1.2096      7.652   -44.9718 1.6998e-01     1.4701      4.923      7.139    10.6077 0.0000e+00
      5.027      0.052     0.0732      0.669     54.286  38.625358     1.1949      7.649   -45.4098 1.6825e-01     1.4741      4.932      7.153    10.5984 0.0000e+00
      5.035      0.053     0.0774      0.676     54.185  38.541887     1.2357      7.646   -45.6538 1.6952e-01     1.5560      4.934      7.156    10.5902 0.0000e+00
      5.048      0.056     0.0787      0.684     54.071  38.451902     1.3272      7.641   -45.5984 1.6788e-01     1.7086      4.949      7.177    10.5856 0.0000e+00
      5.066      0.059     0.0748      0.679     53.777  38.234974     1.3783      7.637   -45.2566 1.5563e-01     1.7477      4.969      7.207    10.5826 0.0000e+00
      5.082      0.061     0.0738      0.670     53.568  38.075347     1.3795      7.633   -45.0491 1.5230e-01     1.6532      4.985      7.230    10.5748 0.0000e+00
      5.098      0.063     0.0749      0.667     53.449  37.980543     1.4080      7.630   -45.4114 1.6223e-01     1.6930      4.999      7.249    10.5614 0.0000e+00
      5.117      0.064     0.0775      0.674     53.095  37.722902     1.4740      7.628   -46.0243 1.7525e-01     1.8871      5.019      7.280    10.5530 0.0000e+00
      5.133      0.067     0.0753      0.681     52.612  37.370162     1.5111      7.625   -46.3503 1.7872e-01     1.9842      5.037      7.306    10.5497 0.0000e+00
      5.144      0.070     0.0745      0.666     52.311  37.140220     1.5072      7.621   -46.3428 1.6931e-01     1.9456      5.042      7.313    10.5367 0.0000e+00
      5.159      0.071     0.0743      0.655     52.188  37.035470     1.5272      7.617   -46.1913 1.6154e-01     1.9328      5.055      7.331    10.5236 0.0000e+00
      5.184      0.070     0.0740      0.658     52.148  36.991468     1.5781      7.615   -46.2392 1.5542e-01     1.9654      5.085      7.374    10.5236 0.0000e+00
      5.209      0.070     0.0784      0.658     52.071  36.925276     1.6060      7.612   -46.5775 1.4977e-01     1.9983      5.112      7.414    10.5157 0.0000e+00
      5.226      0.070     0.0735      0.663     51.823  36.742468     1.6230      7.609   -46.8401 1.5062e-01     2.0235      5.126      7.435    10.4968 0.0000e+00
      5.239      0.070     0.0721      0.674     51.480  36.493398     1.6502      7.607   -46.8330 1.5259e-01     2.0310      5.138      7.452    10.4791 0.0000e+00
      5.251      0.069     0.0745      0.685     51.254  36.323589     1.6689      7.605   -46.5779 1.5127e-01     2.0886      5.148      7.466    10.4639 0.0000e+00
      5.269      0.070     0.0728      0.687     51.200  36.274704     1.6822      7.604   -46.3365 1.5216e-01     2.1738      5.164      7.490    10.4526 0.0000e+00
      5.291      0.074     0.0740      0.689     51.043  36.155972     1.7026      7.601   -46.3235 1.5204e-01     2.2074      5.190      7.526    10.4475 0.0000e+00
      5.311      0.078     0.0747      0.683     50.696  35.902634     1.7327      7.597   -46.5075 1.4617e-01     2.1879      5.209      7.555    10.4436 0.0000e+00
      5.330      0.079     0.0778      0.671     50.403  35.684756     1.7644      7.594   -46.6670 1.3771e-01     2.1423      5.224      7.578    10.4332 0.0000e+00
      5.353      0.077     0.0756      0.666     50.142  35.487451     1.7854      7.592   -46.6184 1.3214e-01     2.1337      5.249      7.612    10.4205 0.0000e+00
      5.375      0.075     0.0779      0.653     49.793  35.229162     1.8035      7.591   -46.5224 1.3145e-01     2.1875      5.275      7.649    10.4141 0.0000e+00
      5.393      0.073     0.0768      0.636     49.443  34.971448     1.8081      7.589   -46.4526 1.3238e-01     2.2117      5.290      7.672    10.4095 0.0000e+00
      5.408      0.072     0.0740      0.631     49.189  34.781075     1.8159      7.588   -46.1179 1.3446e-01     2.2209      5.302      7.689    10.3974 0.0000e+00
      5.424      0.071     0.0755      0.639     49.003  34.639456     1.8565      7.585   -45.5733 1.3596e-01     2.3334      5.319      7.714    10.3837 0.0000e+00
      5.442      0.071     0.0731      0.654     48.766  34.463925     1.8912      7.582   -45.2875 1.3576e-01     2.4443      5.337      7.741    10.3733 0.0000e+00
      5.462      0.071     0.0707      0.677     48.466  34.243968     1.9111      7.580   -45.2435 1.3222e-01     2.4686      5.355      7.767    10.3633 0.0000e+00
      5.482      0.071     0.0696      0.688     48.234  34.072457     1.9299      7.579   -45.2137 1.3167e-01     2.4217      5.377      7.799    10.3521 0.0000e+00
      5.502      0.070     0.0721      0.691     48.108  33.975410     1.9444      7.576   -44.8413 1.3920e-01     2.3557      5.398      7.829    10.3410 0.0000e+00
      5.518      0.067     0.0720      0.702     48.005  33.894865     1.9526      7.574   -44.0961 1.4014e-01     2.3548      5.411      7.848    10.3331 0.0000e+00
      5.534      0.065     0.0770      0.697     47.874  33.796076     1.9628      7.572   -43.5169 1.3443e-01     2.4104      5.425      7.868    10.3259 0.0000e+00
      5.551      0.065     0.0779      0.676     47.700  33.668654     2.0006      7.570   -43.1734 1.3211e-01     2.5833      5.444      7.895    10.3174 0.0000e+00
      5.566      0.066     0.0759      0.664     47.551  33.558942     2.0525      7.567   -43.0396 1.2807e-01     2.8402      5.461      7.920    10.3093 0.0000e+00
      5.580      0.066     0.0799      0.649     47.541  33.547462     2.0735      7.564   -43.1036 1.2432e-01     3.0233      5.471      7.936    10.3006 0.0000e+00
      5.598      0.065     0.0795      0.623     47.700  33.656661     2.0725      7.562   -42.8294 1.2566e-01     3.0892      5.486      7.957    10.2930 0.0000e+00
      5.619      0.065     0.0744      0.605     47.815  33.737931     2.1071      7.561   -42.1327 1.2722e-01     3.2272      5.513      7.995    10.2894 0.0000e+00
      5.637      0.066     0.0748      0.616     47.679  33.642401     2.1746      7.560   -41.5632 1.2568e-01     3.5298      5.532      8.023    10.2852 0.0000e+00
      5.649      0.067     0.0736      0.647     47.502  33.516125     2.2066      7.558   -41.2784 1.2398e-01     3.7070      5.539      8.034    10.2792 0.0000e+00
      5.663      0.067     0.0695      0.657     47.451  33.479270     2.2021      7.557   -41.0982 1.2386e-01     3.7653      5.551      8.051    10.2754 0.0000e+00
      5.682      0.068     0.0668      0.670     47.416  33.450407     2.2451      7.554   -40.8474 1.2384e-01     4.0296      5.573      8.082    10.2771 0.0000e+00
      5.701      0.068     0.0669      0.711     47.391  33.420768     2.3358      7.550   -40.3961 1.2376e-01     4.4094      5.592      8.110    10.2792 0.0000e+00
      5.718      0.067     0.0750      0.756     47.434  33.437920     2.3828      7.549   -39.7717 1.2375e-01     4.5312      5.607      8.132    10.2751 0.0000e+00
      5.738      0.066     0.0734      0.801     47.490  33.467559     2.3805      7.548   -39.1483 1.2382e-01     4.4430      5.626      8.160    10.2758 0.0000e+00
      5.758      0.064     0.0728      0.847     47.493  33.462084     2.3753      7.545   -38.6246 1.2388e-01     4.4365      5.651      8.195    10.2749 0.0000e+00
      5.771      0.061     0.0806      0.884     47.468  33.435130     2.4110      7.542   -38.1720 1.2389e-01     4.6231      5.662      8.212    10.2589 0.0000e+00
      5.781      0.057     0.0845      0.920     47.426  33.395279     2.4796      7.539   -37.8051 1.2384e-01     4.8550      5.665      8.216    10.2422 0.0000e+00
      5.797      0.055     0.0895      0.963     47.389  33.360663     2.5062      7.537   -37.4581 1.2376e-01     4.9172      5.685      8.244    10.2327 0.0000e+00
      5.814      0.055     0.0958      0.999     47.361  33.333616     2.4997      7.534   -36.9873 1.2374e-01     4.8968      5.707      8.277    10.2267 0.0000e+00
      5.826      0.055     0.0994      1.022     47.353  33.321868     2.5084      7.531   -36.4158 1.2378e-01     4.9149      5.714      8.287    10.2171 0.0000e+00
      5.838      0.054     0.1027      1.047     47.394  33.345425     2.5202      7.528   -35.8821 1.2381e-01     4.9658      5.722      8.299    10.2045 0.0000e+00
      5.855      0.053     0.1083      1.079     47.426  33.364807     2.5096      7.526   -35.4377 1.2383e-01     4.9661      5.744      8.331    10.1955 0.0000e+00
      5.870      0.054     0.1136      1.120     47.432  33.365992     2.4872      7.525   -35.0015 1.2383e-01     4.9185      5.760      8.354    10.1887 0.0000e+00
      5.879      0.056     0.1140      1.186     47.430  33.359760     2.4659      7.522   -34.6512 1.2380e-01     4.9369      5.762      8.358    10.1818 0.0000e+00
      5.891      0.057     0.1176      1.262     47.428  33.352859     2.4523      7.518   -34.3856 1.2378e-01     4.9833      5.774      8.374    10.1761 0.0000e+00
      5.909      0.056     0.1214      1.323     47.427  33.345944     2.4555      7.514   -34.0272 1.2377e-01     5.0011      5.797      8.408    10.1728 0.0000e+00
      5.927      0.055     0.1240      1.376     47.425  33.339558     2.4542      7.511   -33.5882 1.2375e-01     4.9817      5.814      8.434    10.1704 0.0000e+00
      5.942      0.054     0.1331      1.439     47.430  33.339040     2.4542      7.509   -33.0351 1.2374e-01     4.9196      5.827      8.450    10.1649 0.0000e+00
      5.956      0.052     0.1428      1.505     47.436  33.339674     2.4640      7.506   -32.5013 1.2372e-01     4.8658      5.842      8.473    10.1580 0.0000e+00
      5.967      0.049     0.1497      1.578     47.452  33.347226     2.4564      7.503   -32.2105 1.2374e-01     4.8433      5.854      8.490    10.1525 0.0000e+00
      5.975      0.049     0.1535      1.658     47.486  33.366938     2.4449      7.502   -32.0142 1.2374e-01     4.8188      5.857      8.496    10.1470 0.0000e+00
      5.986      0.050     0.1622      1.718     47.521  33.387784     2.4661      7.499   -31.6770 1.2373e-01     4.8766      5.868      8.511    10.1423 0.0000e+00
      6.001      0.053     0.1693      1.753     47.555  33.409055     2.5140      7.495   -31.2305 1.2372e-01     5.0975      5.885      8.536    10.1391 0.0000e+00
      6.016      0.057     0.1762      1.786     47.591  33.433908     2.5497      7.492   -30.8320 1.2373e-01     5.2693      5.900      8.557    10.1350 0.0000e+00
      6.031      0.059     0.1880      1.820     47.592  33.434658     2.5562      7.489   -30.3865 1.2378e-01     5.2458      5.914      8.577    10.1307 0.0000e+00
      6.048      0.060     0.1945      1.833     47.569  33.418114     2.5505      7.486   -29.8872 1.2377e-01     5.1545      5.930      8.601    10.1258 0.0000e+00
      6.064      0.062     0.1971      1.838     47.581  33.424098     2.5474      7.484   -29.5279 1.2373e-01     5.1568      5.949      8.628    10.1235 0.0000e+00
      6.077      0.064     0.2004      1.844     47.616  33.443603     2.5514      7.482   -29.2251 1.2376e-01     5.3075      5.960      8.645    10.1249 0.0000e+00
      6.090      0.065     0.2064      1.830     47.649  33.463720     2.5659      7.478   -28.7213 1.2381e-01     5.4741      5.969      8.658    10.1243 0.0000e+00
      6.109      0.065     0.2067      1.814     47.666  33.477110     2.5648      7.475   -28.0824 1.2385e-01     5.4969      5.991      8.689    10.1238 0.0000e+00
      6.130      0.062     0.2056      1.827     47.660  33.478686     2.5467      7.472   -27.5230 1.2381e-01     5.4474      6.014      8.722    10.1216 0.0000e+00
      6.149      0.057     0.2094      1.871     47.649  33.482788     2.5391      7.469   -26.8622 1.2377e-01     5.4551      6.030      8.746    10.1151 0.0000e+00
      6.165      0.054     0.2060      1.924     47.604  33.463304     2.5395      7.466   -26.1143 1.2381e-01     5.4874      6.047      8.770    10.1107 0.0000e+00
      6.176      0.053     0.2024      1.971     47.562  33.433336     2.5597      7.463   -25.5359 1.2382e-01     5.5307      6.061      8.790    10.1134 0.0000e+00
      6.181      0.055     0.2045      2.030     47.586  33.437476     2.6330      7.461   -24.9462 1.2382e-01     5.7058      6.061      8.791    10.1166 0.0000e+00
      6.188      0.059     0.2097      2.092     47.626  33.449950     2.7345      7.458   -24.1464 1.2385e-01     5.9988      6.062      8.792    10.1301 0.0000e+00
      6.206      0.065     0.2178      2.132     47.654  33.457320     2.7799      7.454   -23.2647 1.2387e-01     6.1357      6.084      8.823    10.1522 0.0000e+00
      6.232      0.070     0.2203      2.156     47.673  33.463175     2.7822      7.450   -22.5460 1.2389e-01     6.1320      6.115      8.868    10.1496 0.0000e+00
      6.255      0.074     0.2281      2.178     47.670  33.457315     2.8215      7.448   -22.0813 1.2385e-01     6.2606      6.135      8.897    10.1306 0.0000e+00
      6.274      0.074     0.2372      2.198     47.665  33.449879     2.8800      7.445   -21.7757 1.2378e-01     6.4609      6.151      8.923    10.1132 0.0000e+00
      6.292      0.071     0.2406      2.221     47.652  33.436669     2.8983      7.443   -21.4315 1.2376e-01     6.5729      6.173      8.954    10.0992 0.0000e+00
      6.307      0.068     0.2427      2.244     47.642  33.424404     2.9013      7.441   -21.0180 1.2379e-01     6.6246      6.186      8.972    10.0931 0.0000e+00
      6.320      0.067     0.2453      2.272     47.656  33.428391     2.9751      7.437   -20.6475 1.2386e-01     6.6421      6.195      8.985    10.0897 0.0000e+00
      6.337      0.067     0.2476      2.316     47.653  33.421464     3.0994      7.434   -20.2220 1.2392e-01     6.6129      6.214      9.012    10.0865 0.0000e+00
      6.357      0.067     0.2500      2.351     47.634  33.404048     3.1562      7.431   -19.6589 1.2392e-01     6.5791      6.236      9.044    10.0822 0.0000e+00
      6.377      0.066     0.2534      2.376     47.644  33.408025     3.1452      7.427   -19.0871 1.2382e-01     6.6100      6.255      9.072    10.0762 0.0000e+00
      6.394      0.062     0.2541      2.404     47.643  33.406135     3.1332      7.423   -18.5563 1.2373e-01     6.6446      6.270      9.094    10.0702 0.0000e+00
      6.409      0.057     0.2623      2.422     47.606  33.381195     3.1190      7.421   -18.0599 1.2377e-01     6.6558      6.285      9.116    10.0647 0.0000e+00
      6.424      0.053     0.2654      2.450     47.573  33.360106     3.0988      7.419   -17.5596 1.2384e-01     6.7108      6.302      9.141    10.0603 0.0000e+00
      6.434      0.050     0.2666      2.498     47.546  33.341375     3.0801      7.415   -16.8949 1.2382e-01     6.7627      6.311      9.155    10.0568 0.0000e+00
      6.442      0.046     0.2726      2.551     47.548  33.344930     3.0595      7.411   -16.3036 1.2378e-01     6.8049      6.316      9.160    10.0559 0.0000e+00
      6.455      0.044     0.2723      2.624     47.533  33.339688     3.0162      7.408   -15.9171 1.2381e-01     6.8122      6.329      9.178    10.0573 0.0000e+00
      6.471      0.045     0.2745      2.703     47.441  33.278005     2.9476      7.405   -15.4913 1.2381e-01     6.7146      6.349      9.209    10.0600 0.0000e+00
      6.481      0.047     0.2827      2.761     47.384  33.233182     2.9047      7.402   -15.0268 1.2372e-01     6.5802      6.358      9.222    10.0598 0.0000e+00
      6.488      0.048     0.2860      2.824     47.409  33.241571     2.9050      7.399   -14.5174 1.2371e-01     6.5197      6.359      9.223    10.0591 0.0000e+00
      6.502      0.049     0.2950      2.900     47.434  33.252615     2.9841      7.397   -13.9776 1.2376e-01     6.5632      6.374      9.245    10.0681 0.0000e+00
      6.518      0.053     0.3071      2.966     47.419  33.239890     3.1290      7.394   -13.5763 1.2374e-01     6.6291      6.395      9.276    10.0750 0.0000e+00
      6.529      0.058     0.3099      3.013     47.383  33.214525     3.2001      7.392   -13.2789 1.2375e-01     6.6326      6.403      9.287    10.0679 0.0000e+00
      6.541      0.061     0.3177      3.062     47.362  33.199546     3.1871      7.389   -12.8770 1.2384e-01     6.6057      6.411      9.297    10.0551 0.0000e+00
      6.560      0.063     0.3272      3.132     47.342  33.185600     3.1963      7.387   -12.4164 1.2385e-01     6.6106      6.432      9.328    10.0469 0.0000e+00
      6.581      0.066     0.3356      3.217     47.326  33.172710     3.2445      7.384   -11.8400 1.2380e-01     6.6576      6.456      9.364    10.0459 0.0000e+00
      6.597      0.069     0.3397      3.306     47.331  33.170497     3.2715      7.381   -11.0701 1.2376e-01     6.6969      6.470      9.384    10.0470 0.0000e+00
      6.611      0.068     0.3437      3.382     47.325  33.158845     3.2642      7.377   -10.3348 1.2376e-01     6.6750      6.480      9.398    10.0454 0.0000e+00
      6.629      0.064     0.3526      3.443     47.333  33.158627     3.2390      7.374    -9.6618 1.2377e-01     6.6322      6.498      9.424    10.0466 0.0000e+00
      6.650      0.064     0.3624      3.512     47.352  33.167857     3.2165      7.372    -9.2133 1.2380e-01     6.6240      6.525      9.463    10.0461 0.0000e+00
      6.666      0.067     0.3731      3.579     47.322  33.143627     3.2171      7.371    -9.0412 1.2380e-01     6.6438      6.543      9.489    10.0381 0.0000e+00
      6.676      0.070     0.3830      3.630     47.292  33.119286     3.2217      7.367    -8.6135 1.2380e-01     6.6662      6.544      9.491    10.0300 0.0000e+00
      6.690      0.070     0.3873      3.689     47.308  33.127166     3.2137      7.363    -7.8277 1.2382e-01     6.6564      6.555      9.508    10.0243 0.0000e+00
      6.715      0.071     0.3961      3.745     47.290  33.112085     3.2112      7.361    -7.1974 1.2382e-01     6.6614      6.586      9.552    10.0205 0.0000e+00
      6.739      0.071     0.4056      3.790     47.224  33.063747     3.2419      7.359    -6.7577 1.2383e-01     6.7612      6.614      9.592    10.0174 0.0000e+00
      6.755      0.071     0.4080      3.841     47.207  33.049954     3.2768      7.354    -6.2104 1.2387e-01     6.8729      6.625      9.609    10.0136 0.0000e+00
      6.770      0.067     0.4167      3.882     47.241  33.072126     3.2754      7.350    -5.5702 1.2386e-01     6.8847      6.637      9.625    10.0098 0.0000e+00
      6.789      0.062     0.4238      3.902     47.253  33.078197     3.2498      7.348    -4.9543 1.2382e-01     6.8013      6.660      9.660    10.0069 0.0000e+00
      6.805      0.059     0.4264      3.913     47.231  33.059949     3.2337      7.346    -4.3562 1.2384e-01     6.6848      6.677      9.684    10.0050 0.0000e+00
      6.816      0.058     0.4341      3.928     47.208  33.041712     3.2391      7.343    -3.6736 1.2386e-01     6.6368      6.683      9.692    10.0031 0.0000e+00
      6.829      0.057     0.4398      3.970     47.218  33.047906     3.2562      7.340    -2.9811 1.2383e-01     6.6648      6.694      9.708    10.0006 0.0000e+00
      6.846      0.056     0.4401      4.028     47.252  33.071439     3.2663      7.337    -2.4371 1.2376e-01     6.6480      6.715      9.739     9.9986 0.0000e+00
      6.861      0.055     0.4426      4.069     47.252  33.072624     3.2612      7.332    -1.9999 1.2371e-01     6.6049      6.730      9.761     9.9960 0.0000e+00
      6.874      0.054     0.4413      4.100     47.236  33.062233     3.2536      7.328    -1.6530 1.2369e-01     6.5865      6.739      9.775     9.9933 0.0000e+00
      6.889      0.053     0.4472      4.146     47.248  33.072618     3.2487      7.325    -1.4259 1.2371e-01     6.5970      6.756      9.799     9.9920 0.0000e+00
      6.903      0.052     0.4562      4.206     47.244  33.071371     3.2103      7.323    -1.0610 1.2372e-01     6.6289      6.771      9.820     9.9923 0.0000e+00
      6.913      0.052     0.4597      4.258     47.210  33.047163     3.1294      7.321    -0.4247 1.2369e-01     6.6312      6.779      9.831     9.9935 0.0000e+00
      6.925      0.052     0.4620      4.294     47.194  33.033538     3.0787      7.318     0.3313 1.2368e-01     6.6584      6.790      9.848     9.9942 0.0000e+00
      6.939      0.051     0.4667      4.316     47.199  33.033433     3.0798      7.316     1.0235 1.2378e-01     6.6846      6.805      9.870     9.9961 0.0000e+00
      6.953      0.048     0.4757      4.334     47.222  33.045896     3.1093      7.313     1.3200 1.2385e-01     6.6062      6.818      9.889     9.9986 0.0000e+00
      6.968      0.043     0.4811      4.352     47.242  33.057415     3.1448      7.310     1.5085 1.2384e-01     6.4621      6.833      9.910     9.9986 0.0000e+00
      6.982      0.038     0.4857      4.373     47.226  33.045887     3.1508      7.308     2.0972 1.2381e-01     6.3772      6.850      9.935     9.9959 0.0000e+00
      6.990      0.033     0.4871      4.403     47.205  33.033320     3.1400      7.305     2.7598 1.2381e-01     6.4000      6.857      9.946     9.9914 0.0000e+00
      6.991      0.027     0.4894      4.433     47.200  33.032280     3.1308      7.301     3.3248 1.2386e-01     6.4301      6.854      9.941     9.9867 0.0000e+00
      6.995      0.022     0.4914      4.456     47.201  33.033320     3.1226      7.298     3.9384 1.2388e-01     6.3990      6.857      9.946     9.9841 0.0000e+00
      7.004      0.017     0.4930      4.478     47.222  33.045896     3.1330      7.297     4.2420 1.2387e-01     6.3653      6.870      9.964     9.9835 0.0000e+00
      7.010      0.013     0.4973      4.503     47.242  33.057529     3.1480      7.294     4.2416 1.2383e-01     6.3646      6.878      9.975     9.9858 0.0000e+00
      7.012      0.011     0.5005      4.512     47.227  33.047154     3.1465      7.290     4.5364 1.2382e-01     6.3906      6.877      9.974     9.9915 0.0000e+00
      7.012      0.008     0.5034      4.509     47.224  33.047263     3.1565      7.287     4.9665 1.2383e-01     6.4413      6.876      9.973     9.9915 0.0000e+00
      7.012      0.006     0.5047      4.513     47.235  33.058843     3.1852      7.284     5.3989 1.2379e-01     6.4307      6.878      9.975     9.9863 0.0000e+00
      7.013      0.004     0.5096      4.501     47.232  33.060368     3.2022      7.281     5.9784 1.2374e-01     6.3307      6.877      9.974     9.9837 0.0000e+00
      7.015      0.004     0.5106      4.482     47.237  33.065713     3.2042      7.278     6.3812 1.2370e-01     6.2912      6.878      9.976     9.9846 0.0000e+00
      7.018      0.004     0.5075      4.483     47.227  33.060064     3.2337      7.276     6.5687 1.2368e-01     6.3623      6.883      9.983     9.9874 0.0000e+00
      7.019      0.004     0.5110      4.492     47.216  33.055465     3.2926      7.273     6.7823 1.2371e-01     6.4391      6.884      9.985     9.9915 0.0000e+00
      7.019      0.003     0.5087      4.492     47.236  33.073510     3.3174      7.271     7.1578 1.2372e-01     6.4341      6.882      9.983     9.9959 0.0000e+00
      7.019      0.002     0.5040      4.488     47.250  33.088038     3.3087      7.268     7.5808 1.2369e-01     6.3705      6.882      9.982     9.9979 0.0000e+00
      7.020      0.001     0.5060      4.490     47.267  33.104324     3.3122      7.265     7.9394 1.2372e-01     6.3532      6.884      9.985     9.9982 0.0000e+00
      7.020      0.001     0.5074      4.498     47.314  33.143619     3.3263      7.261     8.3954 1.2379e-01     6.3962      6.884      9.985    10.0016 0.0000e+00
      7.020      0.001     0.5072      4.489     47.357  33.182721     3.3376      7.258     8.9655 1.2382e-01     6.4456      6.884      9.984    10.0065 0.0000e+00
      7.021      0.001     0.5060      4.472     47.358  33.196678     3.3408      7.255     9.4116 1.2377e-01     6.4381      6.885      9.986    10.0110 0.0000e+00
      7.021      0.001     0.5058      4.463     47.318  33.185574     3.3397      7.253     9.6595 1.2370e-01     6.3736      6.885      9.987    10.0161 0.0000e+00
      7.022      0.001     0.5088      4.447     47.283  33.175304     3.3575      7.251     9.9831 1.2369e-01     6.3496      6.886      9.987    10.0216 0.0000e+00
      7.022      0.001     0.5068      4.422     47.308  33.199325     3.3901      7.249    10.7433 1.2368e-01     6.3870      6.886      9.987    10.0304 0.0000e+00
      7.022      0.001     0.5030      4.399     47.338  33.222391     3.4100      7.246    11.6238 1.2368e-01     6.4153      6.886      9.987    10.0446 0.0000e+00
      7.022      0.001     0.5038      4.369     47.302  33.200574     3.4062      7.243    12.1116 1.2368e-01     6.3847      6.886      9.988    10.0656 0.0000e+00
      7.022      0.001     0.5014      4.332     47.282  33.189159     3.3937      7.241    12.3392 1.2372e-01     6.3237      6.886      9.988    10.0832 0.0000e+00
      7.023      0.002     0.4975      4.299     47.312  33.211198     3.3918      7.239    12.4827 1.2378e-01     6.3272      6.887      9.988    10.0869 0.0000e+00
      7.023      0.004     0.4961      4.273     47.314  33.213414     3.3914      7.236    12.7282 1.2382e-01     6.3927      6.887      9.988    10.0873 0.0000e+00
      7.023      0.005     0.4922      4.247     47.319  33.215962     3.3891      7.233    13.3287 1.2385e-01     6.4329      6.887      9.988    10.0920 0.0000e+00
      7.025      0.006     0.4875      4.216     47.360  33.242001     3.3724      7.230    14.1512 1.2386e-01     6.4028      6.888      9.990    10.0951 0.0000e+00
      7.028      0.007     0.4839      4.180     47.406  33.274620     3.3304      7.227    14.7567 1.2383e-01     6.3358      6.892      9.996    10.0955 0.0000e+00
      7.030      0.007     0.4812      4.135     47.420  33.293326     3.3061      7.226    15.1436 1.2380e-01     6.3404      6.895     10.001    10.0973 0.0000e+00
      7.032      0.006     0.4786      4.088     47.375  33.277965     3.3124      7.224    15.5593 1.2378e-01     6.3914      6.896     10.002    10.0981 0.0000e+00
      7.033      0.005     0.4749      4.046     47.352  33.279133     3.3059      7.220    15.8248 1.2378e-01     6.4403      6.897     10.003    10.0913 0.0000e+00
      7.034      0.005     0.4711      4.003     47.372  33.307458     3.2694      7.218    16.0311 1.2379e-01     6.5212      6.898     10.004    10.0885 0.0000e+00
      7.034      0.005     0.4661      3.963     47.355  33.303434     3.2378      7.217    16.5046 1.2378e-01     6.5839      6.898     10.004    10.0999 0.0000e+00
      7.034      0.006     0.4594      3.938     47.340  33.293892     3.2401      7.214    17.0765 1.2374e-01     6.6174      6.898     10.004    10.1188 0.0000e+00
      7.036      0.006     0.4553      3.915     47.376  33.318906     3.2551      7.210    17.4388 1.2371e-01     6.6188      6.900     10.007    10.1388 0.0000e+00
      7.040      0.006     0.4504      3.904     47.416  33.352244     3.2528      7.208    17.6156 1.2372e-01     6.5671      6.904     10.014    10.1548 0.0000e+00
      7.043      0.006     0.4441      3.924     47.440  33.379956     3.2458      7.207    17.8378 1.2377e-01     6.5723      6.908     10.019    10.1642 0.0000e+00
      7.043      0.005     0.4432      3.954     47.457  33.400351     3.2447      7.204    18.1468 1.2382e-01     6.6137      6.907     10.017    10.1630 0.0000e+00
      7.043      0.003     0.4402      3.969     47.467  33.408636     3.2227      7.201    18.4262 1.2377e-01     6.6229      6.907     10.018    10.1578 0.0000e+00
      7.043      0.001     0.4366      3.961     47.481  33.416727     3.1800      7.198    18.7215 1.2372e-01     6.6503      6.908     10.019    10.1644 0.0000e+00
      7.043      0.000     0.4410      3.942     47.505  33.434777     3.1440      7.198    19.1358 1.2377e-01     6.6370      6.907     10.018    10.1814 0.0000e+00
      7.044 2.2336e-08     0.4450      3.934     47.492  33.436659     3.1297      7.196    19.5638 1.2382e-01     6.6340      6.908     10.019    10.1898 0.0000e+00
      7.044 2.4570e-07     0.4468      3.918     47.475  33.439494     3.1312      7.194    19.8526 1.2382e-01     6.6471      6.908     10.019    10.1904 0.0000e+00
      7.044 2.4570e-07     0.4461      3.884     47.505  33.469063     3.1461      7.191    19.9597 1.2381e-01     6.5567      6.908     10.019    10.1860 0.0000e+00
      7.044 2.2343e-08     0.4416      3.852     47.515  33.477143     3.1597      7.188    20.0842 1.2378e-01     6.4289      6.907     10.018    10.1829 0.0000e+00
      7.044 2.1014e-09     0.4425      3.822     47.514  33.473790     3.1454      7.185    20.4115 1.2376e-01     6.3663      6.908     10.019    10.1983 0.0000e+00
      7.044 9.6326e-10     0.4412      3.792     47.544  33.491934     3.1235      7.182    20.7332 1.2380e-01     6.3807      6.908     10.019    10.2182 0.0000e+00
      7.044 8.5821e-09     0.4353      3.772     47.569  33.506297     3.1283      7.180    21.0486 1.2378e-01     6.4322      6.908     10.019    10.2274 0.0000e+00
      7.044 9.4220e-08     0.4323      3.767     47.593  33.520632     3.1443      7.179    21.4722 1.2377e-01     6.4424      6.908     10.019    10.2265 0.0000e+00
      7.044      0.000     0.4294      3.747     47.620  33.538441     3.1429      7.177    21.7253 1.2379e-01     6.3674      6.908     10.019    10.2233 0.0000e+00
      7.044      0.000     0.4254      3.717     47.606  33.531408     3.1368      7.176    21.7851 1.2376e-01     6.3095      6.908     10.019    10.2204 0.0000e+00
      7.044      0.000     0.4220      3.701     47.551  33.499003     3.1446      7.173    22.0231 1.2376e-01     6.3581      6.908     10.019    10.2157 0.0000e+00
      7.044      0.001     0.4245      3.692     47.490  33.463678     3.1620      7.170    22.4529 1.2380e-01     6.4424      6.908     10.019    10.2132 0.0000e+00
      7.044      0.005     0.4219      3.682     47.425  33.421329     3.1642      7.168    22.8517 1.2374e-01     6.4407      6.908     10.019    10.2122 0.0000e+00
      7.044      0.012     0.4157      3.652     47.364  33.367413     3.1379      7.168    23.1455 1.2373e-01     6.3716      6.909     10.020    10.2123 0.0000e+00
      7.045      0.021     0.4159      3.609     47.334  33.319014     3.1028      7.167    23.3380 1.2379e-01     6.3587      6.908     10.019    10.2219 0.0000e+00
      7.050      0.032     0.4138      3.592     47.322  33.279950     3.0808      7.165    23.5438 1.2381e-01     6.4209      6.911     10.024    10.2315 0.0000e+00
      7.060      0.042     0.4145      3.600     47.348  33.275503     3.0797      7.164    23.8278 1.2379e-01     6.4750      6.922     10.038    10.2382 0.0000e+00
      7.076      0.051     0.4111      3.602     47.345  33.265215     3.0899      7.163    24.1033 1.2372e-01     6.4663      6.938     10.063    10.2300 0.0000e+00
      7.094      0.059     0.4036      3.609     47.279  33.218958     3.1458      7.162    24.3806 1.2365e-01     6.4867      6.957     10.090    10.1929 0.0000e+00
      7.110      0.065     0.4026      3.649     47.380  33.286855     3.2554      7.161    24.6846 1.2371e-01     6.5842      6.973     10.114    10.1575 0.0000e+00
      7.125      0.070     0.4061      3.715     47.618  33.452099     3.3171      7.160    24.9398 1.2381e-01     6.6558      6.986     10.133    10.1299 0.0000e+00
      7.141      0.075     0.4055      3.795     47.681  33.504944     3.3171      7.158    25.1432 1.2380e-01     6.6693      7.001     10.154    10.1220 0.0000e+00
      7.161      0.081     0.4037      3.872     47.543  33.418560     3.3141      7.157    25.3376 1.2378e-01     6.6453      7.021     10.183    10.1334 0.0000e+00
      7.182      0.087     0.4100      3.934     47.371  33.295339     3.3062      7.156    25.5687 1.2385e-01     6.6039      7.042     10.215    10.1263 0.0000e+00
      7.206      0.089     0.4174      3.976     47.287  33.219799     3.3130      7.155    25.7875 1.2391e-01     6.6126      7.065     10.247    10.1158 0.0000e+00
      7.233      0.089     0.4271      3.994     47.296  33.202652     3.3370      7.153    26.0042 1.2393e-01     6.6475      7.093     10.287    10.1318 0.0000e+00
      7.260      0.085     0.4362      3.969     47.338  33.214806     3.3477      7.151    26.2959 1.2383e-01     6.6501      7.122     10.329    10.1493 0.0000e+00
      7.281      0.077     0.4433      3.911     47.389  33.239915     3.3429      7.148    26.7330 1.2367e-01     6.6106      7.144     10.361    10.1466 0.0000e+00
      7.298      0.065     0.4479      3.865     47.419  33.252614     3.3286      7.145    27.3308 1.2365e-01     6.5796      7.158     10.381    10.1264 0.0000e+00
      7.314      0.051     0.4514      3.842     47.409  33.241519     3.3242      7.143    27.7601 1.2370e-01     6.6163      7.173     10.403    10.0948 0.0000e+00
      7.328      0.039     0.4496      3.830     47.395  33.232576     3.3315      7.143    27.9658 1.2372e-01     6.6443      7.190     10.427    10.0766 0.0000e+00
      7.335      0.032     0.4393      3.818     47.453  33.271299     3.3078      7.141    28.0968 1.2375e-01     6.5770      7.196     10.436    10.0699 0.0000e+00
      7.335      0.028     0.4349      3.809     47.554  33.329284     3.2456      7.138    28.1394 1.2383e-01     6.4185      7.192     10.431    10.0584 0.0000e+00
      7.337      0.026     0.4326      3.825     47.634  33.363003     3.1951      7.135    28.3092 1.2385e-01     6.3334      7.193     10.432    10.0540 0.0000e+00
      7.345      0.027     0.4317      3.844     47.749  33.425348     3.1886      7.133    28.6868 1.2383e-01     6.4009      7.202     10.446    10.0569 0.0000e+00
      7.355      0.032     0.4312      3.844     47.892  33.512418     3.1760      7.132    29.0916 1.2383e-01     6.4491      7.215     10.464    10.0597 0.0000e+00
      7.364      0.038     0.4269      3.822     47.926  33.528058     3.1175      7.131    29.4182 1.2383e-01     6.4043      7.222     10.475    10.0461 0.0000e+00
      7.372      0.044     0.4320      3.741     47.864  33.487630     3.0726      7.129    29.6234 1.2380e-01     6.3378      7.227     10.482    10.0145 0.0000e+00
      7.383      0.048     0.4352      3.597     47.816  33.467449     3.0740      7.128    29.6803 1.2375e-01     6.2934      7.238     10.498     9.9959 0.0000e+00
      7.398      0.052     0.4336      3.410     47.806  33.474285     3.1599      7.126    29.7623 1.2375e-01     6.3118      7.255     10.523     9.9855 0.0000e+00
      7.414      0.056     0.4349      3.156     47.844  33.506889     3.3036      7.124    30.0127 1.2379e-01     6.3552      7.272     10.546     9.9718 0.0000e+00
      7.429      0.056     0.4254      2.855     47.909  33.544643     3.3631      7.123    30.2984 1.2377e-01     6.3403      7.285     10.566     9.9741 0.0000e+00
      7.444      0.051     0.4064      2.576     47.944  33.550309     3.3634      7.120    30.5487 1.2370e-01     6.3368      7.299     10.586     9.9942 0.0000e+00
      7.459      0.046     0.3880      2.326     48.007  33.575381     3.4067      7.118    30.8024 1.2369e-01     6.3468      7.316     10.610    10.0114 0.0000e+00
      7.472      0.043     0.3590      2.099     48.144  33.657543     3.4708      7.117    31.0428 1.2374e-01     6.2899      7.331     10.632    10.0202 0.0000e+00
      7.478      0.041     0.3196      1.905     48.245  33.719420     3.4977      7.115    31.2186 1.2379e-01     6.1959      7.336     10.640    10.0113 0.0000e+00
      7.482      0.041     0.2899      1.734     48.302  33.752860     3.4907      7.112    31.3791 1.2380e-01     6.0983      7.334     10.639     9.9852 0.0000e+00
      7.492      0.042     0.2626      1.590     48.387  33.808234     3.4859      7.110    31.5202 1.2380e-01     6.0655      7.344     10.652     9.9643 0.0000e+00
      7.507      0.045     0.2348      1.474     48.497  33.881676     3.5063      7.108    31.6351 1.2379e-01     6.0731      7.363     10.681     9.9523 0.0000e+00
      7.521      0.047     0.2151      1.348     48.589  33.943356     3.5459      7.106    31.9932 1.2379e-01     6.0192      7.377     10.700     9.9428 0.0000e+00
      7.533      0.048     0.1949      1.209     48.649  33.983329     3.5650      7.103    32.4945 1.2376e-01     5.9612      7.387     10.713     9.9363 0.0000e+00
      7.546      0.047     0.1773      1.077     48.743  34.047942     3.5543      7.102    32.7064 1.2381e-01     5.9181      7.400     10.733     9.9322 0.0000e+00
      7.559      0.046     0.1682      0.953     48.896  34.153918     3.5251      7.101    32.8339 1.2393e-01     5.9073      7.415     10.754     9.9294 0.0000e+00
      7.568      0.047     0.1530      0.843     49.036  34.250134     3.4862      7.099    33.0035 1.2394e-01     5.9674      7.423     10.767     9.9270 0.0000e+00
      7.577      0.049     0.1358      0.742     49.141  34.323569     3.4506      7.097    33.0369 1.2384e-01     5.9619      7.428     10.774     9.9250 0.0000e+00
      7.590      0.051     0.1218      0.664     49.352  34.471132     3.4268      7.095    33.4099 1.2378e-01     5.8739      7.441     10.792     9.9236 0.0000e+00
      7.607      0.054     0.1070      0.640     49.683  34.702715     3.4481      7.093    34.1581 1.2379e-01     5.8266      7.460     10.820     9.9223 0.0000e+00
      7.622      0.055     0.0952      0.650     49.881  34.840855     3.5084      7.091    34.6837 1.2380e-01     5.8682      7.475     10.842     9.9212 0.0000e+00
      7.635      0.052     0.0837      0.663     49.838  34.809769     3.5479      7.089    34.8612 1.2382e-01     5.9672      7.485     10.857     9.9206 0.0000e+00
      7.650      0.047     0.0720      0.682     49.783  34.770720     3.5515      7.087    34.8410 1.2380e-01     5.9648      7.502     10.880     9.9214 0.0000e+00
      7.664      0.044     0.0708      0.689     50.025  34.939416     3.5450      7.085    34.9555 1.2373e-01     5.8729      7.520     10.907     9.9220 0.0000e+00
      7.672      0.042     0.0749      0.690     50.399  35.200770     3.5431      7.082    35.4712 1.2370e-01     5.8464      7.527     10.917     9.9211 0.0000e+00
      7.676      0.040     0.0733      0.700     50.494  35.267460     3.5541      7.080    36.1718 1.2375e-01     5.8849      7.526     10.915     9.9203 0.0000e+00
      7.685      0.039     0.0785      0.692     50.542  35.301881     3.5697      7.079    36.6300 1.2376e-01     5.9617      7.533     10.927     9.9196 0.0000e+00
      7.700      0.040     0.0781      0.670     50.991  35.616954     3.5576      7.076    36.7088 1.2372e-01     5.9901      7.553     10.954     9.9193 0.0000e+00
      7.712      0.042     0.0766      0.669     51.586  36.033146     3.4986      7.075    36.6078 1.2373e-01     5.9544      7.567     10.974     9.9195 0.0000e+00
      7.720      0.043     0.0807      0.681     51.843  36.212148     3.4306      7.074    36.6140 1.2379e-01     5.9056      7.569     10.978     9.9197 0.0000e+00
      7.730      0.042     0.0789      0.682     51.912  36.259326     3.4096      7.071    36.7835 1.2381e-01     5.8780      7.580     10.992     9.9208 0.0000e+00
      7.745      0.042     0.0745      0.687     52.043  36.349908     3.4193      7.069    37.0222 1.2376e-01     5.9280      7.597     11.018     9.9227 0.0000e+00
      7.755      0.044     0.0745      0.693     52.143  36.419556     3.4067      7.067    37.2641 1.2372e-01     5.9980      7.607     11.034     9.9237 0.0000e+00
      7.761      0.048     0.0788      0.695     52.213  36.467281     3.3739      7.064    37.3856 1.2370e-01     6.0757      7.611     11.039     9.9227 0.0000e+00
      7.771      0.051     0.0760      0.692     52.328  36.546461     3.3638      7.061    37.4586 1.2365e-01     6.1493      7.618     11.048     9.9213 0.0000e+00
      7.788      0.052     0.0778      0.693     52.520  36.679328     3.3933      7.060    37.4579 1.2365e-01     6.2057      7.637     11.076     9.9203 0.0000e+00
      7.806      0.053     0.0788      0.707     52.702  36.805443     3.5795      7.059    37.3764 1.2374e-01     6.3476      7.659     11.108     9.9198 0.0000e+00
      7.821      0.052     0.0784      0.709     52.789  36.866384     3.8927      7.056    37.4209 1.2381e-01     6.5322      7.671     11.126     9.9192 0.0000e+00
      7.834      0.048     0.0789      0.701     52.849  36.908829     4.0504      7.052    37.4790 1.2382e-01     6.5933      7.682     11.143     9.9182 0.0000e+00
      7.845      0.044     0.0764      0.696     52.891  36.938140     4.0634      7.048    37.5624 1.2383e-01     6.6082      7.694     11.161     9.9171 0.0000e+00
      7.855      0.043     0.0816      0.691     52.933  36.967114     4.0992      7.046    37.5691 1.2381e-01     6.7124      7.704     11.173     9.9165 0.0000e+00
      7.861      0.045     0.0804      0.690     52.991  37.005483     4.1591      7.045    37.3885 1.2372e-01     6.8281      7.709     11.180     9.9164 0.0000e+00
      7.869      0.048     0.0786      0.680     53.018  37.021544     4.1881      7.042    37.3575 1.2368e-01     6.8457      7.714     11.188     9.9166 0.0000e+00
      7.883      0.049     0.0796      0.662     53.040  37.034473     4.1755      7.039    37.4522 1.2371e-01     6.8227      7.729     11.210     9.9168 0.0000e+00
      7.902      0.049     0.0767      0.639     53.044  37.034963     4.0733      7.037    37.6729 1.2371e-01     6.8579      7.751     11.241     9.9165 0.0000e+00
      7.920      0.048     0.0796      0.631     53.035  37.027474     3.8932      7.034    38.0469 1.2375e-01     6.8950      7.770     11.269     9.9152 0.0000e+00
      7.932      0.044     0.0764      0.639     53.098  37.070749     3.7950      7.032    38.1024 1.2382e-01     6.8958      7.781     11.285     9.9121 0.0000e+00
      7.938      0.038     0.0757      0.631     53.161  37.114279     3.7768      7.029    37.8277 1.2385e-01     6.8676      7.785     11.291     9.9087 0.0000e+00
      7.944      0.033     0.0717      0.626     53.156  37.109868     3.7405      7.027    37.6514 1.2385e-01     6.7931      7.789     11.297     9.9065 0.0000e+00
      7.952      0.030     0.0695      0.641     53.208  37.144250     3.6810      7.024    37.6052 1.2388e-01     6.7465      7.797     11.309     9.9056 0.0000e+00
      7.961      0.032     0.0747      0.661     53.308  37.212900     3.6308      7.022    37.6132 1.2385e-01     6.7149      7.808     11.325     9.9057 0.0000e+00
      7.967      0.037     0.0705      0.665     53.352  37.242306     3.6167      7.021    37.5758 1.2377e-01     6.6491      7.814     11.333     9.9058 0.0000e+00
      7.972      0.042     0.0700      0.661     53.361  37.246124     3.6178      7.018    37.4112 1.2380e-01     6.5997      7.815     11.334     9.9046 0.0000e+00
      7.983      0.046     0.0715      0.651     53.384  37.259061     3.6360      7.014    37.2585 1.2387e-01     6.5960      7.826     11.351     9.9022 0.0000e+00
      8.001      0.050     0.0767      0.638     53.406  37.271882     3.6870      7.011    37.1919 1.2381e-01     6.6395      7.846     11.382     9.9011 0.0000e+00
      8.018      0.052     0.0749      0.633     53.411  37.274305     3.7275      7.009    37.1221 1.2371e-01     6.6466      7.865     11.407     9.9009 0.0000e+00
      8.032      0.052     0.0748      0.620     53.432  37.288356     3.7337      7.008    37.0164 1.2369e-01     6.6134      7.878     11.425     9.8980 0.0000e+00
      8.043      0.049     0.0750      0.618     53.472  37.314933     3.6952      7.005    36.9472 1.2369e-01     6.6480      7.888     11.441     9.8945 0.0000e+00
      8.054      0.045     0.0702      0.632     53.513  37.341971     3.6286      7.002    36.8879 1.2375e-01     6.7575      7.898     11.455     9.8924 0.0000e+00
      8.067      0.043     0.0734      0.626     53.543  37.361588     3.6022      7.000    36.8155 1.2386e-01     6.8441      7.911     11.473     9.8915 0.0000e+00
      8.078      0.043     0.0692      0.616     53.635  37.425287     3.6180      6.998    36.6735 1.2386e-01     6.8421      7.924     11.492     9.8911 0.0000e+00
      8.085      0.045     0.0683      0.628     53.803  37.541375     3.6447      6.996    36.4625 1.2381e-01     6.8009      7.929     11.500     9.8896 0.0000e+00
      8.093      0.047     0.0738      0.644     53.923  37.623664     3.6748      6.995    36.4147 1.2377e-01     6.7909      7.934     11.508     9.8881 0.0000e+00
      8.108      0.047     0.0709      0.641     53.975  37.659195     3.6904      6.994    36.5259 1.2372e-01     6.8233      7.950     11.531     9.8870 0.0000e+00
      8.126      0.047     0.0681      0.613     53.969  37.653883     3.7007      6.991    36.6026 1.2375e-01     6.8849      7.971     11.561     9.8863 0.0000e+00
      8.139      0.045     0.0709      0.599     53.924  37.622861     3.6917      6.989    36.6533 1.2379e-01     6.9548      7.984     11.579     9.8855 0.0000e+00
      8.148      0.042     0.0736      0.619     53.892  37.601215     3.6389      6.988    36.7947 1.2377e-01     7.0193      7.990     11.588     9.8841 0.0000e+00
      8.158      0.040     0.0745      0.625     53.954  37.645840     3.6043      6.987    36.9361 1.2375e-01     7.0848      8.001     11.603     9.8831 0.0000e+00
      8.167      0.040     0.0687      0.604     54.328  37.908739     3.6061      6.985    36.9855 1.2374e-01     7.1311      8.011     11.618     9.8828 0.0000e+00
      8.173      0.043     0.0650      0.588     54.806  38.243075     3.5931      6.983    37.0480 1.2379e-01     7.0664      8.014     11.624     9.8830 0.0000e+00
      8.181      0.045     0.0715      0.590     54.926  38.326981     3.5637      6.982    37.0034 1.2389e-01     6.9177      8.020     11.632     9.8833 0.0000e+00
      8.196      0.048     0.0724      0.594     55.049  38.415882     3.5430      6.980    36.7899 1.2388e-01     6.8368      8.036     11.655     9.8844 0.0000e+00
      8.215      0.052     0.0676      0.595     55.608  38.810588     3.5428      6.978    36.6188 1.2382e-01     6.8736      8.059     11.689     9.8863 0.0000e+00
      8.229      0.055     0.0655      0.597     56.208  39.230563     3.5524      6.976    36.5691 1.2381e-01     6.9185      8.073     11.710     9.8872 0.0000e+00
      8.238      0.053     0.0670      0.608     56.412  39.371233     3.5849      6.973    36.6190 1.2383e-01     6.9700      8.076     11.713     9.8862 0.0000e+00
      8.251      0.047     0.0675      0.639     56.321  39.306356     3.6356      6.970    36.6199 1.2390e-01     7.0867      8.089     11.731     9.8886 0.0000e+00
      8.269      0.042     0.0671      0.665     56.541  39.460932     3.6495      6.968    36.4082 1.2393e-01     7.0995      8.112     11.765     9.8956 0.0000e+00
      8.283      0.042     0.0677      0.670     57.269  39.971670     3.6437      6.967    36.1233 1.2386e-01     7.0569      8.128     11.788     9.8967 0.0000e+00
      8.286      0.043     0.0669      0.655     57.800  40.344134     3.6161      6.965    35.9286 1.2376e-01     7.1179      8.127     11.787     9.8927 0.0000e+00
      8.289      0.042     0.0731      0.630     57.810  40.349049     3.5489      6.963    35.7751 1.2375e-01     7.1883      8.123     11.782     9.8914 0.0000e+00
      8.301      0.039     0.0762      0.612     57.631  40.221379     3.5050      6.961    35.6441 1.2377e-01     7.1561      8.137     11.802     9.8929 0.0000e+00
      8.320      0.035     0.0765      0.592     57.505  40.132472     3.4929      6.959    35.5498 1.2371e-01     7.0706      8.161     11.837     9.8963 0.0000e+00
      8.335      0.032     0.0749      0.585     57.365  40.035202     3.4525      6.957    35.4085 1.2370e-01     7.0089      8.177     11.861     9.8980 0.0000e+00
      8.341      0.027     0.0700      0.592     57.127  39.869857     3.3831      6.955    35.2270 1.2380e-01     6.9561      8.181     11.865     9.8955 0.0000e+00
      8.341      0.020     0.0706      0.594     57.002  39.782396     3.3450      6.952    35.0754 1.2384e-01     6.9446      8.178     11.862     9.8928 0.0000e+00
      8.342      0.014     0.0658      0.596     57.031  39.802260     3.3332      6.950    34.9521 1.2385e-01     6.9038      8.180     11.865     9.8922 0.0000e+00
      8.345      0.010     0.0651      0.599     56.926  39.729477     3.2813      6.949    34.8553 1.2384e-01     6.8043      8.184     11.870     9.8930 0.0000e+00
      8.348      0.009     0.0682      0.605     56.650  39.536635     3.1999      6.948    34.7654 1.2374e-01     6.8006      8.186     11.873     9.8933 0.0000e+00
      8.352      0.009     0.0665      0.615     56.505  39.436825     3.1574      6.946    34.7259 1.2363e-01     6.8931      8.190     11.879     9.8930 0.0000e+00
      8.355      0.008     0.0678      0.620     56.557  39.474061     3.1504      6.944    34.8074 1.2358e-01     6.9665      8.194     11.886     9.8932 0.0000e+00
      8.356      0.008     0.0677      0.617     56.563  39.479450     3.1479      6.944    34.8894 1.2366e-01     6.9366      8.195     11.887     9.8933 0.0000e+00
      8.357      0.009     0.0678      0.612     56.502  39.438565     3.1439      6.943    34.7714 1.2381e-01     6.8390      8.194     11.885     9.8932 0.0000e+00
      8.358      0.014     0.0702      0.626     56.567  39.487118     3.1443      6.942    34.4996 1.2390e-01     6.8102      8.196     11.887     9.8942 0.0000e+00
      8.359      0.023     0.0701      0.639     57.209  39.939662     3.1519      6.940    34.2701 1.2389e-01     6.8623      8.197     11.889     9.8957 0.0000e+00
      8.363      0.035     0.0706      0.629     59.055  41.231457     3.1528      6.938    34.1480 1.2384e-01     6.8885      8.200     11.893     9.8961 0.0000e+00
      8.373      0.049     0.0676      0.623     61.579  42.990923     3.1554      6.936    34.1419 1.2379e-01     6.8536      8.208     11.905     9.8980 0.0000e+00
      8.389      0.060     0.0703      0.611     63.336  44.213083     3.1666      6.935    34.1967 1.2377e-01     6.8165      8.224     11.929     9.8999 0.0000e+00
      8.410      0.070     0.0749      0.586     63.971  44.653332     3.1800      6.933    34.1211 1.2377e-01     6.8153      8.247     11.961     9.9046 0.0000e+00
      8.433      0.077     0.0694      0.581     64.036  44.697855     3.2006      6.930    33.9159 1.2377e-01     6.8724      8.271     11.996     9.9100 0.0000e+00
      8.455      0.080     0.0712      0.595     63.933  44.624518     3.2327      6.926    33.6959 1.2373e-01     6.9267      8.292     12.029     9.9058 0.0000e+00
      8.474      0.079     0.0707      0.603     63.889  44.591364     3.2602      6.924    33.5259 1.2375e-01     6.8914      8.310     12.053     9.9001 0.0000e+00
      8.494      0.075     0.0643      0.598     63.927  44.614203     3.2578      6.921    33.4948 1.2376e-01     6.8214      8.328     12.079     9.8990 0.0000e+00
      8.515      0.071     0.0651      0.591     64.068  44.710331     3.2460      6.918    33.4058 1.2373e-01     6.8315      8.351     12.112     9.8987 0.0000e+00
      8.533      0.068     0.0678      0.597     64.565  45.055781     3.2423      6.914    33.0525 1.2373e-01     6.9116      8.371     12.141     9.8977 0.0000e+00
      8.548      0.066     0.0687      0.612     65.375  45.618862     3.2293      6.910    32.4062 1.2374e-01     6.9358      8.383     12.159     9.8953 0.0000e+00
      8.562      0.063     0.0680      0.616     66.102  46.125773     3.2056      6.906    31.6993 1.2374e-01     6.8854      8.395     12.175     9.8927 0.0000e+00
      8.579      0.059     0.0658      0.593     66.715  46.553314     3.1810      6.904    31.3891 1.2378e-01     6.8487      8.412     12.201     9.8906 0.0000e+00
      8.597      0.059     0.0670      0.569     67.510  47.108307     3.1644      6.903    31.3234 1.2380e-01     6.8675      8.432     12.230     9.8891 0.0000e+00
      8.612      0.061     0.0697      0.572     68.715  47.950601     3.1544      6.900    31.0768 1.2382e-01     6.9075      8.447     12.252     9.8878 0.0000e+00
      8.623      0.063     0.0714      0.586     70.211  48.996387     3.1444      6.896    30.7299 1.2382e-01     6.9230      8.455     12.263     9.8871 0.0000e+00
      8.636      0.065     0.0674      0.599     71.438  49.854045     3.1427      6.893    30.4844 1.2377e-01     6.8840      8.465     12.279     9.8874 0.0000e+00
      8.655      0.067     0.0621      0.601     72.022  50.261565     3.1595      6.888    30.2598 1.2376e-01     6.7773      8.487     12.310     9.8877 0.0000e+00
      8.676      0.068     0.0650      0.595     72.181  50.370046     3.1889      6.884    30.0794 1.2377e-01     6.6908      8.510     12.343     9.8883 0.0000e+00
      8.695      0.067     0.0658      0.592     72.236  50.404163     3.2069      6.882    29.7656 1.2380e-01     6.6932      8.526     12.366     9.8897 0.0000e+00
      8.713      0.065     0.0685      0.594     72.447  50.547147     3.2019      6.879    29.0463 1.2384e-01     6.7035      8.545     12.393     9.8911 0.0000e+00
      8.730      0.064     0.0685      0.594     73.131  51.020017     3.1949      6.874    28.3527 1.2382e-01     6.6450      8.564     12.421     9.8915 0.0000e+00
      8.743      0.064     0.0669      0.589     74.084  51.679282     3.2147      6.869    28.0899 1.2373e-01     6.4974      8.575     12.437     9.8893 0.0000e+00
      8.754      0.063     0.0668      0.591     74.620  52.045087     3.2581      6.865    28.1065 1.2364e-01     6.3543      8.582     12.446     9.8857 0.0000e+00
      8.770      0.060     0.0672      0.601     74.680  52.079358     3.2871      6.862    27.7785 1.2364e-01     6.3151      8.597     12.468     9.8831 0.0000e+00
      8.792      0.058     0.0680      0.611     74.710  52.093639     3.3075      6.859    27.0501 1.2371e-01     6.3310      8.623     12.507     9.8810 0.0000e+00
      8.812      0.058     0.0658      0.610     74.622  52.027359     3.3715      6.856    26.4404 1.2378e-01     6.3071      8.645     12.538     9.8772 0.0000e+00
      8.822      0.061     0.0668      0.591     75.193  52.420321     3.4530      6.851    25.8270 1.2381e-01     6.1973      8.654     12.550     9.8711 0.0000e+00
      8.830      0.062     0.0675      0.564     76.821  53.544434     3.4855      6.847    25.3990 1.2382e-01     6.0969      8.657     12.556     9.8650 0.0000e+00
      8.842      0.061     0.0700      0.553     77.776  54.194674     3.4891      6.843    25.5661 1.2383e-01     6.0836      8.667     12.571     9.8613 0.0000e+00
      8.862      0.060     0.0696      0.559     78.156  54.443337     3.4884      6.840    25.6111 1.2378e-01     6.1050      8.688     12.603     9.8586 0.0000e+00
      8.886      0.062     0.0677      0.555     78.829  54.900642     3.4856      6.837    24.9104 1.2374e-01     6.1163      8.717     12.643     9.8558 0.0000e+00
      8.904      0.063     0.0632      0.549     79.113  55.090353     3.4961      6.834    24.2351 1.2375e-01     6.1177      8.736     12.670     9.8501 0.0000e+00
      8.914      0.063     0.0609      0.557     79.298  55.213791     3.5085      6.832    23.9858 1.2377e-01     6.0879      8.741     12.678     9.8376 0.0000e+00
      8.925      0.060     0.0649      0.572     80.083  55.758358     3.5523      6.830    23.6168 1.2373e-01     6.0292      8.749     12.689     9.8261 0.0000e+00
      8.942      0.059     0.0626      0.585     81.563  56.787007     3.6509      6.828    22.9572 1.2364e-01     6.0224      8.768     12.717     9.8198 0.0000e+00
      8.960      0.063     0.0616      0.594     83.225  57.938798     3.7268      6.826    22.2903 1.2366e-01     6.0399      8.789     12.748     9.8140 0.0000e+00
      8.974      0.069     0.0627      0.593     84.517  58.829283     3.7452      6.825    22.0070 1.2376e-01     6.0016      8.801     12.765     9.8111 0.0000e+00
      8.989      0.072     0.0652      0.582     85.392  59.427781     3.7493      6.822    21.9408 1.2377e-01     5.8671      8.812     12.782     9.8104 0.0000e+00
      9.010      0.071     0.0663      0.582     85.635  59.588313     3.7597      6.818    21.5763 1.2376e-01     5.6774      8.833     12.812     9.8101 0.0000e+00
      9.035      0.069     0.0673      0.591     86.245  60.008447     3.7622      6.815    20.9554 1.2384e-01     5.5865      8.861     12.852     9.8075 0.0000e+00
      9.056      0.066     0.0685      0.604     87.786  61.078959     3.7628      6.813    20.4556 1.2391e-01     5.5888      8.885     12.886     9.8010 0.0000e+00
      9.069      0.061     0.0647      0.613     88.466  61.547697     3.7924      6.811    19.8351 1.2392e-01     5.4663      8.895     12.902     9.7942 0.0000e+00
      9.079      0.054     0.0660      0.600     88.385  61.485491     3.8294      6.810    18.8740 1.2392e-01     5.1630      8.901     12.909     9.7888 0.0000e+00
      9.092      0.049     0.0667      0.578     90.467  62.930072     3.8439      6.808    17.8690 1.2385e-01     4.9280      8.916     12.931     9.7862 0.0000e+00
      9.106      0.050     0.0682      0.572     96.252  66.948787     3.8427      6.805    17.0615 1.2380e-01     4.8796      8.932     12.955     9.7870 0.0000e+00
      9.114      0.055     0.0712      0.575    102.117  71.017003     3.8315      6.801    16.6829 1.2383e-01     4.9193      8.938     12.964     9.7843 0.0000e+00
      9.123      0.061     0.0683      0.571    103.425  71.913103     3.8248      6.798    16.1304 1.2385e-01     4.9635      8.942     12.970     9.7790 0.0000e+00
      9.140      0.063     0.0646      0.566    102.382  71.178325     3.8273      6.796    15.1987 1.2379e-01     5.0042      8.960     12.996     9.7786 0.0000e+00
      9.164      0.063     0.0642      0.571    102.627  71.344301     3.8378      6.794    14.6245 1.2367e-01     5.0362      8.988     13.036     9.7773 0.0000e+00
      9.186      0.062     0.0661      0.581    104.140  72.395398     3.8508      6.790    13.7479 1.2367e-01     5.0424      9.011     13.069     9.7706 0.0000e+00
      9.204      0.061     0.0649      0.578    108.335  75.310837     3.8606      6.785    12.1717 1.2376e-01     5.0105      9.027     13.093     9.7622 0.0000e+00
      9.215      0.058     0.0635      0.566    114.950  79.907945     3.8728      6.784    10.9675 1.2381e-01     4.9246      9.039     13.110     9.7574 0.0000e+00
      9.222      0.055     0.0644      0.566    119.384  82.988279     3.8895      6.782    10.3732 1.2383e-01     4.8915      9.042     13.114     9.7566 0.0000e+00
      9.232      0.054     0.0669      0.569    120.507  83.766156     3.9218      6.778     9.6326 1.2384e-01     4.9516      9.048     13.122     9.7561 0.0000e+00
      9.250      0.055     0.0665      0.579    120.810  83.974079     4.0631      6.774     8.5513 1.2382e-01     4.9007      9.072     13.157     9.7558 0.0000e+00
      9.270      0.059     0.0627      0.595    121.458  84.421639     4.3002      6.772     7.6243 1.2376e-01     4.6861      9.095     13.192     9.7555 0.0000e+00
      9.284      0.063     0.0648      0.591    122.816  85.363569     4.4322      6.770     6.7702 1.2375e-01     4.5421      9.106     13.207     9.7548 0.0000e+00
      9.296      0.065     0.0644      0.580    124.677  86.653859     4.4439      6.767     5.7955 1.2377e-01     4.4924      9.115     13.220     9.7536 0.0000e+00
      9.311      0.063     0.0644      0.585    125.630  87.308045     4.4507      6.766     5.3036 1.2377e-01     4.3932      9.130     13.241     9.7522 0.0000e+00
      9.331      0.060     0.0694      0.589    125.265  87.043099     4.4730      6.765     5.2112 1.2377e-01     4.2647      9.149     13.271     9.7511 0.0000e+00
      9.351      0.056     0.0672      0.582    124.766  86.692754     4.4971      6.763     4.6785 1.2375e-01     4.2368      9.171     13.302     9.7503 0.0000e+00
      9.368      0.051     0.0646      0.577    124.489  86.505139     4.5168      6.762     4.1974 1.2373e-01     4.2938      9.188     13.326     9.7500 0.0000e+00
      9.379      0.044     0.0664      0.573    124.183  86.300426     4.5031      6.762     4.1262 1.2370e-01     4.3049      9.198     13.341     9.7464 0.0000e+00
      9.386      0.035     0.0678      0.569    123.923  86.124780     4.4563      6.762     3.6450 1.2368e-01     4.2695      9.204     13.349     9.7399 0.0000e+00
      9.392      0.028     0.0656      0.572    123.881  86.097877     4.4255      6.762     3.1114 1.2371e-01     4.2416      9.210     13.358     9.7380 0.0000e+00
      9.399      0.023     0.0652      0.576    124.068  86.229427     4.4059      6.762     3.1813 1.2374e-01     4.2406      9.217     13.368     9.7418 0.0000e+00
      9.404      0.020     0.0654      0.577    123.550  85.871751     4.2441      6.762     3.0276 1.2376e-01     4.3596      9.222     13.376     9.7455 0.0000e+00
      9.408      0.019     0.0637      0.572    122.128  84.888113     3.9501      6.762     1.9412 1.2378e-01     4.5881      9.226     13.381     9.7474 0.0000e+00
      9.411      0.018     0.0653      0.566    121.293  84.316774     3.7979      6.761     0.3711 1.2379e-01     4.7150      9.229     13.386     9.7479 0.0000e+00
      9.416      0.018     0.0652      0.556    121.717  84.621420     3.7939      6.761    -1.1589 1.2381e-01     4.7320      9.234     13.392     9.7485 0.0000e+00
      9.421      0.018     0.0661      0.551    122.543  85.202467     3.7432      6.761    -2.7912 1.2379e-01     4.7940      9.239     13.400     9.7493 0.0000e+00
      9.426      0.018     0.0649      0.573    123.141  85.621042     3.6257      6.761    -4.7380 1.2374e-01     4.8830      9.244     13.407     9.7504 0.0000e+00
      9.431      0.018     0.0639      0.587    125.232  87.076069     3.5468      6.760    -6.4574 1.2373e-01     4.9204      9.248     13.414     9.7549 0.0000e+00
      9.435      0.019     0.0640      0.577    140.521  97.709255     3.5299      6.760    -8.0928 1.2378e-01     4.9387      9.253     13.420     9.7600 0.0000e+00
      9.439      0.020     0.0597      0.577    175.505 122.051999     3.5303      6.759    -9.5411 1.2377e-01     4.9331      9.257     13.426     9.7624 0.0000e+00
      9.444      0.022     0.0660      0.582    209.205 145.537602     3.5188      6.758   -10.0298 1.2367e-01     4.9897      9.260     13.432     9.7635 0.0000e+00
      9.450      0.024     0.0687      0.580    225.846 157.189772     3.4906      6.756   -10.6468 1.2367e-01     5.1450      9.266     13.440     9.7638 0.0000e+00
      9.456      0.025     0.0637      0.571    235.134 163.732070     3.4799      6.755   -12.1818 1.2376e-01     5.2051      9.273     13.449     9.7630 0.0000e+00
      9.463      0.025     0.0658      0.559    245.445 170.976726     3.4902      6.752   -13.7908 1.2382e-01     5.1700      9.280     13.460     9.7647 0.0000e+00
      9.471      0.024     0.0662      0.554    255.021 177.700056     3.5399      6.751   -14.7861 1.2382e-01     5.2666      9.288     13.471     9.7775 0.0000e+00
      9.478      0.020     0.0661      0.558    261.507 182.262623     3.6234      6.750   -15.6122 1.2380e-01     5.4169      9.295     13.482     9.7982 0.0000e+00
      9.484      0.013     0.0650      0.564    265.953 185.397868     3.6588      6.748   -17.1543 1.2379e-01     5.4154      9.301     13.490     9.8155 0.0000e+00
      9.488      0.001     0.0627      0.571    269.476 187.884792     3.6518      6.746   -19.0630 1.2378e-01     5.3511      9.304     13.495     9.8281 0.0000e+00
      9.489     -0.017     0.0624      0.581    271.879 189.588207     3.6967      6.745   -20.1054 1.2383e-01     5.1864      9.306     13.498     9.8385 0.0000e+00
      9.487     -0.049     0.0632      0.583    273.928 191.042877     3.7939      6.746   -20.3804 1.2388e-01     4.9607      9.307     13.497     9.8464 0.0000e+00
      9.478     -0.100     0.0639      0.579    276.351 192.757084     3.8527      6.752   -20.8390 1.2385e-01     4.8768      9.298     13.485     9.8532 0.0000e+00
      9.459     -0.170     0.0641      0.574    278.770 194.466328     3.8590      6.762   -21.4340 1.2382e-01     4.8901      9.279     13.458     9.8591 0.0000e+00
      9.424     -0.248     0.0664      0.561    280.830 195.923741     3.7364      6.772   -22.0677 1.2382e-01     5.0875      9.253     13.420     9.8640 0.0000e+00
      9.354     -0.325     0.0662      0.546    282.560 197.148411     3.4944      6.781   -22.6513 1.2384e-01     5.4520      9.193     13.333     9.8688 0.0000e+00
      9.240     -0.394     0.0652      0.546    284.068 198.215898     3.3633      6.791   -22.8972 1.2384e-01     5.6425      9.068     13.152     9.8733 0.0000e+00
      9.105     -0.449     0.0653      0.547    285.427 199.178470     3.3491      6.803   -22.9758 1.2377e-01     5.6829      8.923     12.941     9.8771 0.0000e+00
      8.973     -0.487     0.0638      0.535    286.718 200.093006     3.2986      6.816   -22.6552 1.2371e-01     5.8035      8.800     12.763     9.8807 0.0000e+00
      8.845     -0.507     0.0604      0.528    287.855 200.898928     3.2098      6.830   -21.7743 1.2373e-01     6.0077      8.673     12.581     9.8838 0.0000e+00
      8.719     -0.513     0.0615      0.533    288.809 201.570835     3.1658      6.843   -21.1010 1.2376e-01     6.1363      8.548     12.398     9.8865 0.0000e+00
      8.593     -0.512     0.0633      0.540    289.821 202.271235     3.1585      6.854   -20.7955 1.2372e-01     6.1638      8.432     12.230     9.8890 0.0000e+00
      8.458     -0.511     0.0596      0.540    290.934 203.037799     3.0970      6.866   -20.4029 1.2369e-01     6.2717      8.296     12.033     9.8913 0.0000e+00
      8.319     -0.509     0.0593      0.533    291.764 203.614358     2.9874      6.877   -20.1401 1.2369e-01     6.4157      8.153     11.825     9.8937 0.0000e+00
      8.188     -0.508     0.0601      0.525    290.201 202.528704     2.9230      6.887   -19.9411 1.2368e-01     6.4358      8.029     11.646     9.8956 0.0000e+00
      8.063     -0.509     0.0614      0.514    280.631 195.856990     2.9097      6.896   -19.5453 1.2371e-01     6.4131      7.908     11.469     9.8939 0.0000e+00
      7.940     -0.513     0.0615      0.518    259.578 181.172068     2.8682      6.906   -19.2261 1.2381e-01     6.4140      7.786     11.293     9.8911 0.0000e+00
      7.815     -0.523     0.0597      0.534    229.543 160.217280     2.7887      6.915   -18.9215 1.2384e-01     6.4121      7.670     11.123     9.8909 0.0000e+00
      7.681     -0.534     0.0601      0.538    186.390 130.104718     2.7383      6.924   -18.4435 1.2375e-01     6.3910      7.536     10.929     9.8920 0.0000e+00
      7.541     -0.543     0.0573      0.528    127.637  89.103738     2.7258      6.934   -17.9211 1.2370e-01     6.3296      7.396     10.727     9.8935 0.0000e+00
      7.394     -0.549     0.0575      0.530     76.910  53.711109     2.6542      6.943   -17.4232 1.2378e-01     6.2507      7.256     10.523     9.8951 0.0000e+00
      7.242     -0.554     0.0614      0.547     54.707  38.240055     2.5211      6.951   -16.8968 1.2383e-01     6.1880      7.096     10.292     9.8970 0.0000e+00
      7.102     -0.554     0.0617      0.562     50.267  35.173301     2.4565      6.957   -16.3751 1.2384e-01     6.1866      6.958     10.091     9.8990 0.0000e+00
      6.972     -0.550     0.0588      0.569     49.375  34.579152     2.4475      6.962   -15.8466 1.2382e-01     6.1997      6.845      9.929     9.9021 0.0000e+00
      6.835     -0.542     0.0591      0.586     48.934  34.290234     2.4209      6.967   -15.1537 1.2379e-01     6.2092      6.704      9.724     9.9167 0.0000e+00
      6.691     -0.533     0.0620      0.654     48.810  34.216401     2.3927      6.971   -14.2785 1.2378e-01     6.2332      6.557      9.510     9.9482 0.0000e+00
      6.550     -0.531     0.0640      0.794     48.947  34.320557     2.3803      6.975   -13.4379 1.2376e-01     6.2163      6.425      9.318     9.9865 0.0000e+00
      6.414     -0.534     0.0643      1.006     48.883  34.281418     2.3801      6.978   -12.8204 1.2374e-01     6.2100      6.285      9.115    10.0184 0.0000e+00
      6.289     -0.536     0.0635      1.259     48.651  34.123635     2.3482      6.981   -12.4901 1.2377e-01     6.1911      6.165      8.941    10.0377 0.0000e+00
      6.164     -0.534     0.0712      1.517     48.553  34.061450     2.2779      6.986   -12.1980 1.2378e-01     6.1248      6.056      8.784    10.0498 0.0000e+00
      6.020     -0.528     0.0859      1.767     48.596  34.100226     2.2371      6.990   -11.3532 1.2380e-01     6.0915      5.907      8.567    10.0580 0.0000e+00
      5.869     -0.520     0.1117      1.995     48.652  34.148628     2.2391      6.992   -10.2773 1.2398e-01     6.0951      5.749      8.338    10.0623 0.0000e+00
      5.729     -0.516     0.1425      2.185     48.717  34.202837     2.2431      6.994    -9.7719 1.2582e-01     6.1010      5.615      8.143    10.0669 0.0000e+00
      5.603     -0.515     0.1706      2.325     48.950  34.375217     2.2105      6.996    -9.6304 1.2811e-01     5.9923      5.487      7.958    10.0740 0.0000e+00
      5.492     -0.514     0.2001      2.423     49.225  34.584240     2.1528      6.997    -9.6851 1.3036e-01     5.8060      5.387      7.813    10.0832 0.0000e+00
      5.377     -0.516     0.2260      2.490     49.358  34.701035     2.1364      7.000   -10.0035 1.4291e-01     5.7266      5.287      7.668    10.0926 0.0000e+00
      5.237     -0.523     0.2484      2.525     49.602  34.899673     2.1453      7.001    -9.9528 1.7130e-01     5.6802      5.136      7.451    10.1014 0.0000e+00
      5.087     -0.531     0.2635      2.520     49.914  35.147082     2.1025      7.001    -9.5020 2.0612e-01     5.2794      4.983      7.228    10.1079 0.0000e+00
      4.944     -0.539     0.2737      2.485     50.067  35.282856     2.0184      7.000    -9.3714 2.3867e-01     4.6048      4.849      7.033    10.1223 0.0000e+00
      4.805     -0.542     0.2812      2.439     50.377  35.526752     1.9773      6.999    -9.4921 2.7236e-01     4.2872      4.709      6.829    10.1502 0.0000e+00
      4.674     -0.537     0.2855      2.369     50.930  35.939998     1.9798      6.998    -9.7567 3.0562e-01     4.2742      4.583      6.646    10.1773 0.0000e+00
      4.544     -0.532     0.2847      2.270     51.560  36.411208     1.8996      6.998   -10.3342 3.3020e-01     3.9348      4.462      6.472    10.2041 0.0000e+00
      4.405     -0.527     0.2783      2.149     52.313  36.975345     1.7393      6.996   -10.7961 3.5313e-01     3.2924      4.318      6.263    10.2354 0.0000e+00
      4.268     -0.523     0.2751      2.013     52.637  37.243721     1.6562      6.993   -11.1251 3.8255e-01     2.9965      4.183      6.068    10.2593 0.0000e+00
      4.133     -0.522     0.2667      1.881     52.499  37.182914     1.6523      6.991   -11.8176 4.1782e-01     3.0565      4.055      5.882    10.2796 0.0000e+00
      3.999     -0.523     0.2552      1.749     53.009  37.571962     1.5668      6.990   -12.6295 4.6092e-01     2.9585      3.915      5.680    10.3061 0.0000e+00
      3.874     -0.523     0.2418      1.619     54.122  38.396188     1.3803      6.989   -13.3708 5.1466e-01     2.6318      3.797      5.509    10.3340 0.0000e+00
      3.748     -0.522     0.2243      1.499     54.748  38.903953     1.2618      6.987   -14.4128 5.7888e-01     2.3853      3.685      5.344    10.3743 0.0000e+00
      3.609     -0.519     0.2105      1.386     54.701  38.954792     1.2416      6.986   -15.6787 6.5536e-01     2.3009      3.541      5.134    10.4189 0.0000e+00
      3.467     -0.514     0.1955      1.274     54.480  38.884126     1.2858      6.986   -17.0602 7.4300e-01     2.2272      3.396      4.925    10.4342 0.0000e+00
      3.332     -0.511     0.1801      1.174     54.272  38.810718     1.3878      6.987   -18.3829 8.4074e-01     2.1775      3.268      4.739    10.4555 0.0000e+00
      3.204     -0.507     0.1669      1.082     53.759  38.511273     1.4432      6.988   -18.9381 9.4830e-01     2.1777      3.137      4.550    10.5215 0.0000e+00
      3.085     -0.502     0.1546      1.002     52.965  38.054166     1.4309      6.990   -19.0404 1.0670e+00     2.1608      3.023      4.385    10.6052 0.0000e+00
      2.967     -0.497     0.1407      0.941     52.413  37.850328     1.4228      6.992   -19.6196 1.2072e+00     2.2809      2.918      4.233    10.6868 0.0000e+00
      2.835     -0.494     0.1298      0.889     52.061  37.822700     1.4193      6.992   -20.8647 1.3599e+00     2.5707      2.782      4.034    10.7617 0.0000e+00
      2.700     -0.494     0.1199      0.842     51.647  37.720365     1.4059      6.995   -22.0492 1.5288e+00     2.6937      2.641      3.830    10.8034 0.0000e+00
      2.574     -0.499     0.1095      0.798     51.123  37.501098     1.3854      7.000   -22.0679 1.7586e+00     2.6406      2.525      3.661    10.8830 0.0000e+00
      2.452     -0.504     0.1037      0.763     50.072  36.884052     1.3539      7.005   -21.1779 2.0660e+00     2.6455      2.404      3.487    11.0936 0.0000e+00
      2.331     -0.504     0.0968      0.737     48.520  35.967330     1.3336      7.010   -20.2354 2.5164e+00     2.7186      2.286      3.315    11.3418 0.0000e+00
      2.205     -0.503     0.0919      0.712     47.304  35.422297     1.3320      7.014   -19.3626 3.3001e+00     2.7738      2.171      3.148    11.5251 0.0000e+00
      2.065     -0.504     0.0863      0.706     46.615  35.304242     1.3340      7.017   -18.7989 4.4531e+00     2.7327      2.024      2.936    11.6856 0.0000e+00
      1.926     -0.505     0.0818      0.722     46.077  35.237922     1.3320      7.018   -19.1847 5.7919e+00     2.6994      1.879      2.725    11.8075 0.0000e+00
      1.803     -0.509     0.0801      0.762     45.406  35.001285     1.4249      7.020   -19.8977 7.4375e+00     3.2933      1.769      2.566    11.9943 0.0000e+00
      1.683     -0.511     0.0746      0.852     44.302  34.409117     1.6259      7.025   -19.9341 9.7072e+00     4.4142      1.653      2.398    12.4289 0.0000e+00
      1.558     -0.511     0.0739      1.049     42.979  33.721730     1.7396      7.032   -21.0011 1.2992e+01     5.0132      1.528      2.217    12.9025 0.0000e+00
      1.425     -0.515     0.0752      1.435     42.017  33.411738     1.7584      7.041   -23.5923 1.8117e+01     5.1042      1.404      2.036    13.2576 0.0000e+00
      1.285     -0.523     0.0775      2.055     41.287  33.261253     1.8873      7.051   -28.1192 2.5038e+01     5.9589      1.257      1.823    13.5593 0.0000e+00
      1.148     -0.531     0.0850      2.874     40.407  32.917209     2.1248      7.064   -37.7926 3.3552e+01     7.6610      1.120      1.624    13.7971 0.0000e+00
      1.017     -0.537     0.1006      3.855     39.520  32.549363     2.2576      7.088   -48.9209 4.5795e+01     8.6730      1.004      1.456    14.1619 0.0000e+00
      0.882     -0.541     0.1361      5.054     38.712  32.237846     2.2781      7.128   -56.6698 6.2873e+01     8.8353      0.865      1.256    14.7808 0.0000e+00
      0.744     -0.540     0.1989      6.662     37.933  31.940791     2.4304      7.182   -64.8035 8.6621e+01     9.5546      0.728      1.055    15.3257 0.0000e+00
      0.603     -0.538     0.2806      8.906     37.271  31.747751     2.7249      7.242   -75.8530 1.2301e+02    10.9476      0.598      0.867    15.7198 0.0000e+00
      0.456     -0.534     0.3729     11.830     36.786  31.679482     2.8931      7.303   -87.1066 1.7113e+02    11.7761      0.444      0.643    16.1826 0.0000e+00
      0.318     -0.522     0.4794     15.354     36.462  31.686393     2.9165      7.361   -98.9993 2.3319e+02    12.1589      0.304      0.442    16.6463 0.0000e+00
      0.192     -0.505     0.6190     19.428     36.146  31.641487     2.9316      7.420  -112.3556 3.2876e+02    15.0296      0.194      0.281    17.0836 0.0000e+00
      0.063     -0.482     0.8261     23.948     35.798  31.517213     3.2423      7.484  -120.9998 4.2393e+02    46.5546      0.062      0.090    17.5986 0.0000e+00
     -0.062     -0.452     1.0997     28.767     35.962  31.768998     3.8518      7.556  -124.0160 4.5529e+02   104.4044     -0.069     -0.101    18.0954 0.0000e+00
     -0.174     -0.415     1.4201     33.540     37.104  32.720533     4.1925      7.633  -128.4330 4.4120e+02   135.7572     -0.170     -0.247    18.4714 0.0000e+00
     -0.281     -0.371     1.7954     37.528     38.884  33.892318     4.1483      7.708  -133.1915 4.2290e+02   135.8305     -0.275     -0.399    18.7856 0.0000e+00
     -0.380     -0.318     2.2092     39.978     40.864  34.840877     3.0847      7.773  -133.3691 4.0998e+02   104.7778     -0.385     -0.557    19.0511 0.0000e+00
     -0.454     -0.258     2.6515     40.447     42.731  35.501738     1.1042      7.827  -131.5266 4.0230e+02    47.3774     -0.454     -0.657    19.2217 0.0000e+00
     -0.507     -0.198     3.1205     38.830     43.459  35.286933     0.0361      7.867  -131.1333 3.9512e+02    16.1289     -0.497     -0.720    19.2599 0.0000e+00
     -0.551     -0.140     3.5477     35.549     35.467  28.374523    -0.0082      7.898  -131.6249 3.7943e+02    13.5523     -0.547     -0.794    18.8046 0.0000e+00
     -0.577     -0.090     3.8742     31.609     19.136  15.165034     0.3519      7.921  -130.6741 3.5172e+02    15.5752     -0.574     -0.833    17.7045 0.0000e+00
     -0.583     -0.053     4.0245     28.229      9.473   7.440307     1.0019      7.937  -127.9831 3.2223e+02    19.7158     -0.571     -0.829    16.5049 0.0000e+00
     -0.583     -0.027     3.9360     26.345      7.998   6.260512     1.3516      7.948  -125.2441 2.9746e+02    22.6251     -0.571     -0.829    15.5024 0.0000e+00
     -0.582     -0.009     3.6295     26.422      7.629   5.965915     1.4505      7.955  -123.1107 2.8214e+02    30.4608     -0.571     -0.828    14.7414 0.0000e+00
     -0.582     -0.001     3.2108     28.445      7.309   5.714608     2.2150      7.960  -121.2027 2.7667e+02   114.0458     -0.570     -0.827    14.3272 0.0000e+00
     -0.582     -0.000     2.8415     32.038      6.875   5.374763     3.5947      7.963  -119.2974 2.7423e+02   267.1172     -0.571     -0.828    14.1653 0.0000e+00
     -0.582     -0.000     2.6340     36.603      6.750   5.276010     4.3324      7.964  -118.5720 2.8136e+02   349.9707     -0.571     -0.828    14.1113 0.0000e+00
     -0.582     -0.001     2.6454     41.481      7.162   5.596987     4.3092      7.963  -117.9382 3.1953e+02   349.7268     -0.571     -0.829    14.0936 0.0000e+00
     -0.582     -0.001     2.8680     46.112      7.712   6.026487     3.3308      7.960  -115.9358 3.9372e+02   263.3482     -0.571     -0.828    14.0870 0.0000e+00
     -0.582     -0.000     3.2604     50.107      7.970   6.226752     1.5257      7.959  -114.5803 4.8056e+02   103.7429     -0.572     -0.829    14.0839 0.0000e+00
     -0.582 -1.848e-08     3.7559     53.280      7.914   6.182150     0.5532      7.960  -114.1968 5.4806e+02    16.7010     -0.571     -0.829    14.0800 0.0000e+00
     -0.583 -2.032e-07     4.2777     55.607      7.513   5.867118     0.4781      7.961  -113.4495 5.7956e+02     8.8282     -0.572     -0.828    14.0745 0.0000e+00
     -0.583 -2.035e-07     4.7696     57.152      6.746   5.267041     0.4502      7.963  -111.9985 5.8307e+02     7.9047     -0.572     -0.829    14.0679 0.0000e+00
     -0.583 -2.217e-08     5.1875     58.022      5.763   4.498570     0.2826      7.964  -110.2474 5.7825e+02     5.7059     -0.571     -0.828    14.0606 0.0000e+00
     -0.583 -4.235e-08     5.5154     58.399      4.942   3.856806     0.0085      7.967  -109.3121 5.7883e+02     1.9523     -0.571     -0.829    14.0530 0.0000e+00
     -0.583 -4.475e-07     5.7526     58.483      4.758   3.712231    -0.1259      7.969  -108.9497 5.7547e+02    -0.0068     -0.571     -0.828    14.0447 0.0000e+00
     -0.583     -0.000     5.9105     58.402      4.906   3.826855    -0.1266      7.970  -108.6185 5.5097e+02    -0.1845     -0.572     -0.829    14.0355 0.0000e+00
     -0.582      0.000     5.9939     58.264      4.856   3.786549    -0.1331      7.969  -108.2336 5.1562e+02    -0.2307     -0.571     -0.828    14.0259 0.0000e+00
     -0.582     -0.001     6.0251     58.170      4.705   3.668069    -0.1388      7.965  -106.8775 4.9507e+02    -0.1894     -0.571     -0.828    14.0166 0.0000e+00
     -0.583     -0.002     6.0323     58.152      4.616   3.597247    -0.1199      7.961  -105.2140 4.8698e+02    -0.1293     -0.572     -0.829    14.0070 0.0000e+00
     -0.583     -0.002     6.0214     58.206      4.574   3.563363    -0.1130      7.959  -103.6931 4.7544e+02    -0.1537     -0.573     -0.830    13.9965 0.0000e+00
     -0.584     -0.003     6.0040     58.336      4.509   3.511627    -0.1217      7.959  -102.1689 4.5830e+02    -0.2104     -0.572     -0.829    13.9858 0.0000e+00
     -0.585     -0.003     5.9947     58.519      4.223   3.288262    -0.1163      7.959  -100.7230 4.3357e+02    -0.2001     -0.575     -0.834    13.9746 0.0000e+00
     -0.587     -0.002     5.9961     58.731      3.955   3.078521    -0.1145      7.957   -98.1710 4.0702e+02    -0.2006     -0.576     -0.836    13.9631 0.0000e+00
     -0.587     -0.002     6.0012     58.952      4.183   3.254819    -0.1170      7.954   -95.4039 3.9485e+02    -0.2496     -0.575     -0.834    13.9513 0.0000e+00
     -0.587     -0.001     6.0185     59.167      4.689   3.647181    -0.1215      7.950   -93.5936 4.1279e+02    -0.2803     -0.576     -0.835    13.9394 0.0000e+00
     -0.587     -0.000     6.0393     59.387      4.849   3.770663    -0.1351      7.944   -92.2006 4.5722e+02    -0.2638     -0.576     -0.835    13.9274 0.0000e+00
     -0.587 -2.034e-08     6.0634     59.632      4.479   3.481598    -0.1325      7.938   -91.2082 4.8077e+02    -0.2220     -0.575     -0.834    13.9153 0.0000e+00
     -0.587 -2.237e-07     6.0892     59.944      3.944   3.064429    -0.1227      7.934   -90.4562 4.5661e+02    -0.2535     -0.576     -0.835    13.9031 0.0000e+00
     -0.587 -2.237e-07     6.1115     60.336      3.579   2.778563    -0.1166      7.929   -89.1312 4.3308e+02    -0.1998     -0.576     -0.836    13.8904 0.0000e+00
     -0.587 -2.033e-08     6.1366     60.799      3.378   2.620890    -0.0422      7.919   -87.4066 4.5063e+02     0.0516     -0.576     -0.835    13.8777 0.0000e+00
     -0.587 -1.849e-09     6.1606     61.322      3.208   2.487494     0.0855      7.910   -86.1231 4.8268e+02     0.1898     -0.576     -0.835    13.8636 0.0000e+00
     -0.587 -1.694e-10     6.1962     61.833      3.056   2.368530     0.1458      7.920   -84.8841 4.9370e+02     0.1740     -0.576     -0.835    13.8436 0.0000e+00
     -0.586 -3.056e-11     6.2399     62.071      2.997   2.322040     0.1467      7.930   -84.1270 4.9155e+02     0.1670     -0.575     -0.834    13.8190 0.0000e+00
     -0.586 -9.990e-29     6.2929 -9.990e-29 -9.990e-29 -9.990e-29 -9.990e-29 -9.990e-29 -9.990e-29 4.9013e+02 -9.990e-29     -0.575     -0.834    13.7912 0.0000e+00
     -0.587 -9.990e-29     6.3497 -9.990e-29 -9.990e-29 -9.990e-29 -9.990e-29 -9.990e-29 -9.990e-29 4.8636e+02 -9.990e-29     -0.575     -0.834    13.7677 0.0000e+00
     -0.587 -9.990e-29     6.4170 -9.990e-29 -9.990e-29 -9.990e-29 -9.990e-29 -9.990e-29 -9.990e-29 4.8425e+02 -9.990e-29     -0.575     -0.834    13.7440 0.0000e+00
     -0.587 -9.990e-29     6.4595 -9.990e-29 -9.990e-29 -9.990e-29 -9.990e-29 -9.990e-29 -9.990e-29 4.8491e+02 -9.990e-29     -0.576     -0.835    13.7284 0.0000e+00
