* Sea-Bird SBE19plus  Data File:
* FileName = C:\R\Reservoirs\Data\DataNotYetUploadedToEDI\Raw_CTD\RawDownloads\062424_fcr50_S7809_0003.hex
* Software version 2.8.0.119
* Temperature SN = 7809
* Conductivity SN = 7809
* System UpLoad Time = Jun 26 2024 15:02:54
* <ApplicationData>
* <Seaterm232>
* <SoftwareVersion>2.8.0.119</SoftwareVersion>
* <BuildDate>07-Nov-2018</BuildDate>
* </Seaterm232>
* </ApplicationData>
* <InstrumentState>
* <HardwareData DeviceType='SBE19plus' SerialNumber='01907809'>
*
*    <Manufacturer>Sea-Bird Electronics, Inc.</Manufacturer>
*
*    <FirmwareVersion>3.1.8</FirmwareVersion>
*
*    <FirmwareDate>Mar  9 2016 16:22:29</FirmwareDate>
*
*    <CommandSetVersion>1.4</CommandSetVersion>
*
*    <PCBAssembly PCBSerialNum='120721' AssemblyNum='41054J'/>
*
*    <PCBAssembly PCBSerialNum='120715' AssemblyNum='41967A'/>
*
*    <PCBAssembly PCBSerialNum='116699' AssemblyNum='41606'/>
*
*    <PCBAssembly PCBSerialNum='120719' AssemblyNum='41059D'/>
*
*    <MfgDate>28-Apr-2017</MfgDate>
*
*    <InternalSensors>
*
*       <Sensor id='Main Temperature'>
*
*          <type>temperature0</type>
*
*          <SerialNumber>01907809</SerialNumber>
*
*       </Sensor>
*
*       <Sensor id='Main Conductivity'>
*
*          <type>conductivity-0</type>
*
*          <SerialNumber>01907809</SerialNumber>
*
*       </Sensor>
*
*       <Sensor id='Main Pressure'>
*
*          <type>strain-0</type>
*
*          <SerialNumber>10586018</SerialNumber>
*
*       </Sensor>
*
*    </InternalSensors>
*
*    <ExternalSensors>
*
*       <Sensor id='volt 0'>
*
*          <type>pH</type>
*
*          <SerialNumber>27-0363</SerialNumber>
*
*       </Sensor>
*
*       <Sensor id='volt 1'>
*
*          <type>ORP</type>
*
*          <SerialNumber>27-0363</SerialNumber>
*
*       </Sensor>
*
*       <Sensor id='volt 2'>
*
*          <type>OXY</type>
*
*          <SerialNumber>43-0434</SerialNumber>
*
*       </Sensor>
*
*       <Sensor id='volt 3'>
*
*          <type>PAR</type>
*
*          <SerialNumber>1122</SerialNumber>
*
*       </Sensor>
*
*       <Sensor id='volt 4'>
*
*          <type>ECO AFL/FL</type>
*
*          <SerialNumber>FLNTURT-2496</SerialNumber>
*
*       </Sensor>
*
*       <Sensor id='volt 5'>
*
*          <type>ECO-NTU</type>
*
*          <SerialNumber>FLNTURT-2496</SerialNumber>
*
*       </Sensor>
*
*       <Sensor id='serial'>
*
*          <type>not assigned</type>
*
*          <SerialNumber>not assigned</SerialNumber>
*
*       </Sensor>
*
*    </ExternalSensors>
*
* </HardwareData>
* <StatusData DeviceType='SBE19plus' SerialNumber='01907809'>
*
*    <DateTime>2024-06-26T14:59:31</DateTime>
*
*    <LoggingState>not logging</LoggingState>
*
*    <EventSummary numEvents='0'/>
*
*    <Power>
*
*       <vMain>12.6</vMain>
*
*       <vLith>8.4</vLith>
*
*       <iMain>63.1</iMain>
*
*       <iPump>156.4</iPump>
*
*       <iExt01>20.4</iExt01>
*
*       <iExt2345>38.2</iExt2345>
*
*    </Power>
*
*    <MemorySummary>
*
*       <Bytes>230920</Bytes>
*
*       <Samples>10040</Samples>
*
*       <SamplesFree>2850748</SamplesFree>
*
*       <SampleLength>23</SampleLength>
*
*       <Profiles>5</Profiles>
*
*    </MemorySummary>
*
* </StatusData>
* <ConfigurationData DeviceType='SBE19plus' SerialNumber='01907809'>
*
*    <ProfileMode>
*
*       <ScansToAverage>1</ScansToAverage>
*
*       <MinimumCondFreq>0</MinimumCondFreq>
*
*       <PumpDelay>45</PumpDelay>
*
*       <AutoRun>no</AutoRun>
*
*       <IgnoreSwitch>no</IgnoreSwitch>
*
*    </ProfileMode>
*
*    <Battery>
*
*       <Type>alkaline</Type>
*
*       <CutOff>7.5</CutOff>
*
*    </Battery>
*
*    <DataChannels>
*
*       <ExtVolt0>yes</ExtVolt0>
*
*       <ExtVolt1>yes</ExtVolt1>
*
*       <ExtVolt2>yes</ExtVolt2>
*
*       <ExtVolt3>yes</ExtVolt3>
*
*       <ExtVolt4>yes</ExtVolt4>
*
*       <ExtVolt5>yes</ExtVolt5>
*
*       <SBE38>no</SBE38>
*
*       <WETLABS>no</WETLABS>
*
*       <OPTODE>no</OPTODE>
*
*       <SBE63>no</SBE63>
*
*       <SeaFET>no</SeaFET>
*
*       <GTD>no</GTD>
*
*    </DataChannels>
*
*    <EchoCharacters>yes</EchoCharacters>
*
*    <OutputExecutedTag>yes</OutputExecutedTag>
*
*    <OutputFormat>raw HEX</OutputFormat>
*
* </ConfigurationData>
* <CalibrationCoefficients DeviceType='SBE19plus' SerialNumber='01907809'>
*
*    <Calibration format='TEMP1' id='Main Temperature'>
*
*       <SerialNum>01907809</SerialNum>
*
*       <CalDate>31-Jan-23</CalDate>
*
*       <TA0>1.218232e-03</TA0>
*
*       <TA1>2.815090e-04</TA1>
*
*       <TA2>-1.578887e-06</TA2>
*
*       <TA3>1.972343e-07</TA3>
*
*       <TOFFSET>0.000000e+00</TOFFSET>
*
*    </Calibration>
*
*    <Calibration format='WBCOND0' id='Main Conductivity'>
*
*       <SerialNum>01907809</SerialNum>
*
*       <CalDate>31-Jan-23</CalDate>
*
*       <G>-1.005652e+00</G>
*
*       <H>1.267963e-01</H>
*
*       <I>-1.561708e-04</I>
*
*       <J>2.645944e-05</J>
*
*       <CPCOR>-9.570000e-08</CPCOR>
*
*       <CTCOR>3.250000e-06</CTCOR>
*
*       <CSLOPE>1.000000e+00</CSLOPE>
*
*    </Calibration>
*
*    <Calibration format='STRAIN0' id='Main Pressure'>
*
*       <SerialNum>10586018</SerialNum>
*
*       <CalDate>20-Jan-23</CalDate>
*
*       <PA0>4.416439e-02</PA0>
*
*       <PA1>4.850502e-04</PA1>
*
*       <PA2>-3.090426e-12</PA2>
*
*       <PTCA0>5.254757e+05</PTCA0>
*
*       <PTCA1>1.050255e+01</PTCA1>
*
*       <PTCA2>-2.922435e-01</PTCA2>
*
*       <PTCB0>2.516687e+01</PTCB0>
*
*       <PTCB1>3.750000e-04</PTCB1>
*
*       <PTCB2>0.000000e+00</PTCB2>
*
*       <PTEMPA0>-5.470820e+01</PTEMPA0>
*
*       <PTEMPA1>5.485421e+01</PTEMPA1>
*
*       <PTEMPA2>-3.446578e-01</PTEMPA2>
*
*       <POFFSET>8.500000e-01</POFFSET>
*
*       <PRANGE>1.600000e+02</PRANGE>
*
*    </Calibration>
*
*    <Calibration format='VOLT0' id='Volt 0'>
*
*       <OFFSET>-4.920000e-02</OFFSET>
*
*       <SLOPE>1.248122e+00</SLOPE>
*
*    </Calibration>
*
*    <Calibration format='VOLT0' id='Volt 1'>
*
*       <OFFSET>-4.784000e-02</OFFSET>
*
*       <SLOPE>1.248871e+00</SLOPE>
*
*    </Calibration>
*
*    <Calibration format='VOLT0' id='Volt 2'>
*
*       <OFFSET>-4.864632e-02</OFFSET>
*
*       <SLOPE>1.248714e+00</SLOPE>
*
*    </Calibration>
*
*    <Calibration format='VOLT0' id='Volt 3'>
*
*       <OFFSET>-4.743790e-02</OFFSET>
*
*       <SLOPE>1.248571e+00</SLOPE>
*
*    </Calibration>
*
*    <Calibration format='VOLT0' id='Volt 4'>
*
*       <OFFSET>-4.671263e-02</OFFSET>
*
*       <SLOPE>1.248951e+00</SLOPE>
*
*    </Calibration>
*
*    <Calibration format='VOLT0' id='Volt 5'>
*
*       <OFFSET>-4.871053e-02</OFFSET>
*
*       <SLOPE>1.249136e+00</SLOPE>
*
*    </Calibration>
*
*    <Calibration format='FREQ0' id='external frequency channel'>
*
*       <EXTFREQSF>1.000014e+00</EXTFREQSF>
*
*    </Calibration>
*
* </CalibrationCoefficients>
* <EventCounters DeviceType='SBE19plus' SerialNumber='01907809'>
*
*    <EventSummary numEvents='0'/>
*
* </EventCounters></InstrumentState>
* <Headers>
*
* cast   3 24 Jun 2024 12:42:05 samples 5650 to 6738, avg = 1, stop = mag switch
*
# nquan = 15
# nvalues = 1089                        
# units = specified
# name 0 = depFM: Depth [fresh water, m]
# name 1 = dz/dtM: Descent Rate [m/s]
# name 2 = sbeox0Mg/L: Oxygen, SBE 43 [mg/l]
# name 3 = sbeox0PS: Oxygen, SBE 43 [% saturation]
# name 4 = specc: Specific Conductance [uS/cm]
# name 5 = c0uS/cm: Conductivity [uS/cm]
# name 6 = flECO-AFL: Fluorescence, WET Labs ECO-AFL/FL [mg/m^3]
# name 7 = ph: pH
# name 8 = orp: Oxidation Reduction Potential [mV]
# name 9 = par/sat/log: PAR/Logarithmic, Satlantic
# name 10 = turbWETntu0: Turbidity, WET Labs ECO [NTU]
# name 11 = prdM: Pressure, Strain Gauge [db]
# name 12 = prdE: Pressure, Strain Gauge [psi]
# name 13 = tv290C: Temperature [ITS-90, deg C]
# name 14 = flag:  0.000e+00
# span 0 =     -0.700,      3.257       
# span 1 =     -0.394,      0.230       
# span 2 =    -0.1540,    15.9610       
# span 3 =     -1.530,    196.845       
# span 4 =      1.509,     96.690       
# span 5 =   1.482888,  82.264297       
# span 6 =    -0.1327,    37.2963       
# span 7 =      8.897,     10.840       
# span 8 =  -195.2374,   162.1713       
# span 9 = 2.6939e+00, 2.7772e+03       
# span 10 =    -5.5423,   931.6411      
# span 11 =     -0.687,      3.195      
# span 12 =     -0.996,      4.633      
# span 13 =    16.1031,    27.9655      
# span 14 = 0.0000e+00, 0.0000e+00      
# interval = seconds: 0.25
# start_time = Jun 24 2024 12:42:05 [Instrument's time stamp, header]
# bad_flag = -9.990e-29
# <Sensors count="9" >
#   <sensor Channel="1" >
#     <!-- Count, Temperature -->
#     <TemperatureSensor SensorID="58" >
#       <SerialNumber>7809</SerialNumber>
#       <CalibrationDate>31-Jan-23</CalibrationDate>
#       <A0>1.21823180e-003</A0>
#       <A1>2.81508993e-004</A1>
#       <A2>-1.57888696e-006</A2>
#       <A3>1.97234302e-007</A3>
#       <Slope>1.00000000</Slope>
#       <Offset>0.0000</Offset>
#     </TemperatureSensor>
#   </sensor>
#   <sensor Channel="2" >
#     <!-- Frequency 0, Conductivity -->
#     <ConductivitySensor SensorID="3" >
#       <SerialNumber>7809</SerialNumber>
#       <CalibrationDate>31-Jan-23</CalibrationDate>
#       <UseG_J>1</UseG_J>
#       <!-- Cell const and series R are applicable only for wide range sensors. -->
#       <SeriesR>0.0000</SeriesR>
#       <CellConst>2000.0000</CellConst>
#       <ConductivityType>0</ConductivityType>
#       <Coefficients equation="0" >
#         <A>0.00000000e+000</A>
#         <B>0.00000000e+000</B>
#         <C>0.00000000e+000</C>
#         <D>0.00000000e+000</D>
#         <M>0.0</M>
#         <CPcor>-9.57000000e-008</CPcor>
#       </Coefficients>
#       <Coefficients equation="1" >
#         <G>-1.00565232e+000</G>
#         <H>1.26796307e-001</H>
#         <I>-1.56170788e-004</I>
#         <J>2.64594368e-005</J>
#         <CPcor>-9.57000000e-008</CPcor>
#         <CTcor>3.2500e-006</CTcor>
#         <!-- WBOTC not applicable unless ConductivityType = 1. -->
#         <WBOTC>0.00000000e+000</WBOTC>
#       </Coefficients>
#       <Slope>1.00000000</Slope>
#       <Offset>0.00000</Offset>
#     </ConductivitySensor>
#   </sensor>
#   <sensor Channel="3" >
#     <!-- Count, Pressure, Strain Gauge -->
#     <PressureSensor SensorID="46" >
#       <SerialNumber>7809</SerialNumber>
#       <CalibrationDate>20-Jan-23</CalibrationDate>
#       <PA0>4.41643944e-002</PA0>
#       <PA1>4.85050239e-004</PA1>
#       <PA2>-3.09042623e-012</PA2>
#       <PTEMPA0>-5.47081996e+001</PTEMPA0>
#       <PTEMPA1>5.48542136e+001</PTEMPA1>
#       <PTEMPA2>-3.44657813e-001</PTEMPA2>
#       <PTCA0>5.25475731e+005</PTCA0>
#       <PTCA1>1.05025484e+001</PTCA1>
#       <PTCA2>-2.92243463e-001</PTCA2>
#       <PTCB0>2.51668750e+001</PTCB0>
#       <PTCB1>3.75000000e-004</PTCB1>
#       <PTCB2>0.00000000e+000</PTCB2>
#       <Offset>0.000000</Offset>
#     </PressureSensor>
#   </sensor>
#   <sensor Channel="4" >
#     <!-- A/D voltage 0, Oxygen, SBE 43 -->
#     <OxygenSensor SensorID="38" >
#       <SerialNumber>0434</SerialNumber>
#       <CalibrationDate>18-Feb-23</CalibrationDate>
#       <Use2007Equation>1</Use2007Equation>
#       <CalibrationCoefficients equation="0" >
#         <!-- Coefficients for Owens-Millard equation. -->
#         <Boc>0.0000</Boc>
#         <Soc>0.0000e+000</Soc>
#         <offset>0.0000</offset>
#         <Pcor>0.00e+000</Pcor>
#         <Tcor>0.0000</Tcor>
#         <Tau>0.0</Tau>
#       </CalibrationCoefficients>
#       <CalibrationCoefficients equation="1" >
#         <!-- Coefficients for Sea-Bird equation - SBE calibration in 2007 and later. -->
#         <Soc>5.1878e-001</Soc>
#         <offset>-0.5046</offset>
#         <A>-4.2788e-003</A>
#         <B> 1.5372e-004</B>
#         <C>-2.1853e-006</C>
#         <D0> 2.5826e+000</D0>
#         <D1> 1.92634e-004</D1>
#         <D2>-4.64803e-002</D2>
#         <E> 3.6000e-002</E>
#         <Tau20> 0.9900</Tau20>
#         <H1>-3.3000e-002</H1>
#         <H2> 5.0000e+003</H2>
#         <H3> 1.4500e+003</H3>
#       </CalibrationCoefficients>
#     </OxygenSensor>
#   </sensor>
#   <sensor Channel="5" >
#     <!-- A/D voltage 1, PAR/Logarithmic, Satlantic -->
#     <PARLog_SatlanticSensor SensorID="76" >
#       <SerialNumber>1122</SerialNumber>
#       <CalibrationDate>08-Sep-2021</CalibrationDate>
#       <a0>9.6751e-001</a0>
#       <a1>8.0992e-001</a1>
#       <Im>1.3589e+000</Im>
#       <Multiplier>1.0000e+000</Multiplier>
#     </PARLog_SatlanticSensor>
#   </sensor>
#   <sensor Channel="6" >
#     <!-- A/D voltage 2, pH -->
#     <pH_Sensor SensorID="43" >
#       <SerialNumber>0363</SerialNumber>
#       <CalibrationDate>28-Feb-23</CalibrationDate>
#       <Slope>4.7364</Slope>
#       <Offset>2.5433</Offset>
#     </pH_Sensor>
#   </sensor>
#   <sensor Channel="7" >
#     <!-- A/D voltage 3, Oxidation Reduction Potential -->
#     <OxidationReductionPotentialSensor SensorID="41" >
#       <SerialNumber>0363</SerialNumber>
#       <CalibrationDate>28-Feb-23</CalibrationDate>
#       <B>2.499480</B>
#       <M>-0.496195</M>
#       <Offset>0.0</Offset>
#     </OxidationReductionPotentialSensor>
#   </sensor>
#   <sensor Channel="8" >
#     <!-- A/D voltage 4, Fluorometer, WET Labs ECO-AFL/FL -->
#     <FluoroWetlabECO_AFL_FL_Sensor SensorID="20" >
#       <SerialNumber>FLNTURT-2496</SerialNumber>
#       <CalibrationDate>02-Sep-2021</CalibrationDate>
#       <ScaleFactor>4.80000000e+001</ScaleFactor>
#       <!-- Dark output -->
#       <Vblank>0.0550</Vblank>
#     </FluoroWetlabECO_AFL_FL_Sensor>
#   </sensor>
#   <sensor Channel="9" >
#     <!-- A/D voltage 5, Turbidity Meter, WET Labs, ECO-NTU -->
#     <TurbidityMeter SensorID="67" >
#       <SerialNumber>FLNTURT--2496</SerialNumber>
#       <CalibrationDate>02-Sep-2021</CalibrationDate>
#       <ScaleFactor>197.000000</ScaleFactor>
#       <!-- Dark output -->
#       <DarkVoltage>0.070000</DarkVoltage>
#     </TurbidityMeter>
#   </sensor>
# </Sensors>
# datcnv_date = Jun 26 2024 15:08:23, 7.26.7.129 [datcnv_vars = 14]
# datcnv_in = C:\R\Reservoirs\Data\DataNotYetUploadedToEDI\Raw_CTD\RawDownloads\062424_fcr20_S7809003.hex C:\R\Reservoirs\Data\DataNotYetUploadedToEDI\Raw_CTD\RawDownloads\SBE19plusV2_7809_start20230701.xmlcon
# datcnv_skipover = 0
# datcnv_ox_hysteresis_correction = yes
# datcnv_ox_tau_correction = yes
# filter_date = Jun 26 2024 15:08:54, 7.26.7.129
# filter_in = C:\R\Reservoirs\Data\DataNotYetUploadedToEDI\Raw_CTD\RawDownloads\062424_fcr20_S7809003.cnv
# filter_low_pass_tc_A = 0.030
# filter_low_pass_tc_B = 0.150
# filter_low_pass_A_vars = sbeox0Mg/L prdM prdE tv290C
# filter_low_pass_B_vars = depFM dz/dtM sbeox0PS specc c0uS/cm flECO-AFL ph orp par/sat/log turbWETntu0
# alignctd_date = Jun 26 2024 15:09:21, 7.26.7.129
# alignctd_in = C:\R\Reservoirs\Data\DataNotYetUploadedToEDI\Raw_CTD\RawDownloads\062424_fcr20_S7809003.cnv
# alignctd_adv = dz/dtM 1.000, sbeox0PS 1.000, specc 1.000, c0uS/cm 1.000, flECO-AFL 1.000, ph 1.000, orp 1.000, turbWETntu0 1.000                                                                                                   
# file_type = ascii
*END*
     -0.698 -1.272e-11     8.0403     95.711      1.509   1.482888    -0.0563     10.120  -195.2374 2.1771e+02    -0.2119     -0.684     -0.992    24.1221 0.0000e+00
     -0.698 -1.400e-10     8.0366     95.711      1.510   1.484202    -0.0588     10.116  -191.4061 7.9712e+02    -0.1873     -0.685     -0.993    24.1217 0.0000e+00
     -0.698 -1.540e-09     8.0386     95.721      1.514   1.488060    -0.0762     10.111  -181.8723 1.8228e+03    -0.0913     -0.685     -0.994    24.1213 0.0000e+00
     -0.698 -1.694e-08     8.0406     95.722      1.557   1.529540    -0.0829     10.101  -136.2347 2.4078e+03     0.1986     -0.685     -0.993    24.1209 0.0000e+00
     -0.698 -1.863e-07     8.0372     95.733      1.635   1.605685    -0.0728     10.081   -51.8194 2.6059e+03     0.4479     -0.684     -0.993    24.1203 0.0000e+00
     -0.698 -1.863e-07     8.0378     95.719      1.678   1.648629    -0.0705     10.065    -6.2915 2.5647e+03     0.4638     -0.685     -0.994    24.1196 0.0000e+00
     -0.698 -1.693e-08     8.0406     95.623      1.698   1.668723    -0.0884     10.064   -13.4625 1.9668e+03     0.4250     -0.685     -0.993    24.1189 0.0000e+00
     -0.698 -1.524e-09     8.0384     95.471      1.752   1.721954    -0.1062     10.071   -38.4597 1.5950e+03     0.5254     -0.685     -0.994    24.1180 0.0000e+00
     -0.698 3.2968e-11     8.0409     95.312      1.817   1.785514    -0.1195     10.072   -58.7583 1.6943e+03     0.6528     -0.685     -0.993    24.1170 0.0000e+00
     -0.698 1.8894e-09     8.0433     95.174      1.836   1.803797    -0.1327     10.065   -58.9367 1.1630e+03     0.6672     -0.684     -0.993    24.1159 0.0000e+00
     -0.698 2.0922e-08     8.0332     95.081      1.849   1.816323    -0.1324     10.056   -46.4664 4.0968e+02     0.7002     -0.684     -0.993    24.1155 0.0000e+00
     -0.698 2.3016e-07     8.0190     95.040      1.907   1.873624    -0.1082     10.052   -34.7168 1.8748e+02     0.7774     -0.685     -0.993    24.1142 0.0000e+00
     -0.698      0.000     8.0054     95.035      1.961   1.926544    -0.0731     10.054   -29.7566 1.7068e+02     0.7813     -0.684     -0.993    24.1140 0.0000e+00
     -0.698      0.000     7.9931     95.037      1.984   1.949438    -0.0574     10.057   -28.3949 1.7473e+02     0.7478     -0.685     -0.993    24.1117 0.0000e+00
     -0.698      0.000     7.9850     95.040      1.994   1.960403    -0.0437     10.060   -29.1797 1.7888e+02     0.7474     -0.685     -0.993    24.1126 0.0000e+00
     -0.698      0.003     7.9825     95.074      2.339   2.312493     0.2258     10.064   -42.0845 1.8387e+02     1.1184     -0.684     -0.993    24.1084 0.0000e+00
     -0.698      0.012     7.9826     95.128      7.328   7.346680     0.7217     10.085   -43.4945 1.9729e+02     1.8170     -0.685     -0.993    24.1125 0.0000e+00
     -0.698      0.028     7.9850     95.154     20.250  20.495621     0.9741     10.148     0.4065 2.3606e+02     2.1573     -0.685     -0.993    24.1030 0.0000e+00
     -0.696      0.050     7.9811     95.140     34.898  35.658128     1.0223     10.253    46.9065 4.6113e+02     2.4324     -0.684     -0.993    24.1160 0.0000e+00
     -0.687      0.076     7.9880     95.137     43.848  45.193615     1.2959     10.369    59.8868 1.2250e+03     5.5871     -0.680     -0.985    24.0929 0.0000e+00
     -0.663      0.103     7.9608     95.252     46.606  48.351204     1.7606     10.468    60.8993 2.2266e+03    11.2987     -0.656     -0.952    24.3212 0.0000e+00
     -0.625      0.130     7.8428     95.542     46.839  48.828598     2.0050     10.542    62.3324 2.7091e+03    14.3429     -0.615     -0.892    25.1457 0.0000e+00
     -0.580      0.159     7.7194     95.845     46.939  49.124894     2.0125     10.592    63.1901 2.7660e+03    14.5542     -0.567     -0.823    25.9885 0.0000e+00
     -0.539      0.185     7.6392     96.081     46.973  49.330894     2.0094     10.619    64.4722 2.7772e+03    14.5717     -0.526     -0.763    26.5443 0.0000e+00
     -0.498      0.205     7.5935     96.411     46.866  49.351382     2.1343     10.626    66.2188 2.7715e+03    14.7242     -0.493     -0.714    26.9080 0.0000e+00
     -0.444      0.220     7.5947     96.856     46.572  49.118857     2.3735     10.622    67.4451 2.6961e+03    14.9975     -0.442     -0.642    27.1262 0.0000e+00
     -0.376      0.229     7.5982     97.355     46.191  48.741741     2.4960     10.614    68.0281 2.0255e+03    15.1085     -0.366     -0.531    27.3245 0.0000e+00
     -0.307      0.230     7.5780     97.919     45.891  48.410651     2.4925     10.606    68.1050 8.2391e+02    15.0416     -0.298     -0.431    27.5169 0.0000e+00
     -0.242      0.223     7.5866     98.508     45.694  48.163103     2.5302     10.601    67.9445 1.6219e+02    14.8376     -0.238     -0.345    27.6715 0.0000e+00
     -0.182      0.206     7.6143     98.998     45.555  47.970669     2.6192     10.598    67.9800 8.6444e+01    14.5207     -0.171     -0.249    27.7462 0.0000e+00
     -0.134      0.176     7.6483     99.391     45.429  47.798020     2.6776     10.596    68.5347 7.1612e+01    14.3877     -0.127     -0.183    27.7684 0.0000e+00
     -0.095      0.132     7.6959     99.769     45.330  47.662712     2.6960     10.591    69.3164 6.5931e+01    14.3909     -0.096     -0.139    27.7498 0.0000e+00
     -0.056      0.081     7.7547     99.991     45.425  47.731324     2.6748     10.582    69.7745 6.1270e+01    14.0814     -0.053     -0.078    27.6971 0.0000e+00
     -0.027      0.031     7.8027     99.914     45.815  48.119658     2.6205     10.573    69.8574 6.0837e+01    13.4809     -0.013     -0.018    27.6411 0.0000e+00
     -0.027     -0.012     7.8308     99.589     46.152  48.485276     2.5897     10.566    69.8884 6.2869e+01    13.1767     -0.013     -0.019    27.5974 0.0000e+00
     -0.058     -0.047     7.8738     99.107     46.035  48.406243     2.5927     10.560    69.9778 6.4364e+01    13.2380     -0.056     -0.082    27.5667 0.0000e+00
     -0.094     -0.073     7.9012     98.463     45.771  48.179954     2.5739     10.552    69.9918 6.5867e+01    13.2658     -0.099     -0.143    27.5318 0.0000e+00
     -0.119     -0.086     7.8970     97.691     45.779  48.225349     2.5133     10.544    69.9722 6.7499e+01    13.1715     -0.122     -0.178    27.4937 0.0000e+00
     -0.134     -0.083     7.8666     96.976     45.912  48.383789     2.4748     10.538    70.0844 7.3348e+01    13.1215     -0.131     -0.190    27.5045 0.0000e+00
     -0.150     -0.072     7.8199     96.496     46.084  48.571972     2.4751     10.533    70.3159 8.2636e+01    13.2082     -0.141     -0.205    27.5693 0.0000e+00
     -0.172     -0.062     7.7634     96.534     46.343  48.849959     2.4751     10.530    71.9964 8.7043e+01    13.2636     -0.172     -0.250    27.6322 0.0000e+00
     -0.189     -0.056     7.6861     97.700     46.555  49.078373     2.4586     10.530    91.2634 8.8333e+01    13.1426     -0.192     -0.277    27.6724 0.0000e+00
     -0.198     -0.048     7.6278    101.087     46.638  49.175068     2.4426     10.530   110.0270 9.1677e+01    13.0084     -0.191     -0.278    27.6894 0.0000e+00
     -0.209     -0.036     7.5794    106.922     46.641  49.193733     2.4387     10.528    94.2649 9.5560e+01    12.9744     -0.202     -0.294    27.6916 0.0000e+00
     -0.222     -0.017     7.5716    113.438     46.611  49.177085     2.4529     10.521    75.5173 9.8334e+01    13.1069     -0.221     -0.320    27.6984 0.0000e+00
     -0.230      0.005     7.6246    119.112     46.411  48.973802     2.5064     10.516    73.0675 9.8794e+01    13.3808     -0.229     -0.332    27.7032 0.0000e+00
     -0.230      0.028     7.8595    124.077     45.972  48.513574     2.5609     10.513    72.2161 9.6145e+01    13.4840     -0.228     -0.331    27.7089 0.0000e+00
     -0.219      0.047     8.3964    128.597     45.598  48.120216     2.5711     10.512    71.5902 9.1705e+01    13.4328     -0.220     -0.318    27.7301 0.0000e+00
     -0.196      0.056     8.9582    131.933     45.513  48.027045     2.5553     10.512    71.1777 8.5627e+01    13.4100     -0.196     -0.283    27.7486 0.0000e+00
     -0.164      0.056     9.3807    133.319     45.701  48.212381     2.5444     10.512    70.9282 7.7605e+01    13.2772     -0.158     -0.230    27.7555 0.0000e+00
     -0.139      0.050     9.7532    132.889     45.945  48.456454     2.5471     10.512    70.7257 7.2234e+01    13.0228     -0.127     -0.185    27.7581 0.0000e+00
     -0.133      0.040    10.1396    131.198     45.872  48.375089     2.5541     10.514    70.5360 7.1990e+01    12.8627     -0.125     -0.181    27.7615 0.0000e+00
     -0.138      0.028    10.4332    128.705     45.564  48.053934     2.5635     10.517    70.2687 7.2710e+01    12.8438     -0.138     -0.201    27.7598 0.0000e+00
     -0.140      0.020    10.5321    125.654     45.448  47.938249     2.5775     10.521    70.0757 7.1916e+01    12.8623     -0.142     -0.205    27.7404 0.0000e+00
     -0.134      0.018    10.4858    122.254     45.555  48.055641     2.5896     10.523    70.0088 7.0541e+01    12.8816     -0.132     -0.193    27.7220 0.0000e+00
     -0.125      0.021    10.3392    118.911     45.634  48.140102     2.6025     10.525    69.8895 6.9548e+01    12.9750     -0.121     -0.176    27.7182 0.0000e+00
     -0.117      0.025    10.1368    116.055     45.629  48.134137     2.6169     10.527    69.6661 6.8416e+01    13.0695     -0.115     -0.166    27.7251 0.0000e+00
     -0.109      0.023     9.8926    113.847     45.669  48.173977     2.6218     10.530    69.4588 6.6952e+01    12.9652     -0.108     -0.156    27.7344 0.0000e+00
     -0.102      0.018     9.6115    112.247     45.859  48.367845     2.6113     10.534    69.3616 6.5657e+01    12.7724     -0.099     -0.145    27.7387 0.0000e+00
     -0.096      0.011     9.3334    111.240     46.117  48.637019     2.5979     10.539    69.1795 6.4483e+01    12.7189     -0.093     -0.136    27.7396 0.0000e+00
     -0.094      0.005     9.1059    110.916     46.297  48.825513     2.6020     10.544    68.9776 6.4517e+01    12.7639     -0.091     -0.132    27.7405 0.0000e+00
     -0.097      0.000     8.9353    111.236     46.400  48.932700     2.6197     10.548    68.9852 6.5724e+01    12.8380     -0.095     -0.138    27.7370 0.0000e+00
     -0.101     -0.002     8.8132    111.854     46.447  48.980667     2.6363     10.550    69.0992 6.6307e+01    12.9312     -0.100     -0.145    27.7267 0.0000e+00
     -0.104      0.000     8.7296    112.427     46.428  48.961056     2.6284     10.549    69.3242 6.6717e+01    12.9690     -0.102     -0.149    27.7229 0.0000e+00
     -0.105      0.006     8.7025    112.932     46.357  48.886052     2.5997     10.546    69.6406 6.7487e+01    12.9533     -0.104     -0.150    27.7240 0.0000e+00
     -0.104      0.015     8.7407    113.632     46.252  48.772179     2.5886     10.542    69.8274 6.6678e+01    13.0485     -0.103     -0.149    27.7219 0.0000e+00
     -0.100      0.024     8.8022    114.838     46.156  48.663546     2.6019     10.539    69.7757 6.4478e+01    13.3001     -0.100     -0.145    27.7195 0.0000e+00
     -0.091      0.031     8.8463    116.562     46.090  48.588391     2.6191     10.537    69.6172 6.2719e+01    13.5022     -0.091     -0.131    27.7202 0.0000e+00
     -0.078      0.035     8.8777    118.449     46.068  48.561866     2.6213     10.537    69.5472 6.1688e+01    13.5109     -0.077     -0.111    27.7231 0.0000e+00
     -0.066      0.035     8.9214    120.181     46.103  48.596771     2.6127     10.537    69.5310 6.2786e+01    13.4053     -0.064     -0.092    27.7193 0.0000e+00
     -0.055      0.031     9.0164    121.666     46.196  48.692981     2.6316     10.539    69.5076 6.5818e+01    13.2835     -0.053     -0.076    27.7081 0.0000e+00
     -0.048      0.024     9.1678    122.826     46.274  48.772801     2.6916     10.540    69.6080 6.6740e+01    13.2002     -0.045     -0.065    27.7023 0.0000e+00
     -0.044      0.014     9.3260    123.372     46.303  48.799992     2.7377     10.540    69.8850 6.6685e+01    13.2172     -0.043     -0.062    27.7003 0.0000e+00
     -0.042      0.004     9.4637    123.005     46.337  48.831263     2.7404     10.538    70.1890 7.0016e+01    13.2158     -0.042     -0.060    27.6973 0.0000e+00
     -0.041     -0.004     9.5797    121.777     46.341  48.833443     2.7244     10.535    70.3581 7.4336e+01    13.0471     -0.039     -0.057    27.6960 0.0000e+00
     -0.043     -0.011     9.6817    120.107     46.277  48.762863     2.7113     10.534    70.3809 7.7273e+01    12.8179     -0.039     -0.057    27.6948 0.0000e+00
     -0.051     -0.017     9.7364    118.412     46.197  48.676269     2.7229     10.534    70.3786 7.9984e+01    12.7328     -0.050     -0.072    27.6903 0.0000e+00
     -0.057     -0.022     9.7081    117.008     46.193  48.675280     2.7475     10.537    70.3306 8.2242e+01    12.7697     -0.059     -0.085    27.6829 0.0000e+00
     -0.061     -0.025     9.5959    116.376     46.258  48.750908     2.7433     10.541    70.2315 8.4709e+01    12.7518     -0.058     -0.083    27.6828 0.0000e+00
     -0.066     -0.026     9.4516    116.856     46.267  48.765338     2.7221     10.544    70.2120 8.6882e+01    12.6865     -0.064     -0.092    27.6812 0.0000e+00
     -0.076     -0.025     9.3164    118.091     46.226  48.722789     2.7232     10.546    70.1815 8.8571e+01    12.6637     -0.076     -0.110    27.6741 0.0000e+00
     -0.084     -0.023     9.1887    119.287     46.187  48.680869     2.7404     10.548    70.1200 9.2821e+01    12.6815     -0.084     -0.121    27.6781 0.0000e+00
     -0.090     -0.020     9.1221    120.022     46.150  48.639418     2.7555     10.550    70.1565 9.6740e+01    12.7303     -0.088     -0.128    27.6884 0.0000e+00
     -0.095     -0.016     9.1700    120.347     46.118  48.602534     2.7646     10.551    70.1931 9.3555e+01    12.7749     -0.093     -0.135    27.6953 0.0000e+00
     -0.098     -0.014     9.2981    120.413     46.075  48.552359     2.7583     10.552    70.2185 8.7423e+01    12.7436     -0.097     -0.141    27.6962 0.0000e+00
     -0.098     -0.015     9.4033    120.359     46.070  48.540650     2.7374     10.551    70.3776 8.4287e+01    12.6596     -0.097     -0.140    27.6933 0.0000e+00
     -0.098     -0.018     9.4553    120.317     46.118  48.587937     2.7034     10.550    70.6540 8.2669e+01    12.6464     -0.095     -0.138    27.6912 0.0000e+00
     -0.102     -0.020     9.4785    120.414     46.146  48.616182     2.6641     10.550    70.8072 8.3234e+01    12.7204     -0.098     -0.143    27.6878 0.0000e+00
     -0.111     -0.022     9.4802    120.679     46.096  48.564714     2.6370     10.551    70.7675 8.6338e+01    12.8033     -0.107     -0.155    27.6816 0.0000e+00
     -0.122     -0.022     9.4743    120.869     45.890  48.346576     2.6248     10.552    70.7764 9.1217e+01    12.7943     -0.120     -0.175    27.6737 0.0000e+00
     -0.131     -0.023     9.4677    120.616     45.635  48.073786     2.6164     10.553    70.7425 9.7038e+01    12.7143     -0.131     -0.190    27.6701 0.0000e+00
     -0.134     -0.027     9.4724    119.754     45.565  47.996390     2.6096     10.555    70.5297 1.0008e+02    12.7587     -0.134     -0.194    27.6695 0.0000e+00
     -0.133     -0.034     9.5006    118.401     45.611  48.045666     2.6180     10.558    70.4402 9.9170e+01    12.9209     -0.130     -0.188    27.6713 0.0000e+00
     -0.137     -0.046     9.5288    116.793     45.721  48.161691     2.6275     10.560    70.6062 9.7606e+01    13.0366     -0.129     -0.187    27.6728 0.0000e+00
     -0.149     -0.062     9.5154    115.264     45.934  48.383439     2.6243     10.560    70.9022 9.5839e+01    13.0304     -0.145     -0.209    27.6640 0.0000e+00
     -0.169     -0.074     9.4428    114.321     46.109  48.568222     2.6040     10.556    71.2671 9.3779e+01    12.9132     -0.165     -0.239    27.6593 0.0000e+00
     -0.195     -0.077     9.3292    114.356     45.912  48.364256     2.5731     10.552    71.5759 9.5011e+01    12.7811     -0.187     -0.271    27.6641 0.0000e+00
     -0.228     -0.067     9.1950    115.120     45.330  47.758415     2.5506     10.549    71.7964 9.8538e+01    12.7317     -0.224     -0.324    27.6641 0.0000e+00
     -0.258     -0.047     9.0601    115.867     44.925  47.337800     2.5396     10.548    71.8692 9.8402e+01    12.7600     -0.262     -0.380    27.6584 0.0000e+00
     -0.268     -0.023     8.9697    116.334     44.883  47.278300     2.5326     10.548    71.5954 9.4232e+01    12.8491     -0.271     -0.393    27.6577 0.0000e+00
     -0.259      0.001     8.9780    117.033     44.938  47.292925     2.5073     10.552    71.2390 9.0171e+01    12.9895     -0.254     -0.369    27.6635 0.0000e+00
     -0.244      0.020     9.0679    118.366     44.954  47.260613     2.4911     10.557    71.1739 8.6332e+01    13.1260     -0.238     -0.346    27.6699 0.0000e+00
     -0.231      0.029     9.1343    120.070     44.934  47.204959     2.4953     10.561    71.3243 8.2471e+01    13.2014     -0.227     -0.329    27.6882 0.0000e+00
     -0.221      0.028     9.1484    121.615     44.939  47.191319     2.4832     10.564    71.4220 8.1265e+01    13.1154     -0.215     -0.312    27.6797 0.0000e+00
     -0.215      0.021     9.1983    122.700     44.975  47.222635     2.4613     10.568    71.4088 8.2260e+01    12.9056     -0.209     -0.303    27.6149 0.0000e+00
     -0.213      0.016     9.3268    123.347     44.950  47.202685     2.4393     10.570    71.5092 8.2709e+01    12.7482     -0.209     -0.304    27.5512 0.0000e+00
     -0.214      0.016     9.4847    123.607     44.817  47.077089     2.4246     10.569    71.7762 8.3212e+01    12.6814     -0.210     -0.304    27.5146 0.0000e+00
     -0.215      0.019     9.6193    123.406     44.707  46.973760     2.4498     10.569    71.9702 8.4251e+01    12.7472     -0.212     -0.307    27.4960 0.0000e+00
     -0.211      0.024     9.7027    122.755     44.706  46.969101     2.5109     10.569    71.9612 8.3828e+01    12.9291     -0.210     -0.305    27.4874 0.0000e+00
     -0.200      0.028     9.7489    121.810     44.726  46.957272     2.5551     10.571    71.8400 8.2464e+01    13.0021     -0.197     -0.286    27.4958 0.0000e+00
     -0.186      0.029     9.7717    120.731     44.708  46.894179     2.5602     10.575    71.7953 8.1577e+01    12.9471     -0.181     -0.262    27.5146 0.0000e+00
     -0.175      0.026     9.7522    119.693     44.686  46.841006     2.5480     10.579    71.8504 8.1032e+01    12.8442     -0.170     -0.245    27.5338 0.0000e+00
     -0.169      0.021     9.6937    118.912     44.681  46.822180     2.5409     10.582    71.8176 8.0539e+01    12.7491     -0.165     -0.239    27.5399 0.0000e+00
     -0.167      0.013     9.6232    118.493     44.656  46.793502     2.5488     10.586    71.6569 8.0168e+01    12.7879     -0.164     -0.238    27.4930 0.0000e+00
     -0.167      0.007     9.5446    118.236     44.549  46.684712     2.5610     10.591    71.4568 8.0423e+01    12.8344     -0.163     -0.236    27.4307 0.0000e+00
     -0.167      0.004     9.4610    117.729     44.388  46.522535     2.5546     10.595    71.2905 8.1021e+01    12.7648     -0.164     -0.237    27.3975 0.0000e+00
     -0.168      0.004     9.3963    116.747     44.281  46.419699     2.5384     10.599    71.1947 8.1517e+01    12.6981     -0.165     -0.239    27.3856 0.0000e+00
     -0.168      0.006     9.3688    115.405     44.248  46.393584     2.5319     10.602    71.0737 8.1522e+01    12.7449     -0.165     -0.239    27.3857 0.0000e+00
     -0.167      0.010     9.3632    113.886     44.254  46.397239     2.5419     10.607    70.9454 8.1107e+01    12.8183     -0.164     -0.237    27.3897 0.0000e+00
     -0.163      0.011     9.3297    112.266     44.273  46.400406     2.5599     10.611    70.9339 8.0825e+01    12.8007     -0.160     -0.233    27.3959 0.0000e+00
     -0.158      0.007     9.2436    110.592     44.263  46.368371     2.5578     10.614    70.9345 8.0877e+01    12.7363     -0.156     -0.226    27.4079 0.0000e+00
     -0.151     -0.001     9.1282    108.951     44.237  46.327273     2.5414     10.615    70.9535 8.0250e+01    12.6891     -0.147     -0.213    27.4247 0.0000e+00
     -0.147     -0.007     9.0085    107.615     44.200  46.284365     2.5368     10.616    71.0766 8.0394e+01    12.6744     -0.140     -0.203    27.4233 0.0000e+00
     -0.153     -0.012     8.8821    106.922     44.088  46.166976     2.5513     10.617    71.1328 8.2745e+01    12.6940     -0.146     -0.211    27.3962 0.0000e+00
     -0.166     -0.015     8.7539    106.819     43.974  46.050592     2.5836     10.619    71.0308 8.3649e+01    12.7210     -0.165     -0.239    27.3683 0.0000e+00
     -0.177     -0.017     8.6194    106.941     43.945  46.019846     2.6113     10.622    70.9627 8.2371e+01    12.7282     -0.179     -0.259    27.3515 0.0000e+00
     -0.179     -0.017     8.4984    107.073     43.924  45.985672     2.6120     10.625    70.9975 8.1418e+01    12.7122     -0.177     -0.257    27.3492 0.0000e+00
     -0.175     -0.013     8.4461    107.141     43.913  45.954776     2.6002     10.628    71.1060 8.1424e+01    12.6652     -0.170     -0.247    27.3511 0.0000e+00
     -0.175     -0.008     8.4533    107.095     43.934  45.963661     2.6015     10.628    71.3284 8.1718e+01    12.6719     -0.170     -0.245    27.3533 0.0000e+00
     -0.180     -0.004     8.4662    107.018     43.880  45.902640     2.6113     10.627    71.4496 8.2250e+01    12.7258     -0.176     -0.255    27.3597 0.0000e+00
     -0.186     -0.004     8.4789    106.941     43.771  45.788284     2.6192     10.627    71.3668 8.3777e+01    12.7361     -0.184     -0.267    27.3446 0.0000e+00
     -0.186     -0.004     8.4932    106.711     43.709  45.723631     2.6133     10.628    71.3593 8.4880e+01    12.7271     -0.184     -0.267    27.3148 0.0000e+00
     -0.181     -0.004     8.4873    106.259     43.679  45.692248     2.5814     10.631    71.4455 8.4613e+01    12.7206     -0.177     -0.257    27.3000 0.0000e+00
     -0.180     -0.001     8.4778    105.634     43.657  45.662756     2.5581     10.633    71.4622 8.4642e+01    12.7598     -0.175     -0.253    27.2976 0.0000e+00
     -0.183      0.000     8.4813    104.941     43.625  45.620958     2.5655     10.636    71.4760 8.5413e+01    12.7907     -0.179     -0.260    27.2968 0.0000e+00
     -0.187      0.000     8.4633    104.404     43.579  45.567740     2.5709     10.637    71.5258 8.6613e+01    12.7518     -0.185     -0.269    27.2984 0.0000e+00
     -0.187      0.000     8.4246    104.146     43.543  45.527123     2.5561     10.638    71.5480 8.8024e+01    12.6993     -0.185     -0.268    27.3000 0.0000e+00
     -0.184      0.001     8.3764    104.095     43.529  45.510732     2.5370     10.640    71.5723 8.8797e+01    12.6688     -0.180     -0.260    27.2914 0.0000e+00
     -0.182      0.003     8.3135    104.126     43.518  45.496514     2.5391     10.643    71.5619 8.8641e+01    12.7249     -0.178     -0.258    27.2791 0.0000e+00
     -0.182      0.003     8.2679    104.119     43.508  45.482168     2.5567     10.647    71.5086 8.7880e+01    12.7968     -0.178     -0.258    27.2736 0.0000e+00
     -0.182      0.002     8.2514    103.981     43.495  45.464226     2.5666     10.650    71.5305 8.7202e+01    12.7864     -0.179     -0.259    27.2726 0.0000e+00
     -0.181      0.001     8.2512    103.739     43.443  45.406529     2.5680     10.652    71.4820 8.7023e+01    12.7358     -0.177     -0.257    27.2712 0.0000e+00
     -0.180     -0.001     8.2571    103.505     43.396  45.355863     2.5563     10.654    71.3522 8.7179e+01    12.6636     -0.176     -0.255    27.2669 0.0000e+00
     -0.181     -0.003     8.2611    103.336     43.401  45.359448     2.5499     10.655    71.3374 8.7894e+01    12.6655     -0.177     -0.256    27.2619 0.0000e+00
     -0.182     -0.005     8.2503    103.275     43.427  45.386403     2.5664     10.657    71.3897 8.9708e+01    12.7242     -0.178     -0.258    27.2571 0.0000e+00
     -0.183     -0.006     8.2260    103.344     43.405  45.364378     2.5804     10.659    71.4686 9.1840e+01    12.6898     -0.180     -0.260    27.2529 0.0000e+00
     -0.185     -0.006     8.2082    103.457     43.329  45.283578     2.5696     10.662    71.5165 9.2845e+01    12.5921     -0.181     -0.263    27.2504 0.0000e+00
     -0.188     -0.006     8.1935    103.469     43.284  45.234674     2.5438     10.664    71.4529 9.2145e+01    12.4986     -0.185     -0.268    27.2497 0.0000e+00
     -0.190     -0.006     8.1862    103.230     43.269  45.217430     2.5512     10.666    71.3878 9.0463e+01    12.4826     -0.188     -0.272    27.2496 0.0000e+00
     -0.190     -0.007     8.1956    102.663     43.256  45.202040     2.6008     10.668    71.3316 8.9371e+01    12.6023     -0.187     -0.271    27.2505 0.0000e+00
     -0.191     -0.008     8.2081    101.842     43.233  45.175555     2.6361     10.670    71.2897 8.9447e+01    12.7513     -0.186     -0.270    27.2506 0.0000e+00
     -0.193     -0.009     8.2144    100.957     43.211  45.151102     2.6279     10.671    71.3111 9.0146e+01    12.7813     -0.188     -0.273    27.2477 0.0000e+00
     -0.196     -0.009     8.1987    100.198     43.220  45.160297     2.6015     10.672    71.3328 9.1041e+01    12.7257     -0.192     -0.279    27.2453 0.0000e+00
     -0.200     -0.007     8.1515     99.665     43.219  45.159764     2.6004     10.672    71.4659 9.2003e+01    12.8301     -0.197     -0.285    27.2439 0.0000e+00
     -0.203     -0.003     8.0806     99.331     43.205  45.144664     2.6230     10.672    71.8017 9.2574e+01    13.0870     -0.200     -0.289    27.2407 0.0000e+00
     -0.204      0.003     8.0050     99.076     43.169  45.104674     2.6334     10.669    72.2093 9.2412e+01    13.2357     -0.201     -0.291    27.2376 0.0000e+00
     -0.204      0.010     7.9423     98.810     43.126  45.057115     2.6254     10.664    72.5229 9.1868e+01    13.2617     -0.201     -0.291    27.2370 0.0000e+00
     -0.200      0.016     7.8998     98.443     43.147  45.077454     2.6098     10.661    72.6678 9.0949e+01    13.2303     -0.198     -0.287    27.2384 0.0000e+00
     -0.193      0.019     7.8791     97.910     43.167  45.096674     2.6449     10.660    72.6708 8.9519e+01    13.3348     -0.191     -0.276    27.2386 0.0000e+00
     -0.185      0.019     7.8601     97.215     43.116  45.035591     2.7416     10.661    72.6449 8.8333e+01    13.6028     -0.181     -0.264    27.2359 0.0000e+00
     -0.177      0.017     7.8424     96.392     43.069  44.973665     2.8052     10.662    72.6987 8.7973e+01    13.7029     -0.173     -0.250    27.2320 0.0000e+00
     -0.172      0.013     7.8165     95.584     43.086  44.982685     2.8064     10.663    72.8049 8.8134e+01    13.6579     -0.169     -0.243    27.2305 0.0000e+00
     -0.171      0.009     7.7721     95.005     43.121  45.017676     2.7721     10.664    72.8110 8.8931e+01    13.3660     -0.167     -0.243    27.2317 0.0000e+00
     -0.173      0.007     7.7192     94.765     43.118  45.015872     2.7404     10.666    72.6863 9.0404e+01    12.8376     -0.170     -0.247    27.2229 0.0000e+00
     -0.174      0.007     7.6520     94.796     43.064  44.960880     2.7395     10.669    72.5873 9.0241e+01    12.5977     -0.172     -0.249    27.2021 0.0000e+00
     -0.172      0.008     7.5823     94.907     42.968  44.860593     2.7455     10.672    72.4747 8.8020e+01    12.6180     -0.169     -0.245    27.1897 0.0000e+00
     -0.168      0.010     7.5324     94.904     42.867  44.755469     2.7544     10.675    72.3578 8.6609e+01    12.6389     -0.165     -0.240    27.1911 0.0000e+00
     -0.164      0.012     7.5155     94.700     42.817  44.705466     2.7714     10.677    72.3778 8.5904e+01    12.6456     -0.161     -0.233    27.1959 0.0000e+00
     -0.160      0.012     7.5234     94.316     42.811  44.700352     2.7855     10.678    72.4587 8.4792e+01    12.6996     -0.156     -0.227    27.1975 0.0000e+00
     -0.157      0.011     7.5387     93.776     42.804  44.693644     2.7996     10.681    72.4757 8.3926e+01    12.8130     -0.153     -0.222    27.1960 0.0000e+00
     -0.155      0.009     7.5414     93.142     42.799  44.687831     2.8091     10.683    72.4975 8.3245e+01    12.8885     -0.152     -0.220    27.1963 0.0000e+00
     -0.153      0.008     7.5222     92.521     42.804  44.693550     2.7996     10.684    72.6357 8.2589e+01    12.8951     -0.150     -0.218    27.1989 0.0000e+00
     -0.151      0.007     7.4920     91.972     42.809  44.699308     2.7762     10.682    72.8558 8.2235e+01    12.8599     -0.148     -0.215    27.2007 0.0000e+00
     -0.150      0.006     7.4478     91.515     42.805  44.693978     2.7598     10.681    73.0945 8.2316e+01    12.8722     -0.147     -0.213    27.2006 0.0000e+00
     -0.148      0.005     7.3930     91.162     42.806  44.692585     2.7259     10.680    73.2842 8.3143e+01    12.9752     -0.145     -0.211    27.2009 0.0000e+00
     -0.147      0.003     7.3423     90.925     42.859  44.745939     2.6659     10.679    73.4289 8.4357e+01    13.1152     -0.144     -0.208    27.2018 0.0000e+00
     -0.145      0.002     7.2993     90.867     43.608  45.529499     2.6256     10.679    73.4673 8.5121e+01    13.1642     -0.142     -0.206    27.2016 0.0000e+00
     -0.145      0.001     7.2609     91.577     45.464  47.501007     2.6041     10.679    73.4044 8.9067e+01    13.1235     -0.142     -0.207    27.2004 0.0000e+00
     -0.146      0.000     7.2360     95.655     47.182  49.411307     2.5984     10.678    73.4434 9.3996e+01    12.9994     -0.143     -0.208    27.1974 0.0000e+00
     -0.146     -0.001     7.2122    106.382     47.781  50.215859     2.6149     10.676    73.5080 9.2141e+01    12.8249     -0.144     -0.209    27.1948 0.0000e+00
     -0.146     -0.002     7.2100    122.858     47.786  50.372099     2.6287     10.675    73.4979 8.8166e+01    12.7899     -0.143     -0.208    27.1909 0.0000e+00
     -0.147     -0.002     7.1986    140.360     47.742  50.411709     2.6242     10.676    73.4920 8.8634e+01    12.7809     -0.144     -0.209    27.1925 0.0000e+00
     -0.147     -0.002     7.3525    155.384     47.729  50.440927     2.6098     10.676    73.5227 9.1956e+01    12.7165     -0.145     -0.210    27.3178 0.0000e+00
     -0.148     -0.001     8.1961    166.764     47.739  50.471467     2.6129     10.676    73.6967 9.2459e+01    12.7622     -0.144     -0.210    27.5623 0.0000e+00
     -0.149      0.000     9.6571    174.160     47.722  50.463520     2.6448     10.675    73.9617 8.9522e+01    12.8899     -0.146     -0.212    27.7297 0.0000e+00
     -0.149      0.000    11.1090    177.707     47.665  50.408350     2.6788     10.673    74.1464 9.1227e+01    12.9961     -0.147     -0.213    27.8021 0.0000e+00
     -0.148     -0.002    12.2933    177.887     47.634  50.375867     2.6841     10.671    74.2950 9.7747e+01    13.0219     -0.146     -0.211    27.8411 0.0000e+00
     -0.146     -0.005    13.1983    175.614     47.649  50.388244     2.6675     10.670    74.4671 9.9247e+01    12.8258     -0.143     -0.207    27.8583 0.0000e+00
     -0.146     -0.009    13.7672    172.281     47.697  50.431005     2.6519     10.668    74.6790 9.5316e+01    12.5048     -0.142     -0.205    27.8677 0.0000e+00
     -0.149     -0.013    14.0336    169.109     47.717  50.448411     2.6448     10.667    74.9638 9.2803e+01    12.4198     -0.145     -0.210    27.8716 0.0000e+00
     -0.156     -0.014    14.0256    166.740     47.673  50.408211     2.6573     10.664    75.2438 9.1170e+01    12.5147     -0.152     -0.222    27.8739 0.0000e+00
     -0.164     -0.014    13.8019    165.259     47.645  50.389422     2.6782     10.661    75.3966 8.8822e+01    12.5930     -0.162     -0.235    27.8706 0.0000e+00
     -0.169     -0.013    13.5089    164.364     47.660  50.411740     2.6802     10.661    75.4351 8.8308e+01    12.6835     -0.167     -0.244    27.8577 0.0000e+00
     -0.170     -0.011    13.2453    163.710     47.673  50.424084     2.6649     10.659    75.6228 8.9566e+01    12.6866     -0.168     -0.243    27.8493 0.0000e+00
     -0.168     -0.008    13.0549    163.150     47.668  50.411685     2.6522     10.656    76.0321 8.9965e+01    12.6650     -0.165     -0.239    27.8604 0.0000e+00
     -0.168     -0.007    12.9456    162.654     47.658  50.388798     2.6601     10.654    76.3402 8.8738e+01    12.6954     -0.163     -0.237    27.8774 0.0000e+00
     -0.171     -0.007    12.8868    162.279     47.683  50.401315     2.6771     10.653    76.3372 8.8703e+01    12.6441     -0.168     -0.243    27.8827 0.0000e+00
     -0.175     -0.011    12.8369    162.080     47.725  50.436021     2.6823     10.655    76.0813 9.0981e+01    12.5575     -0.174     -0.251    27.8799 0.0000e+00
     -0.177     -0.016    12.7971    162.063     47.722  50.427444     2.6728     10.659    75.8268 9.3076e+01    12.5026     -0.174     -0.253    27.8732 0.0000e+00
     -0.178     -0.018    12.7585    162.207     47.723  50.424591     2.6457     10.663    75.6688 9.5237e+01    12.5611     -0.174     -0.252    27.8580 0.0000e+00
     -0.182     -0.017    12.7308    162.413     47.765  50.465016     2.6130     10.667    75.5479 9.8173e+01    12.7177     -0.178     -0.256    27.8406 0.0000e+00
     -0.192     -0.014    12.7186    162.609     47.772  50.471744     2.6022     10.670    75.4834 9.9653e+01    12.7905     -0.188     -0.273    27.8321 0.0000e+00
     -0.202     -0.009    12.7164    162.809     47.741  50.442454     2.6149     10.673    75.4918 9.8798e+01    12.7922     -0.201     -0.291    27.8286 0.0000e+00
     -0.204     -0.005    12.7336    162.996     47.723  50.428349     2.6159     10.676    75.5633 9.8168e+01    12.7731     -0.203     -0.294    27.8237 0.0000e+00
     -0.199     -0.000    12.7533    163.120     47.718  50.428204     2.5894     10.679    75.6595 9.8339e+01    12.8320     -0.196     -0.284    27.8177 0.0000e+00
     -0.193      0.005    12.7677    163.209     47.726  50.440694     2.5617     10.680    75.7076 9.7754e+01    12.9577     -0.188     -0.272    27.8166 0.0000e+00
     -0.191      0.008    12.7814    163.229     47.727  50.452393     2.5555     10.682    75.6292 9.6409e+01    12.9949     -0.185     -0.269    27.8218 0.0000e+00
     -0.192      0.008    12.7996    163.168     47.702  50.442681     2.5639     10.686    75.5723 9.5755e+01    13.0080     -0.189     -0.274    27.8287 0.0000e+00
     -0.193      0.007    12.8033    163.097     47.697  50.450277     2.5639     10.688    75.6214 9.7147e+01    13.0140     -0.190     -0.276    27.8335 0.0000e+00
     -0.191      0.007    12.8122    162.942     47.719  50.480760     2.5473     10.689    75.6209 9.8869e+01    12.9999     -0.188     -0.272    27.8353 0.0000e+00
     -0.186      0.008    12.8150    162.650     47.729  50.493789     2.5295     10.692    75.5665 9.8514e+01    13.0085     -0.183     -0.265    27.8459 0.0000e+00
     -0.183      0.011    12.7970    162.264     47.714  50.480828     2.5308     10.695    75.4804 9.6157e+01    13.0152     -0.178     -0.259    27.8664 0.0000e+00
     -0.183      0.013    12.7953    161.885     47.681  50.451033     2.5385     10.697    75.3538 9.4111e+01    13.0123     -0.179     -0.260    27.8818 0.0000e+00
     -0.181      0.013    12.7819    161.660     47.676  50.451033     2.5235     10.699    75.2406 9.3471e+01    12.9735     -0.178     -0.259    27.8893 0.0000e+00
     -0.176      0.012    12.7566    161.559     47.703  50.480827     2.4987     10.702    75.1433 9.2875e+01    12.9215     -0.172     -0.250    27.8906 0.0000e+00
     -0.171      0.012    12.7255    161.430     47.717  50.493800     2.4885     10.704    75.0380 9.1784e+01    12.8961     -0.166     -0.241    27.8910 0.0000e+00
     -0.167      0.011    12.6861    161.271     47.704  50.480899     2.5077     10.707    74.9140 9.0541e+01    12.9056     -0.163     -0.237    27.8987 0.0000e+00
     -0.165      0.009    12.6685    161.178     47.671  50.451834     2.5483     10.711    74.8485 8.9804e+01    12.9674     -0.163     -0.236    27.9061 0.0000e+00
     -0.163      0.006    12.6683    161.192     47.671  50.459862     2.5716     10.712    74.9347 8.9642e+01    13.0293     -0.160     -0.232    27.9056 0.0000e+00
     -0.161      0.003    12.6573    161.265     47.716  50.514474     2.5644     10.712    75.1813 8.9505e+01    13.0046     -0.157     -0.228    27.9024 0.0000e+00
     -0.160      0.001    12.6412    161.292     47.738  50.540709     2.5452     10.711    75.4215 8.9349e+01    12.9770     -0.156     -0.227    27.9019 0.0000e+00
     -0.162      0.000    12.6316    161.239     47.719  50.523085     2.5467     10.709    75.5152 8.9861e+01    13.1047     -0.159     -0.230    27.9091 0.0000e+00
     -0.164     -0.002    12.6307    161.162     47.688  50.491885     2.5665     10.708    75.6267 9.0541e+01    13.2511     -0.163     -0.236    27.9205 0.0000e+00
     -0.164     -0.003    12.6398    161.113     47.674  50.480943     2.5679     10.707    75.8230 9.0612e+01    13.2780     -0.162     -0.234    27.9270 0.0000e+00
     -0.163     -0.003    12.6421    161.105     47.705  50.517782     2.5387     10.705    76.0813 9.0966e+01    13.3613     -0.159     -0.229    27.9291 0.0000e+00
     -0.164      0.000    12.6349    161.084     47.741  50.556343     2.4960     10.703    76.5132 9.0732e+01    13.5410     -0.160     -0.232    27.9311 0.0000e+00
     -0.167      0.004    12.6274    160.989     47.758  50.566211     2.4849     10.701    78.3778 9.0993e+01    13.6401     -0.164     -0.238    27.9331 0.0000e+00
     -0.168      0.008    12.6219    160.894     47.778  50.573583     2.5044     10.699    95.7011 9.3673e+01    13.6719     -0.167     -0.242    27.9358 0.0000e+00
     -0.165      0.014    12.6212    160.929     47.802  50.581958     2.5060     10.698   111.7383 9.8687e+01    13.6865     -0.164     -0.237    27.9434 0.0000e+00
     -0.158      0.022    12.6225    161.158     47.838  50.603954     2.4802     10.696    96.9342 1.0540e+02    13.6450     -0.154     -0.224    27.9467 0.0000e+00
     -0.152      0.029    12.6144    161.557     47.895  50.649029     2.4424     10.692    81.9008 1.0691e+02    13.6147     -0.150     -0.217    27.9360 0.0000e+00
     -0.144      0.035    12.6056    161.947     47.942  50.682462     2.4147     10.691    98.6942 9.7382e+01    13.6280     -0.145     -0.210    27.9191 0.0000e+00
     -0.132      0.038    12.6126    162.224     47.964  50.690694     2.4126     10.695   116.4597 8.4536e+01    13.6350     -0.131     -0.190    27.9001 0.0000e+00
     -0.120      0.039    12.6317    162.468     47.968  50.685039     2.4421     10.699   101.3927 7.8729e+01    13.4945     -0.116     -0.168    27.8840 0.0000e+00
     -0.111      0.037    12.6741    162.768     47.967  50.677567     2.4796     10.702    83.2648 7.7364e+01    13.1924     -0.109     -0.159    27.8709 0.0000e+00
     -0.101      0.033    12.7140    163.232     47.958  50.663830     2.4824     10.704    80.7128 7.5241e+01    12.9879     -0.100     -0.145    27.8508 0.0000e+00
     -0.091      0.027    12.7329    163.825     47.944  50.645937     2.4760     10.707    80.9463 7.3832e+01    12.9350     -0.087     -0.126    27.8323 0.0000e+00
     -0.085      0.022    12.7556    164.367     47.950  50.651699     2.5026     10.710    82.3029 7.3797e+01    13.0998     -0.081     -0.118    27.8234 0.0000e+00
     -0.082      0.018    12.7738    164.759     47.966  50.670002     2.5381     10.712    82.4027 7.3213e+01    13.4774     -0.081     -0.118    27.8176 0.0000e+00
     -0.080      0.013    12.8123    165.024     47.971  50.676756     2.5469     10.711    81.6370 7.1583e+01    13.6746     -0.079     -0.115    27.8136 0.0000e+00
     -0.077      0.006    12.8675    165.221     47.963  50.669867     2.5511     10.709    81.0470 6.9238e+01    13.6396     -0.074     -0.109    27.8112 0.0000e+00
     -0.073     -0.002    12.9118    165.346     47.941  50.650208     2.5475     10.706    80.5173 6.7463e+01    13.3963     -0.071     -0.103    27.8103 0.0000e+00
     -0.071     -0.012    12.9418    165.341     47.916  50.629551     2.5200     10.704    80.2223 7.0261e+01    12.9869     -0.069     -0.100    27.8123 0.0000e+00
     -0.074     -0.023    12.9587    165.156     47.890  50.610596     2.5094     10.702    80.0608 7.5991e+01    12.7893     -0.068     -0.099    27.8143 0.0000e+00
     -0.084     -0.037    12.9751    164.819     47.884  50.611530     2.5105     10.700    79.8554 7.7805e+01    12.7490     -0.080     -0.117    27.8156 0.0000e+00
     -0.098     -0.049    12.9859    164.444     47.904  50.640852     2.4913     10.700    79.6315 7.7539e+01    12.6695     -0.098     -0.142    27.8180 0.0000e+00
     -0.111     -0.054    12.9863    164.107     47.901  50.647672     2.4523     10.700    79.4180 8.1546e+01    12.6141     -0.106     -0.155    27.8239 0.0000e+00
     -0.128     -0.053    12.9690    163.792     47.875  50.630498     2.4232     10.701    79.2539 8.7233e+01    12.6263     -0.122     -0.178    27.8334 0.0000e+00
     -0.150     -0.048    12.9360    163.481     47.859  50.623712     2.4297     10.702    79.1102 8.9059e+01    12.7134     -0.150     -0.218    27.8426 0.0000e+00
     -0.165     -0.040    12.9023    163.241     47.858  50.629132     2.4229     10.705    78.8843 8.8958e+01    12.7802     -0.166     -0.242    27.8506 0.0000e+00
     -0.169     -0.032    12.8752    163.090     47.858  50.632542     2.3749     10.708    78.6740 8.9554e+01    12.7505     -0.165     -0.240    27.8590 0.0000e+00
     -0.170     -0.022    12.8496    162.928     47.829  50.601458     2.3309     10.711    78.7183 9.0064e+01    12.6958     -0.165     -0.239    27.8710 0.0000e+00
     -0.174     -0.015    12.8185    162.652     47.799  50.570770     2.3077     10.712    80.5388 9.0409e+01    12.6998     -0.171     -0.248    27.8838 0.0000e+00
     -0.178     -0.011    12.7972    162.281     47.797  50.578973     2.3102     10.713   100.0832 9.2160e+01    12.7644     -0.175     -0.254    27.8905 0.0000e+00
     -0.181     -0.011    12.7886    161.901     47.776  50.573670     2.3446     10.717   137.1849 9.4648e+01    13.0334     -0.178     -0.257    27.8933 0.0000e+00
     -0.184     -0.011    12.7797    161.586     47.759  50.570174     2.3829     10.725   158.5616 9.4121e+01    13.4580     -0.180     -0.261    27.8919 0.0000e+00
     -0.186     -0.012    12.7589    161.470     47.780  50.600229     2.3898     10.732   144.4816 9.2216e+01    13.6281     -0.182     -0.264    27.8884 0.0000e+00
     -0.187     -0.015    12.7218    161.526     47.795  50.619597     2.3697     10.735   110.8016 9.2474e+01    13.5871     -0.184     -0.266    27.8997 0.0000e+00
     -0.189     -0.017    12.6890    161.596     47.789  50.613865     2.3393     10.735    90.4208 9.3387e+01    13.4411     -0.184     -0.266    27.9221 0.0000e+00
     -0.195     -0.017    12.6526    161.711     47.769  50.594420     2.3134     10.734    86.4843 9.3897e+01    13.1608     -0.190     -0.275    27.9402 0.0000e+00
     -0.203     -0.017    12.6417    161.901     47.751  50.574976     2.3151     10.734    84.8874 9.4621e+01    12.9993     -0.200     -0.291    27.9478 0.0000e+00
     -0.210     -0.015    12.6571    162.088     47.749  50.569253     2.3186     10.734    84.1054 9.5247e+01    12.9573     -0.208     -0.301    27.9482 0.0000e+00
     -0.213     -0.008    12.6555    162.202     47.771  50.588718     2.2897     10.731    85.0308 9.6436e+01    12.9261     -0.210     -0.305    27.9493 0.0000e+00
     -0.214      0.004    12.6647    162.235     47.805  50.619827     2.2572     10.726    86.0964 9.7766e+01    12.9295     -0.210     -0.305    27.9506 0.0000e+00
     -0.214      0.018    12.6821    162.220     47.816  50.627907     2.2578     10.721    84.5135 9.7861e+01    12.9635     -0.210     -0.304    27.9509 0.0000e+00
     -0.212      0.030    12.6999    162.209     47.812  50.622910     2.2714     10.718    82.6691 9.6717e+01    12.9963     -0.211     -0.307    27.9472 0.0000e+00
     -0.201      0.035    12.7104    162.202     47.811  50.622901     2.2801     10.717    82.2093 9.2649e+01    13.0188     -0.203     -0.294    27.9419 0.0000e+00
     -0.181      0.034    12.7123    162.108     47.814  50.627802     2.2969     10.716    82.0508 8.5952e+01    13.0647     -0.177     -0.257    27.9373 0.0000e+00
     -0.163      0.027    12.7118    161.949     47.804  50.618681     2.3164     10.714    81.9575 8.1350e+01    13.1076     -0.156     -0.226    27.9324 0.0000e+00
     -0.155      0.015    12.7078    161.788     47.761  50.576113     2.3329     10.711    81.8555 8.1112e+01    13.1273     -0.148     -0.215    27.9325 0.0000e+00
     -0.157      0.000    12.7139    161.586     47.739  50.557583     2.3465     10.710    81.7637 8.2073e+01    13.0296     -0.151     -0.219    27.9347 0.0000e+00
     -0.165     -0.013    12.7041    161.353     47.759  50.585136     2.3480     10.711    81.5361 8.2594e+01    12.8479     -0.162     -0.234    27.9349 0.0000e+00
     -0.175     -0.022    12.6871    161.156     47.760  50.591791     2.3336     10.712    81.1686 8.5770e+01    12.7749     -0.172     -0.249    27.9369 0.0000e+00
     -0.184     -0.023    12.6781    161.030     47.742  50.574560     2.3138     10.715    80.9340 8.9749e+01    12.7628     -0.183     -0.264    27.9397 0.0000e+00
     -0.189     -0.018    12.6598    160.989     47.734  50.567282     2.3085     10.717    80.8504 9.0558e+01    12.7343     -0.186     -0.270    27.9446 0.0000e+00
     -0.193     -0.009    12.6372    161.024     47.733  50.567291     2.3200     10.719    80.7603 9.2781e+01    12.7720     -0.188     -0.272    27.9527 0.0000e+00
     -0.198      0.000    12.6196    161.050     47.740  50.574673     2.3277     10.721    80.5329 9.7850e+01    12.9123     -0.199     -0.288    27.9589 0.0000e+00
     -0.197      0.008    12.6100    161.031     47.757  50.593038     2.3191     10.722    80.3378 1.0058e+02    12.9956     -0.197     -0.285    27.9611 0.0000e+00
     -0.189      0.017    12.6045    160.986     47.763  50.598863     2.3064     10.723    80.2938 9.9709e+01    12.9591     -0.184     -0.266    27.9612 0.0000e+00
     -0.181      0.027    12.6119    160.886     47.747  50.581594     2.3408     10.724    80.0878 9.7898e+01    13.0177     -0.177     -0.257    27.9619 0.0000e+00
     -0.176      0.035    12.6150    160.813     47.739  50.574725     2.4110     10.725    79.7391 9.7302e+01    13.1915     -0.174     -0.252    27.9628 0.0000e+00
     -0.170      0.040    12.6101    160.834     47.743  50.579310     2.4391     10.727    79.5196 9.9260e+01    13.2846     -0.170     -0.246    27.9627 0.0000e+00
     -0.156      0.039    12.6115    160.821     47.738  50.573538     2.4472     10.729    79.4131 1.0152e+02    13.2551     -0.155     -0.225    27.9617 0.0000e+00
     -0.139      0.033    12.5999    160.756     47.735  50.568428     2.4681     10.731    79.3978 1.0263e+02    13.1089     -0.133     -0.194    27.9609 0.0000e+00
     -0.125      0.022    12.5884    160.805     47.749  50.581022     2.4834     10.733    79.4205 1.0573e+02    12.9505     -0.121     -0.175    27.9629 0.0000e+00
     -0.119      0.008    12.5975    161.009     47.767  50.598812     2.4909     10.735    79.3431 1.0759e+02    12.9456     -0.113     -0.165    27.9655 0.0000e+00
     -0.120     -0.007    12.5985    161.278     47.762  50.593040     2.4920     10.736    79.2360 1.0653e+02    13.0156     -0.113     -0.164    27.9649 0.0000e+00
     -0.131     -0.019    12.5845    161.490     47.744  50.574734     2.4804     10.738    79.2442 1.0298e+02    13.0795     -0.128     -0.185    27.9607 0.0000e+00
     -0.144     -0.027    12.5901    161.580     47.736  50.567969     2.4500     10.739    79.3564 9.8113e+01    13.1717     -0.143     -0.208    27.9579 0.0000e+00
     -0.153     -0.029    12.6085    161.584     47.741  50.574736     2.4244     10.739    79.3882 9.5437e+01    13.2078     -0.151     -0.219    27.9578 0.0000e+00
     -0.160     -0.026    12.6336    161.515     47.759  50.593051     2.4122     10.740    79.2846 9.3649e+01    13.1751     -0.158     -0.229    27.9570 0.0000e+00
     -0.165     -0.020    12.6534    161.357     47.764  50.598937     2.4024     10.742    79.1361 9.3073e+01    13.1516     -0.163     -0.236    27.9569 0.0000e+00
     -0.169     -0.015    12.6563    161.109     47.749  50.582405     2.3887     10.744    78.9699 9.2098e+01    13.0604     -0.166     -0.241    27.9593 0.0000e+00
     -0.171     -0.010    12.6572    160.871     47.751  50.583655     2.3722     10.746    78.8244 8.9734e+01    12.9269     -0.169     -0.245    27.9613 0.0000e+00
     -0.173     -0.006    12.6514    160.772     47.781  50.614039     2.3600     10.750    78.6663 8.9031e+01    12.9033     -0.170     -0.247    27.9611 0.0000e+00
     -0.175     -0.005    12.6407    160.812     47.800  50.632303     2.3581     10.752    78.5213 8.9073e+01    13.0140     -0.172     -0.249    27.9605 0.0000e+00
     -0.175     -0.006    12.6185    160.906     47.785  50.613989     2.3742     10.754    78.4470 8.8759e+01    13.1725     -0.173     -0.250    27.9601 0.0000e+00
     -0.175     -0.008    12.5937    161.008     47.758  50.583094     2.3885     10.756    78.4568 8.8315e+01    13.2144     -0.171     -0.248    27.9595 0.0000e+00
     -0.176     -0.012    12.5882    161.122     47.754  50.576225     2.3812     10.757    78.5536 8.7577e+01    13.1789     -0.171     -0.248    27.9587 0.0000e+00
     -0.179     -0.017    12.5939    161.166     47.773  50.594421     2.3692     10.757    78.6717 8.6897e+01    13.1870     -0.173     -0.252    27.9560 0.0000e+00
     -0.184     -0.020    12.6048    161.101     47.790  50.612626     2.3766     10.757    78.7667 8.6558e+01    13.2445     -0.179     -0.260    27.9530 0.0000e+00
     -0.193     -0.021    12.6103    161.090     47.781  50.605850     2.4040     10.757    78.8409 8.6343e+01    13.3620     -0.189     -0.274    27.9511 0.0000e+00
     -0.202     -0.021    12.6230    161.173     47.751  50.575995     2.4347     10.757    78.8814 8.5787e+01    13.4465     -0.199     -0.289    27.9485 0.0000e+00
     -0.207     -0.018    12.6322    161.235     47.743  50.569130     2.4567     10.757    78.9116 8.5002e+01    13.4796     -0.205     -0.297    27.9455 0.0000e+00
     -0.210     -0.012    12.6165    161.225     47.758  50.586344     2.4530     10.758    78.9474 8.4048e+01    13.3521     -0.206     -0.299    27.9459 0.0000e+00
     -0.212     -0.006    12.6151    161.182     47.764  50.593639     2.4309     10.759    78.8847 8.3665e+01    13.0676     -0.208     -0.301    27.9490 0.0000e+00
     -0.213      0.000    12.6267    161.159     47.764  50.593838     2.4310     10.760    78.7552 8.4050e+01    12.9766     -0.209     -0.305    27.9514 0.0000e+00
     -0.213      0.005    12.6318    161.192     47.761  50.588757     2.4538     10.761    78.6718 8.3905e+01    13.0372     -0.211     -0.306    27.9534 0.0000e+00
     -0.210      0.008    12.6291    161.265     47.771  50.595695     2.4650     10.762    78.6512 8.3498e+01    12.9466     -0.207     -0.300    27.9558 0.0000e+00
     -0.205      0.011    12.6236    161.316     47.792  50.614218     2.4586     10.764    78.6785 8.2889e+01    12.7360     -0.201     -0.291    27.9564 0.0000e+00
     -0.201      0.015    12.6216    161.390     47.803  50.622233     2.4441     10.764    78.7435 8.1839e+01    12.6077     -0.195     -0.283    27.9555 0.0000e+00
     -0.199      0.019    12.6236    161.563     47.813  50.629104     2.4301     10.764    78.8345 8.1161e+01    12.5914     -0.194     -0.282    27.9531 0.0000e+00
     -0.197      0.022    12.6350    161.832     47.820  50.633793     2.4472     10.763    78.9188 8.0872e+01    12.6415     -0.195     -0.283    27.9494 0.0000e+00
     -0.190      0.023    12.6368    162.169     47.804  50.615428     2.4857     10.763    78.9882 8.0582e+01    12.7353     -0.188     -0.273    27.9462 0.0000e+00
     -0.180      0.023    12.6396    162.462     47.785  50.597535     2.4952     10.763    79.0717 7.9089e+01    12.7353     -0.177     -0.256    27.9436 0.0000e+00
     -0.169      0.021    12.6564    162.561     47.793  50.607935     2.4868     10.763    79.1543 7.7245e+01    12.6400     -0.165     -0.239    27.9388 0.0000e+00
     -0.162      0.017    12.6776    162.460     47.798  50.614180     2.4852     10.763    79.2127 7.7220e+01    12.5051     -0.158     -0.228    27.9339 0.0000e+00
     -0.160      0.012    12.7073    162.235     47.795  50.609552     2.4922     10.762    79.2617 7.7448e+01    12.3347     -0.157     -0.227    27.9336 0.0000e+00
     -0.161      0.007    12.7364    161.927     47.803  50.615481     2.5127     10.762    79.2297 7.7741e+01    12.2535     -0.158     -0.230    27.9359 0.0000e+00
     -0.162      0.003    12.7426    161.609     47.813  50.622360     2.5162     10.763    79.1699 7.8577e+01    12.2406     -0.160     -0.232    27.9384 0.0000e+00
     -0.162      0.001    12.7304    161.414     47.821  50.629230     2.4930     10.765    79.1418 7.8263e+01    12.2133     -0.160     -0.232    27.9401 0.0000e+00
     -0.161      0.001    12.7142    161.459     47.826  50.635045     2.4823     10.766    79.0618 7.7733e+01    12.2313     -0.158     -0.230    27.9388 0.0000e+00
     -0.161      0.002    12.6880    161.679     47.820  50.629178     2.4945     10.767    78.9759 7.7665e+01    12.3558     -0.158     -0.229    27.9349 0.0000e+00
     -0.160      0.002    12.6610    161.913     47.812  50.621788     2.5083     10.769    78.9641 7.7228e+01    12.4876     -0.157     -0.228    27.9310 0.0000e+00
     -0.160      0.002    12.6405    162.135     47.799  50.609193     2.5073     10.769    79.0051 7.7072e+01    12.4926     -0.157     -0.227    27.9286 0.0000e+00
     -0.159      0.001    12.6461    162.399     47.794  50.603883     2.5075     10.770    79.0414 7.7306e+01    12.3832     -0.156     -0.226    27.9291 0.0000e+00
     -0.159      0.000    12.6708    162.677     47.809  50.621086     2.5195     10.772    78.9731 7.7019e+01    12.2581     -0.155     -0.225    27.9313 0.0000e+00
     -0.159 2.0351e-08    12.6876    162.852     47.813  50.626710     2.5353     10.774    78.7819 7.6600e+01    12.2432     -0.156     -0.226    27.9325 0.0000e+00
     -0.160 2.2386e-07    12.7029    162.831     47.794  50.608381     2.5570     10.776    78.6216 7.6809e+01    12.3061     -0.156     -0.227    27.9326 0.0000e+00
     -0.160 2.2727e-07    12.7237    162.642     47.776  50.589967     2.5570     10.777    78.5836 7.6885e+01    12.2668     -0.158     -0.229    27.9331 0.0000e+00
     -0.160 6.1664e-08    12.7497    162.414     47.781  50.594547     2.5280     10.779    78.5807 7.6679e+01    12.1093     -0.157     -0.228    27.9342 0.0000e+00
     -0.159 4.5664e-07    12.7661    162.239     47.788  50.600263     2.5051     10.781    78.5011 7.6862e+01    12.0081     -0.156     -0.226    27.9356 0.0000e+00
     -0.159      0.000    12.7633    162.111     47.784  50.595588     2.4968     10.783    78.3951 7.7239e+01    12.0336     -0.155     -0.224    27.9379 0.0000e+00
     -0.159      0.000    12.7436    162.008     47.789  50.601512     2.5112     10.785    78.3320 7.7509e+01    12.2461     -0.155     -0.225    27.9388 0.0000e+00
     -0.160      0.001    12.7228    161.967     47.795  50.608395     2.5456     10.787    78.2543 7.7728e+01    12.5965     -0.157     -0.227    27.9374 0.0000e+00
     -0.160      0.002    12.7106    162.032     47.800  50.615313     2.5631     10.789    78.1433 7.7858e+01    12.7521     -0.157     -0.228    27.9359 0.0000e+00
     -0.159      0.003    12.7017    162.143     47.805  50.621663     2.5561     10.790    78.1078 7.7823e+01    12.7273     -0.157     -0.227    27.9354 0.0000e+00
     -0.158      0.006    12.6926    162.198     47.805  50.621672     2.5523     10.792    78.1706 7.7834e+01    12.8774     -0.155     -0.224    27.9357 0.0000e+00
     -0.157      0.008    12.6861    162.136     47.800  50.615427     2.5586     10.793    78.2136 7.8257e+01    13.1654     -0.154     -0.223    27.9365 0.0000e+00
     -0.155      0.009    12.6939    161.989     47.796  50.609655     2.5574     10.792    78.2838 8.0628e+01    13.2719     -0.152     -0.220    27.9377 0.0000e+00
     -0.151      0.010    12.7058    161.897     47.801  50.615375     2.5551     10.791    78.4167 8.3578e+01    13.1747     -0.148     -0.215    27.9384 0.0000e+00
     -0.147      0.010    12.7111    161.929     47.806  50.621090     2.5552     10.791    78.5303 8.3205e+01    13.0836     -0.143     -0.208    27.9396 0.0000e+00
     -0.144      0.009    12.7073    162.044     47.800  50.615251     2.5424     10.791    78.6243 8.1322e+01    13.0926     -0.141     -0.205    27.9389 0.0000e+00
     -0.143      0.008    12.6893    162.148     47.791  50.608271     2.5334     10.790    78.6937 8.3170e+01    13.1470     -0.139     -0.203    27.9361 0.0000e+00
     -0.141      0.005    12.6810    162.099     47.780  50.600199     2.5463     10.786    78.9386 8.6175e+01    13.1946     -0.138     -0.200    27.9362 0.0000e+00
     -0.140      0.000    12.6851    161.841     47.760  50.581161     2.5651     10.782    79.4351 8.5524e+01    13.2241     -0.139     -0.201    27.9370 0.0000e+00
     -0.140     -0.005    12.6955    161.482     47.745  50.568566     2.5696     10.779    79.7920 8.5251e+01    13.0940     -0.137     -0.199    27.9375 0.0000e+00
     -0.140     -0.008    12.7088    161.204     47.749  50.574915     2.5595     10.776    79.9848 8.5146e+01    12.8168     -0.136     -0.197    27.9404 0.0000e+00
     -0.143     -0.009    12.7058    161.075     47.767  50.594435     2.5507     10.773    80.3898 8.2696e+01    12.6735     -0.141     -0.202    27.9444 0.0000e+00
     -0.150     -0.008    12.6818    161.001     47.786  50.614093     2.5543     10.769    82.4518 8.2821e+01    12.6932     -0.148     -0.214    27.9474 0.0000e+00
     -0.155     -0.003    12.6460    160.894     47.794  50.622117     2.5533     10.767   101.3020 8.7088e+01    12.8164     -0.154     -0.223    27.9499 0.0000e+00
     -0.157      0.004    12.6219    160.841     47.800  50.627957     2.5384     10.769   136.3137 9.1077e+01    13.0362     -0.155     -0.225    27.9520 0.0000e+00
     -0.154      0.012    12.6149    160.936     47.794  50.621197     2.5239     10.774   157.3162 9.3751e+01    13.1984     -0.152     -0.220    27.9532 0.0000e+00
     -0.148      0.016    12.6140    161.111     47.778  50.603881     2.5040     10.780   161.1367 1.0214e+02    13.2060     -0.147     -0.214    27.9537 0.0000e+00
     -0.139      0.016    12.6016    161.324     47.784  50.609078     2.4806     10.786   162.0292 1.1620e+02    13.0597     -0.137     -0.199    27.9533 0.0000e+00
     -0.129      0.011    12.5921    161.549     47.799  50.620539     2.4647     10.792   162.1713 1.3396e+02    12.8298     -0.122     -0.177    27.9515 0.0000e+00
     -0.124      0.003    12.6060    161.703     47.799  50.615450     2.4547     10.796   162.0808 2.2278e+02    12.7155     -0.119     -0.172    27.9505 0.0000e+00
     -0.127     -0.004    12.6189    161.801     47.798  50.611041     2.4424     10.798   159.0416 6.4438e+02    12.7370     -0.125     -0.180    27.9515 0.0000e+00
     -0.134     -0.008    12.6354    161.966     47.818  50.630718     2.4408     10.794   141.3425 1.3270e+03    12.8503     -0.132     -0.191    27.9506 0.0000e+00
     -0.143     -0.007    12.6589    162.220     47.851  50.662872     2.4681     10.783   113.0194 1.7937e+03    13.0950     -0.141     -0.205    27.9451 0.0000e+00
     -0.148     -0.002    12.6722    162.467     47.873  50.682337     2.4976     10.771    97.0765 1.9650e+03    13.2698     -0.148     -0.215    27.9383 0.0000e+00
     -0.147      0.003    12.6749    162.676     47.869  50.675569     2.5150     10.764    93.7271 1.9826e+03    13.2563     -0.147     -0.213    27.9349 0.0000e+00
     -0.139      0.005    12.6866    162.831     47.843  50.644532     2.5116     10.759    92.2249 1.8700e+03    13.1362     -0.137     -0.199    27.9346 0.0000e+00
     -0.131      0.004    12.7133    162.919     47.826  50.624550     2.4905     10.756    91.3894 1.7981e+03    12.9792     -0.126     -0.183    27.9319 0.0000e+00
     -0.127      0.001    12.7322    162.973     47.827  50.624447     2.4930     10.756    94.0362 1.9491e+03    12.9295     -0.121     -0.176    27.9272 0.0000e+00
     -0.131     -0.003    12.7502    163.006     47.846  50.643286     2.5086     10.758   107.1051 2.1337e+03    13.0134     -0.127     -0.185    27.9236 0.0000e+00
     -0.139     -0.005    12.7645    163.007     47.865  50.661841     2.5037     10.764   129.8097 2.1990e+03    13.0367     -0.138     -0.200    27.9208 0.0000e+00
     -0.145     -0.006    12.7693    162.981     47.861  50.658315     2.5169     10.773   149.5861 2.2215e+03    13.1096     -0.144     -0.209    27.9189 0.0000e+00
     -0.145     -0.004    12.7744    162.961     47.865  50.664144     2.5601     10.782   158.7398 2.1782e+03    13.3816     -0.144     -0.208    27.9171 0.0000e+00
     -0.142     -0.001    12.7773    162.929     47.867  50.668829     2.5850     10.789   161.0724 2.0726e+03    13.5926     -0.139     -0.201    27.9154 0.0000e+00
     -0.139      0.001    12.7782    162.852     47.848  50.651466     2.5925     10.795   161.2703 2.0015e+03    13.6808     -0.135     -0.196    27.9151 0.0000e+00
     -0.138      0.002    12.7739    162.789     47.840  50.644701     2.5931     10.798   160.2714 2.0148e+03    13.6282     -0.135     -0.196    27.9156 0.0000e+00
     -0.139      0.002    12.7723    162.749     47.845  50.650530     2.5759     10.800   159.0617 2.0584e+03    13.4007     -0.136     -0.198    27.9171 0.0000e+00
     -0.141      0.003    12.7728    162.708     47.853  50.658450     2.5510     10.804   158.5169 2.0433e+03    13.2182     -0.138     -0.200    27.9202 0.0000e+00
     -0.141      0.006    12.7613    162.764     47.872  50.676964     2.5423     10.808   154.0294 1.9049e+03    13.1639     -0.138     -0.201    27.9233 0.0000e+00
     -0.140      0.012    12.7557    162.894     47.881  50.683889     2.5534     10.810   149.6297 1.8370e+03    13.2559     -0.137     -0.199    27.9254 0.0000e+00
     -0.137      0.018    12.7570    162.961     47.879  50.678686     2.5681     10.812   153.6751 2.2228e+03    13.4424     -0.136     -0.197    27.9256 0.0000e+00
     -0.132      0.022    12.7469    163.021     47.879  50.677542     2.5631     10.816   158.0290 2.5694e+03    13.5063     -0.131     -0.190    27.9243 0.0000e+00
     -0.122      0.022    12.7517    163.118     47.874  50.670058     2.5509     10.817   158.0485 2.2322e+03    13.4135     -0.121     -0.174    27.9225 0.0000e+00
     -0.111      0.019    12.7721    163.183     47.856  50.651693     2.5370     10.818   157.7820 1.7903e+03    13.1070     -0.107     -0.155    27.9202 0.0000e+00
     -0.104      0.014    12.7721    163.225     47.850  50.645972     2.5110     10.819   157.5602 1.6886e+03    12.6696     -0.100     -0.145    27.9178 0.0000e+00
     -0.103      0.009    12.7744    163.202     47.867  50.664385     2.5114     10.820   157.1732 1.6788e+03    12.4966     -0.101     -0.146    27.9152 0.0000e+00
     -0.107      0.004    12.7898    163.069     47.887  50.683840     2.5174     10.821   156.8025 1.6642e+03    12.5523     -0.105     -0.153    27.9133 0.0000e+00
     -0.109      0.000    12.7895    162.901     47.897  50.690706     2.5165     10.823   156.6922 1.7112e+03    12.6604     -0.109     -0.158    27.9134 0.0000e+00
     -0.108     -0.002    12.7959    162.790     47.893  50.683902     2.5336     10.824   156.7001 1.8513e+03    12.8129     -0.107     -0.155    27.9151 0.0000e+00
     -0.106     -0.003    12.7962    162.734     47.875  50.665063     2.5416     10.824   156.5537 1.9380e+03    12.9274     -0.103     -0.149    27.9165 0.0000e+00
     -0.105     -0.004    12.7823    162.649     47.863  50.653415     2.5462     10.824   156.2992 1.8388e+03    12.9859     -0.102     -0.147    27.9142 0.0000e+00
     -0.107     -0.006    12.7685    162.560     47.879  50.670060     2.5649     10.824   156.0308 1.7645e+03    12.9393     -0.104     -0.150    27.9085 0.0000e+00
     -0.110     -0.009    12.7586    162.535     47.887  50.675833     2.5762     10.825   155.8038 1.8812e+03    12.7741     -0.108     -0.156    27.9057 0.0000e+00
     -0.115     -0.011    12.7602    162.585     47.875  50.659713     2.5654     10.827   155.6200 2.0052e+03    12.6280     -0.113     -0.164    27.9068 0.0000e+00
     -0.119     -0.013    12.7500    162.655     47.883  50.665636     2.5513     10.829   155.4433 2.0290e+03    12.6079     -0.117     -0.170    27.9086 0.0000e+00
     -0.121     -0.013    12.7410    162.688     47.902  50.683956     2.5472     10.830   155.3026 2.0039e+03    12.6669     -0.119     -0.172    27.9084 0.0000e+00
     -0.124     -0.012    12.7395    162.713     47.908  50.690718     2.5490     10.831   155.1234 2.0015e+03    12.7273     -0.120     -0.175    27.9053 0.0000e+00
     -0.127     -0.011    12.7459    162.767     47.902  50.683904     2.5568     10.832   154.8244 2.0315e+03    12.7563     -0.125     -0.181    27.9012 0.0000e+00
     -0.131     -0.009    12.7554    162.815     47.886  50.665065     2.5494     10.833   154.6127 2.0238e+03    12.7113     -0.128     -0.186    27.8981 0.0000e+00
     -0.133     -0.007    12.7559    162.825     47.879  50.653418     2.5352     10.835   154.5437 1.9423e+03    12.6948     -0.130     -0.189    27.8964 0.0000e+00
     -0.135     -0.004    12.7563    162.811     47.899  50.670065     2.5595     10.836   154.4203 1.8855e+03    12.8305     -0.133     -0.193    27.8968 0.0000e+00
     -0.136     -0.001    12.7624    162.807     47.908  50.675848     2.6099     10.838   154.3243 1.8657e+03    12.9850     -0.134     -0.195    27.8973 0.0000e+00
     -0.135      0.001    12.7676    162.815     47.896  50.659842     2.6369     10.838   154.1574 1.9048e+03    13.0262     -0.133     -0.192    27.8952 0.0000e+00
     -0.134      0.002    12.7689    162.812     47.904  50.667015     2.6283     10.839   152.6609 2.0797e+03    12.9871     -0.131     -0.190    27.8906 0.0000e+00
     -0.132      0.003    12.7678    162.853     47.934  50.699084     2.5964     10.840   138.9839 2.1252e+03    12.9213     -0.129     -0.188    27.8854 0.0000e+00
     -0.131      0.006    12.7678    163.026     47.964  50.730103     2.5602     10.839   113.8045 2.0640e+03    12.8803     -0.128     -0.186    27.8813 0.0000e+00
     -0.131      0.011    12.7713    163.280     47.961  50.724597     2.5483     10.834   109.6058 2.0675e+03    12.9351     -0.129     -0.187    27.8786 0.0000e+00
     -0.131      0.020    12.7693    163.435     47.939  50.695993     2.5607     10.828   119.7091 2.0084e+03    13.0373     -0.129     -0.187    27.8768 0.0000e+00
     -0.129      0.031    12.7689    163.504     47.951  50.701721     2.5855     10.820   108.1076 1.9210e+03    13.1946     -0.129     -0.186    27.8765 0.0000e+00
     -0.120      0.042    12.7824    163.670     47.985  50.730342     2.6065     10.811    90.2189 1.8231e+03    13.4701     -0.121     -0.176    27.8776 0.0000e+00
     -0.104      0.052    12.8119    163.935     47.986  50.724562     2.6058     10.804    84.4449 1.6512e+03    13.6360     -0.103     -0.150    27.8765 0.0000e+00
     -0.084      0.058    12.8255    164.145     47.969  50.695324     2.6109     10.797    82.9484 1.4769e+03    13.6634     -0.083     -0.120    27.8695 0.0000e+00
     -0.064      0.061    12.8228    164.216     47.980  50.694286     2.6432     10.790    82.1056 1.4211e+03    13.6642     -0.061     -0.090    27.8601 0.0000e+00
     -0.048      0.062    12.8390    164.196     48.005  50.711983     2.6800     10.784    81.5673 1.4262e+03    13.5782     -0.044     -0.064    27.8534 0.0000e+00
     -0.037      0.063    12.8673    164.224     48.011  50.718806     2.6895     10.779    81.0859 1.2544e+03    13.4771     -0.038     -0.055    27.8477 0.0000e+00
     -0.025      0.065    12.8879    164.383     48.001  50.713284     2.6750     10.774    80.7595 8.7334e+02    13.3981     -0.027     -0.040    27.8380 0.0000e+00
     -0.008      0.068    12.8966    164.596     47.994  50.708721     2.6626     10.770    80.6327 5.1936e+02    13.3751     -0.008     -0.012    27.8202 0.0000e+00
      0.011      0.070    12.8930    164.761     48.013  50.727136     2.6809     10.766    80.4996 3.5721e+02    13.6077      0.008      0.012    27.8079 0.0000e+00
      0.033      0.072    12.8903    164.873     48.033  50.745441     2.7299     10.762    80.3540 3.0302e+02    13.9909      0.032      0.047    27.8115 0.0000e+00
      0.055      0.075    12.9052    165.016     48.029  50.739554     2.7474     10.758    80.2485 2.6104e+02    14.1477      0.055      0.081    27.8198 0.0000e+00
      0.072      0.078    12.9244    165.236     48.012  50.719446     2.7267     10.754    80.1707 2.3614e+02    14.0692      0.073      0.106    27.8231 0.0000e+00
      0.086      0.079    12.9383    165.444     47.987  50.692808     2.7628     10.753    80.1884 2.2528e+02    13.8960      0.083      0.122    27.8196 0.0000e+00
      0.104      0.078    12.9450    165.567     47.966  50.671451     2.8588     10.753    80.2898 2.2499e+02    13.7271      0.097      0.141    27.8160 0.0000e+00
      0.130      0.077    12.9531    165.622     47.945  50.651701     2.9138     10.753    80.5368 2.2874e+02    13.6669      0.128      0.186    27.8156 0.0000e+00
      0.155      0.077    12.9756    165.629     47.937  50.644502     2.9208     10.753    80.9378 2.3302e+02    13.6454      0.156      0.226    27.8137 0.0000e+00
      0.174      0.077    12.9951    165.607     47.945  50.647917     2.9668     10.753    81.2658 2.3571e+02    13.4679      0.173      0.250    27.8113 0.0000e+00
      0.188      0.076    13.0021    165.457     47.945  50.629486     3.0632     10.753    81.4919 2.3488e+02    13.1608      0.187      0.271    27.8127 0.0000e+00
      0.202      0.071    13.0066    165.089     47.956  50.612101     3.1205     10.754    81.6919 2.2593e+02    13.0068      0.195      0.282    27.8159 0.0000e+00
      0.224      0.065    13.0042    164.716     47.992  50.628166     3.1360     10.756    81.8769 2.0751e+02    13.0066      0.216      0.313    27.8185 0.0000e+00
      0.249      0.058    13.0049    164.596     48.006  50.633201     3.1665     10.758    82.0950 1.9252e+02    12.7829      0.249      0.362    27.8192 0.0000e+00
      0.266      0.050    13.0062    164.772     47.991  50.609472     3.1904     10.760    82.3497 1.8484e+02    12.2834      0.264      0.384    27.7978 0.0000e+00
      0.274      0.040    12.9756    165.101     47.997  50.595232     3.1828     10.762    82.6341 1.7643e+02    11.9879      0.270      0.392    27.7588 0.0000e+00
      0.278      0.032    12.9431    165.401     47.962  50.524481     3.1750     10.763    82.8661 1.6901e+02    11.9764      0.274      0.397    27.7343 0.0000e+00
      0.281      0.027    12.9355    165.681     47.875  50.388926     3.2290     10.766    83.0029 1.6577e+02    12.0767      0.276      0.400    27.7283 0.0000e+00
      0.285      0.027    12.9524    166.008     47.836  50.289559     3.3363     10.768    83.1706 1.6488e+02    12.2433      0.279      0.405    27.7289 0.0000e+00
      0.291      0.032    12.9925    166.363     47.699  50.084887     3.3984     10.770    83.4306 1.6319e+02    12.2828      0.282      0.409    27.7056 0.0000e+00
      0.301      0.039    13.0233    166.805     47.440  49.755457     3.3975     10.771    83.7379 1.6070e+02    12.2130      0.294      0.426    27.6642 0.0000e+00
      0.314      0.046    13.0491    167.344     47.370  49.607982     3.3924     10.772    84.0467 1.5586e+02    12.0827      0.309      0.448    27.6284 0.0000e+00
      0.326      0.052    13.0959    167.859     47.475  49.635023     3.5439     10.772    84.3245 1.4793e+02    11.8686      0.319      0.463    27.5588 0.0000e+00
      0.341      0.058    13.1370    168.422     47.503  49.574349     3.8475     10.772    84.6014 1.3986e+02    11.7079      0.333      0.483    27.4861 0.0000e+00
      0.356      0.063    13.1781    169.199     47.373  49.318676     4.0177     10.773    84.8996 1.3174e+02    11.6438      0.351      0.509    27.4464 0.0000e+00
      0.371      0.068    13.2511    170.243     47.176  48.956189     4.0367     10.775    85.1767 1.2494e+02    11.5713      0.363      0.527    27.3588 0.0000e+00
      0.389      0.072    13.3102    171.724     47.079  48.683282     4.1866     10.777    85.3709 1.2118e+02    11.3096      0.379      0.550    27.2636 0.0000e+00
      0.409      0.075    13.3633    173.848     47.106  48.558301     4.4977     10.781    85.4412 1.1931e+02    10.9725      0.401      0.582    27.1912 0.0000e+00
      0.431      0.077    13.4610    176.792     47.119  48.460650     4.6848     10.783    85.5100 1.1790e+02    10.8779      0.423      0.613    27.0616 0.0000e+00
      0.452      0.078    13.5786    180.590     47.064  48.327765     4.7186     10.785    85.6864 1.1699e+02    10.9174      0.445      0.645    26.8860 0.0000e+00
      0.471      0.078    13.7389    184.763     46.955  48.157766     4.8306     10.788    85.8538 1.1656e+02    10.7318      0.463      0.672    26.6902 0.0000e+00
      0.489      0.077    13.9508    188.704     46.771  47.928831     5.0241     10.790    85.8989 1.1546e+02    10.3420      0.479      0.695    26.5148 0.0000e+00
      0.508      0.077    14.2056    192.076     46.591  47.718216     5.1266     10.791    85.9745 1.1378e+02    10.1336      0.498      0.722    26.4050 0.0000e+00
      0.529      0.078    14.5510    194.668     46.478  47.579289     5.1463     10.794    86.2513 1.1173e+02    10.1242      0.518      0.751    26.3339 0.0000e+00
      0.549      0.080    14.9259    196.302     46.256  47.328306     5.2205     10.796    86.6653 1.0898e+02     9.9208      0.539      0.782    26.2660 0.0000e+00
      0.569      0.083    15.2616    196.845     45.870  46.905540     5.3493     10.795    87.1935 1.0543e+02     9.4850      0.558      0.810    26.2232 0.0000e+00
      0.590      0.086    15.5464    196.398     45.602  46.594098     5.4141     10.794    87.7340 1.0133e+02     9.1937      0.577      0.838    26.2045 0.0000e+00
      0.612      0.087    15.7664    195.262     45.601  46.546354     5.4221     10.792    88.0375 9.7695e+01     9.0967      0.600      0.870    26.1789 0.0000e+00
      0.634      0.084    15.9134    193.701     45.679  46.582136     5.5367     10.790    88.1102 9.4009e+01     9.0299      0.622      0.902    26.1527 0.0000e+00
      0.658      0.079    15.9610    191.921     45.714  46.582293     5.7592     10.789    88.1817 8.9744e+01     9.0010      0.645      0.936    26.1271 0.0000e+00
      0.683      0.073    15.9255    190.156     45.771  46.611683     5.8826     10.788    88.3866 8.6479e+01     8.9864      0.673      0.976    26.0862 0.0000e+00
      0.702      0.067    15.8432    188.706     45.804  46.620026     5.8879     10.787    88.7804 8.5038e+01     8.9557      0.692      1.002    26.0280 0.0000e+00
      0.713      0.063    15.7261    187.913     45.645  46.429193     5.9228     10.786    89.2430 8.3944e+01     8.8694      0.698      1.012    25.9789 0.0000e+00
      0.723      0.062    15.5846    187.865     45.341  46.081795     6.0054     10.784    89.6784 8.2517e+01     8.7275      0.708      1.027    25.9423 0.0000e+00
      0.735      0.062    15.4435    188.317     45.148  45.847612     6.0625     10.781    90.1727 8.0921e+01     8.6754      0.720      1.043    25.9097 0.0000e+00
      0.752      0.067    15.3195    189.039     45.085  45.756017     6.0725     10.780    90.5740 7.8042e+01     8.6842      0.734      1.065    25.8870 0.0000e+00
      0.775      0.072    15.2575    189.644     44.958  45.609085     6.0757     10.780    90.8303 7.5012e+01     8.6287      0.761      1.104    25.8574 0.0000e+00
      0.796      0.076    15.2815    189.615     44.772  45.404114     6.1514     10.778    91.0354 7.3248e+01     8.5504      0.782      1.135    25.8111 0.0000e+00
      0.814      0.079    15.3330    188.878     44.632  45.245568     6.2975     10.776    91.2470 7.1295e+01     8.5229      0.797      1.155    25.7631 0.0000e+00
      0.834      0.079    15.4100    187.651     44.495  45.088630     6.3939     10.774    91.5820 6.8988e+01     8.5689      0.818      1.186    25.7322 0.0000e+00
      0.855      0.079    15.4872    186.056     44.329  44.903075     6.4265     10.771    92.0744 6.6940e+01     8.5610      0.837      1.215    25.7183 0.0000e+00
      0.875      0.082    15.4880    184.251     44.165  44.715924     6.5170     10.766    92.5545 6.4592e+01     8.3926      0.859      1.246    25.7018 0.0000e+00
      0.895      0.088    15.4219    182.364     43.898  44.412703     6.6798     10.761    92.8261 6.2061e+01     8.2416      0.880      1.276    25.6807 0.0000e+00
      0.915      0.094    15.3294    180.450     43.442  43.902789     6.7801     10.757    93.1221 5.9418e+01     8.2376      0.895      1.298    25.6604 0.0000e+00
      0.938      0.099    15.1971    178.659     42.922  43.311137     6.8400     10.753    93.6373 5.6221e+01     8.2763      0.916      1.330    25.6431 0.0000e+00
      0.967      0.102    15.0495    177.024     42.479  42.781195     7.2707     10.751    94.0657 5.2944e+01     8.2657      0.947      1.374    25.6240 0.0000e+00
      1.000      0.103    14.9099    175.300     42.234  42.445974     8.0427     10.749    94.2572 5.0185e+01     8.2107      0.981      1.425    25.5850 0.0000e+00
      1.029      0.100    14.7584    172.982     42.237  42.367944     8.4657     10.748    94.5764 4.8031e+01     8.1587      1.012      1.468    25.5304 0.0000e+00
      1.054      0.094    14.6318    169.636     42.287  42.345376     8.5238     10.747    95.0863 4.6271e+01     8.1497      1.033      1.499    25.4561 0.0000e+00
      1.076      0.087    14.5314    165.308     42.244  42.236461     8.7786     10.744    95.5174 4.4768e+01     8.0330      1.056      1.533    25.3514 0.0000e+00
      1.095      0.079    14.4362    160.612     42.255  42.193414     9.2408     10.742    95.8314 4.3531e+01     7.7044      1.075      1.559    25.2403 0.0000e+00
      1.112      0.072    14.2883    156.608     42.293  42.205631     9.4764     10.739    96.0426 4.2291e+01     7.4896      1.088      1.579    25.1437 0.0000e+00
      1.132      0.066    14.0296    153.975     42.223  42.130253     9.4884     10.737    96.3506 4.1148e+01     7.4863      1.111      1.612    25.0620 0.0000e+00
      1.150      0.062    13.6783    152.517     42.210  42.107128     9.5782     10.734    96.8022 4.0602e+01     7.4590      1.132      1.640    24.9839 0.0000e+00
      1.163      0.057    13.2699    151.820     42.295  42.179882     9.7552     10.732    97.2012 4.0322e+01     7.3985      1.141      1.655    24.9056 0.0000e+00
      1.175      0.052    12.9192    151.712     42.230  42.121334     9.8470     10.730    97.5612 3.9651e+01     7.3359      1.151      1.669    24.8779 0.0000e+00
      1.190      0.048    12.7127    152.053     42.005  41.906986     9.8389     10.727    97.8858 3.8977e+01     7.2484      1.168      1.693    24.8945 0.0000e+00
      1.202      0.046    12.6117    152.605     41.864  41.746171     9.8644     10.724    98.2858 3.8645e+01     7.1954      1.182      1.713    24.8742 0.0000e+00
      1.210      0.045    12.5621    153.105     41.868  41.700139    10.2562     10.720    98.7839 3.8112e+01     7.1727      1.186      1.720    24.8441 0.0000e+00
      1.219      0.042    12.5519    153.227     41.887  41.667675    10.9635     10.717    99.0909 3.7192e+01     7.1447      1.194      1.731    24.8626 0.0000e+00
      1.233      0.039    12.5817    152.763     41.867  41.607441    11.3419     10.714    99.4164 3.6300e+01     7.0957      1.210      1.755    24.8952 0.0000e+00
      1.246      0.038    12.6389    151.903     41.833  41.543008    11.3855     10.709    99.8797 3.5661e+01     7.0242      1.224      1.775    24.8700 0.0000e+00
      1.254      0.038    12.7092    150.994     41.776  41.459785    11.6399     10.703   100.2197 3.5197e+01     6.9972      1.230      1.783    24.7905 0.0000e+00
      1.260      0.038    12.7456    150.209     41.709  41.362764    12.1285     10.696   100.5151 3.4697e+01     7.0431      1.235      1.791    24.7238 0.0000e+00
      1.268      0.039    12.7086    149.593     41.641  41.258422    12.4086     10.689   100.6978 3.4017e+01     7.1016      1.242      1.802    24.6804 0.0000e+00
      1.279      0.040    12.6319    149.141     41.571  41.150130    12.4546     10.683   100.7940 3.3294e+01     7.0548      1.253      1.818    24.6434 0.0000e+00
      1.290      0.041    12.5592    148.808     41.531  41.068817    12.6343     10.678   100.9902 3.2697e+01     6.9213      1.265      1.836    24.6192 0.0000e+00
      1.303      0.040    12.5006    148.568     41.479  40.973339    12.9659     10.672   101.1772 3.2222e+01     6.8200      1.277      1.852    24.5847 0.0000e+00
      1.315      0.038    12.4611    148.484     41.434  40.884163    13.1444     10.667   101.3352 3.1876e+01     6.8213      1.291      1.872    24.5341 0.0000e+00
      1.325      0.035    12.4356    148.579     41.469  40.879045    13.1774     10.664   101.6095 3.1693e+01     6.9026      1.302      1.888    24.4882 0.0000e+00
      1.331      0.033    12.4212    148.744     41.523  40.911396    13.3152     10.662   101.9983 3.1596e+01     6.9149      1.306      1.894    24.4387 0.0000e+00
      1.337      0.032    12.4104    148.935     41.513  40.894501    13.5367     10.658   102.4224 3.1484e+01     6.8331      1.311      1.901    24.3863 0.0000e+00
      1.344      0.033    12.4135    149.184     41.427  40.801688    13.6584     10.654   103.0378 3.1322e+01     6.7667      1.318      1.912    24.3295 0.0000e+00
      1.352      0.037    12.4415    149.474     41.319  40.677696    13.7131     10.650   104.0188 3.1071e+01     6.7616      1.325      1.922    24.2729 0.0000e+00
      1.362      0.042    12.4612    149.743     41.269  40.601126    14.1571     10.648   105.1635 3.0686e+01     6.7713      1.333      1.934    24.2494 0.0000e+00
      1.374      0.047    12.4742    149.905     41.207  40.510492    14.9643     10.644   106.2947 3.0219e+01     6.6792      1.347      1.954    24.2516 0.0000e+00
      1.388      0.054    12.4982    149.868     41.005  40.279908    15.4003     10.640   107.2847 2.9734e+01     6.5021      1.361      1.975    24.2444 0.0000e+00
      1.401      0.062    12.5292    149.576     40.810  40.034338    15.4913     10.636   107.9277 2.9182e+01     6.4062      1.374      1.994    24.2221 0.0000e+00
      1.416      0.068    12.5630    148.969     40.740  39.889369    16.1978     10.632   108.4764 2.8502e+01     6.4077      1.386      2.012    24.1851 0.0000e+00
      1.434      0.073    12.5886    147.937     40.658  39.732773    17.5245     10.629   109.1011 2.7481e+01     6.3842      1.402      2.034    24.1476 0.0000e+00
      1.457      0.077    12.5933    146.353     40.583  39.600457    18.2915     10.625   109.5448 2.6344e+01     6.3277      1.430      2.074    24.1201 0.0000e+00
      1.480      0.078    12.5838    144.198     40.588  39.558690    18.3965     10.620   109.7964 2.5581e+01     6.3043      1.455      2.110    24.0600 0.0000e+00
      1.499      0.076    12.5633    141.663     40.549  39.481552    18.4780     10.615   110.0792 2.4878e+01     6.3405      1.469      2.130    23.9465 0.0000e+00
      1.519      0.072    12.5037    138.983     40.475  39.365793    19.2764     10.611   110.7269 2.4096e+01     6.3553      1.490      2.162    23.8459 0.0000e+00
      1.537      0.066    12.3881    136.328     40.470  39.301292    20.7344     10.606   111.6904 2.3543e+01     6.2436      1.510      2.192    23.7810 0.0000e+00
      1.552      0.060    12.2115    133.891     40.500  39.272737    21.5234     10.601   112.5231 2.3043e+01     6.1176      1.521      2.207    23.7213 0.0000e+00
      1.567      0.054    11.9977    131.703     40.532  39.274291    21.5916     10.597   113.2233 2.2528e+01     6.0622      1.537      2.230    23.6787 0.0000e+00
      1.580      0.047    11.7790    129.656     40.581  39.320036    21.5678     10.593   113.8763 2.2208e+01     6.0519      1.552      2.250    23.6368 0.0000e+00
      1.591      0.041    11.5633    127.798     40.631  39.381610    21.5181     10.589   114.3956 2.1982e+01     6.0954      1.560      2.263    23.5500 0.0000e+00
      1.601      0.036    11.3741    126.344     40.680  39.447660    21.5075     10.586   114.7691 2.1744e+01     6.1433      1.570      2.278    23.4624 0.0000e+00
      1.610      0.032    11.2024    125.492     40.694  39.484053    21.6064     10.583   115.0372 2.1579e+01     6.1186      1.580      2.291    23.4317 0.0000e+00
      1.616      0.032    11.0251    125.316     40.561  39.377440    22.6802     10.579   115.3137 2.1470e+01     6.0024      1.584      2.298    23.4340 0.0000e+00
      1.621      0.037    10.8546    125.681     40.373  39.174015    24.6613     10.575   115.7036 2.1367e+01     5.9336      1.589      2.304    23.4554 0.0000e+00
      1.628      0.043    10.7197    126.241     40.366  39.055168    25.7585     10.571   116.1379 2.1242e+01     5.9698      1.595      2.313    23.4800 0.0000e+00
      1.638      0.050    10.6406    126.542     40.511  39.019121    25.9760     10.568   116.4348 2.0971e+01     5.9963      1.603      2.325    23.5009 0.0000e+00
      1.654      0.055    10.6182    125.962     40.656  38.991753    27.2492     10.565   116.6260 2.0502e+01     5.9468      1.620      2.349    23.5522 0.0000e+00
      1.675      0.057    10.6608    123.877     40.756  38.977855    29.5587     10.560   116.8155 1.9986e+01     5.8494      1.643      2.384    23.5589 0.0000e+00
      1.695      0.054    10.7509    120.306     40.816  38.977847    30.8275     10.555   116.9195 1.9581e+01     5.8434      1.664      2.413    23.4053 0.0000e+00
      1.709      0.047    10.8478    115.914     40.866  38.991582    30.9303     10.551   117.1087 1.9307e+01     5.9420      1.678      2.434    23.1425 0.0000e+00
      1.718      0.039    10.8711    111.395     40.939  39.016962    30.5016     10.548   117.7266 1.9129e+01     6.0511      1.687      2.446    22.9193 0.0000e+00
      1.723      0.033    10.7183    107.327     41.019  39.030807    29.6641     10.545   118.6261 1.9014e+01     6.1041      1.689      2.449    22.7887 0.0000e+00
      1.728      0.030    10.3935    104.188     41.079  39.031973    29.2017     10.542   119.8098 1.8885e+01     6.0701      1.693      2.456    22.7308 0.0000e+00
      1.734      0.030     9.9996    102.090     41.104  39.030980    29.1812     10.538   121.2845 1.8713e+01     6.0841      1.700      2.466    22.7091 0.0000e+00
      1.742      0.033     9.6036    100.896     41.077  39.018764    29.3745     10.533   122.8622 1.8507e+01     6.2056      1.707      2.476    22.6600 0.0000e+00
      1.753      0.038     9.2491    100.482     41.020  39.011204    31.4564     10.528   124.4301 1.8275e+01     6.6171      1.718      2.492    22.5675 0.0000e+00
      1.763      0.044     8.9906    100.742     41.027  39.066574    35.2678     10.523   125.2721 1.8037e+01     7.2327      1.729      2.508    22.4868 0.0000e+00
      1.773      0.051     8.8216    101.595     41.156  39.180626    37.2963     10.517   124.7829 1.7816e+01     7.5006      1.739      2.522    22.4555 0.0000e+00
      1.784      0.057     8.7169    102.836     41.316  39.247910    36.9979     10.511   123.7625 1.7594e+01     7.4991      1.750      2.538    22.4726 0.0000e+00
      1.798      0.061     8.6743    103.868     41.417  39.245368    31.8267     10.505   123.8620 1.7268e+01     7.2142      1.761      2.555    22.5402 0.0000e+00
      1.818      0.062     8.6834    103.908     41.511  39.276673    22.3295     10.499   125.4696 1.6808e+01     6.5851      1.780      2.583    22.6325 0.0000e+00
      1.841      0.060     8.7569    102.498     41.643  39.372497    17.1348     10.494   126.9396 1.6427e+01     6.1772      1.808      2.622    22.6399 0.0000e+00
      1.860      0.056     8.9104     99.876     41.766  39.452014    16.5259     10.489   127.0941 1.6257e+01     6.0733      1.827      2.649    22.4956 0.0000e+00
      1.871      0.050     9.0522     96.664     41.841  39.476526    15.1342     10.484   127.5103 1.6162e+01     6.0458      1.835      2.661    22.3449 0.0000e+00
      1.880      0.042     9.0834     93.157     41.882  39.478421    12.6850     10.479   129.6473 1.6076e+01     6.0845      1.843      2.673    22.2906 0.0000e+00
      1.888      0.035     8.9534     89.237     41.894  39.474871    11.3485     10.473   132.3696 1.6005e+01     6.1314      1.851      2.685    22.2769 0.0000e+00
      1.895      0.030     8.7063     85.046     41.903  39.497042    11.1602     10.467   134.3553 1.5929e+01     6.1003      1.859      2.696    22.2314 0.0000e+00
      1.902      0.027     8.4285     81.270     41.942  39.556132    10.4831     10.460   135.7608 1.5876e+01     6.0497      1.866      2.706    22.1627 0.0000e+00
      1.909      0.025     8.1402     78.478     42.008  39.618206     9.2873     10.455   136.9741 1.5869e+01     6.0664      1.872      2.716    22.1164 0.0000e+00
      1.916      0.023     7.8036     76.758     42.106  39.676423     8.6456     10.452   137.9252 1.5884e+01     6.0977      1.879      2.726    22.0919 0.0000e+00
      1.921      0.022     7.4022     75.725     42.241  39.752284     8.5677     10.449   138.7424 1.5922e+01     6.0862      1.885      2.733    22.1178 0.0000e+00
      1.926      0.021     7.0492     74.676     42.391  39.837284     8.3370     10.445   139.5418 1.5972e+01     6.0643      1.889      2.739    22.1634 0.0000e+00
      1.931      0.021     6.8037     73.138     42.493  39.879064     7.9371     10.441   140.1055 1.5987e+01     6.0718      1.892      2.745    22.1668 0.0000e+00
      1.936      0.020     6.6700     71.060     42.541  39.876589     7.7361     10.437   140.3959 1.5975e+01     6.1086      1.897      2.752    22.1185 0.0000e+00
      1.942      0.018     6.6174     68.468     42.576  39.870756     7.7449     10.432   140.6435 1.5994e+01     6.1675      1.905      2.762    22.0481 0.0000e+00
      1.947      0.018     6.5502     65.383     42.607  39.871942     7.7526     10.427   141.2055 1.6069e+01     6.1697      1.911      2.771    21.9830 0.0000e+00
      1.951      0.017     6.4193     61.967     42.650  39.890890     7.7464     10.422   142.3731 1.6173e+01     6.1008      1.913      2.775    21.9169 0.0000e+00
      1.955      0.017     6.2445     58.617     42.690  39.909446     7.7532     10.416   143.5762 1.6263e+01     6.0512      1.917      2.780    21.8589 0.0000e+00
      1.958      0.018     6.0231     55.801     42.705  39.905888     7.7687     10.409   144.0511 1.6298e+01     6.0492      1.919      2.783    21.8143 0.0000e+00
      1.962      0.021     5.7518     53.704     42.725  39.911301     7.7832     10.401   144.4155 1.6264e+01     6.1104      1.923      2.789    21.7827 0.0000e+00
      1.968      0.023     5.4426     52.279     42.740  39.911408     7.7367     10.394   145.4006 1.6167e+01     6.1421      1.929      2.798    21.7605 0.0000e+00
      1.976      0.024     5.1295     51.386     42.751  39.907165     7.6228     10.388   146.4974 1.6008e+01     6.0566      1.936      2.810    21.7378 0.0000e+00
      1.983      0.024     4.8823     50.859     42.782  39.923442     7.5471     10.380   147.4388 1.5818e+01     5.9985      1.946      2.821    21.7164 0.0000e+00
      1.990      0.025     4.7010     50.549     42.786  39.917812     7.5365     10.373   148.3509 1.5652e+01     6.0881      1.952      2.831    21.7015 0.0000e+00
      1.995      0.026     4.5811     50.294     42.771  39.902540     7.5366     10.366   148.8355 1.5529e+01     6.2185      1.957      2.839    21.6871 0.0000e+00
      1.999      0.027     4.5112     50.031     42.801  39.929172     7.5149     10.359   148.5665 1.5377e+01     6.2089      1.960      2.843    21.6696 0.0000e+00
      2.004      0.028     4.4679     49.819     42.867  39.985976     7.4904     10.352   148.1956 1.5145e+01     6.1086      1.964      2.848    21.6526 0.0000e+00
      2.013      0.030     4.4498     49.725     42.912  40.018168     7.4742     10.345   148.3084 1.4903e+01     6.0650      1.975      2.865    21.6400 0.0000e+00
      2.023      0.033     4.4287     49.733     42.907  40.001083     7.3433     10.338   148.4679 1.4671e+01     6.0919      1.986      2.880    21.6406 0.0000e+00
      2.032      0.036     4.4026     49.740     42.883  39.969763     7.0897     10.329   148.4892 1.4427e+01     6.1595      1.993      2.890    21.6418 0.0000e+00
      2.040      0.039     4.3817     49.614     42.871  39.956791     6.9307     10.321   148.6525 1.4220e+01     6.1657      2.002      2.904    21.6368 0.0000e+00
      2.049      0.042     4.3743     49.278     42.886  39.971160     6.8679     10.313   149.0649 1.4018e+01     6.0988      2.009      2.914    21.6273 0.0000e+00
      2.059      0.044     4.3812     48.824     42.941  40.016579     6.5223     10.306   149.7763 1.3740e+01     6.1699      2.018      2.926    21.6059 0.0000e+00
      2.073      0.045     4.3867     48.415     43.003  40.061689     5.9143     10.299   150.7144 1.3387e+01     6.4103      2.032      2.948    21.5925 0.0000e+00
      2.088      0.045     4.3798     48.063     43.033  40.072320     5.5926     10.292   151.6310 1.3033e+01     6.5806      2.048      2.970    21.5968 0.0000e+00
      2.100      0.045     4.3457     47.603     43.063  40.081640     5.5547     10.286   152.4271 1.2740e+01     6.5894      2.061      2.989    21.5987 0.0000e+00
      2.110      0.046     4.2992     46.836     43.113  40.110881     5.5395     10.279   153.1126 1.2505e+01     6.5513      2.069      3.001    21.5921 0.0000e+00
      2.119      0.047     4.2638     45.660     43.205  40.172002     5.6251     10.272   153.8104 1.2263e+01     6.5972      2.077      3.013    21.5774 0.0000e+00
      2.129      0.048     4.2418     44.174     43.332  40.249445     5.8155     10.265   154.6696 1.1959e+01     6.7351      2.086      3.026    21.5542 0.0000e+00
      2.143      0.048     4.2090     42.525     43.426  40.285617     5.9520     10.258   155.5859 1.1624e+01     6.8522      2.100      3.046    21.5322 0.0000e+00
      2.158      0.048     4.1473     40.586     43.484  40.291964     6.1439     10.251   156.1996 1.1319e+01     6.8860      2.118      3.072    21.5160 0.0000e+00
      2.173      0.047     4.0424     38.136     43.563  40.326110     8.1105     10.245   156.3248 1.1062e+01     7.0071      2.133      3.092    21.4933 0.0000e+00
      2.185      0.046     3.9042     35.177     43.728  40.444571    11.7271     10.239   156.3260 1.0853e+01     7.2575      2.144      3.110    21.4417 0.0000e+00
      2.195      0.044     3.7712     31.996     44.004  40.645323    13.7075     10.233   156.3850 1.0689e+01     7.4190      2.154      3.124    21.3763 0.0000e+00
      2.202      0.044     3.6131     28.966     44.326  40.849373    13.8940     10.228   156.3501 1.0513e+01     7.5259      2.159      3.131    21.3210 0.0000e+00
      2.211      0.045     3.3983     26.135     44.687  41.071105    13.7997     10.223   156.2493 1.0287e+01     7.7297      2.167      3.142    21.2757 0.0000e+00
      2.225      0.046     3.1296     23.195     45.109  41.358656    13.5751     10.218   156.1120 1.0059e+01     8.0038      2.182      3.164    21.2480 0.0000e+00
      2.240      0.048     2.8317     19.793     45.533  41.660388    13.4420     10.213   156.0663 9.8632e+00     8.1763      2.197      3.186    21.2004 0.0000e+00
      2.253      0.049     2.5691     15.918     45.911  41.926622    13.3225     10.206   156.2129 9.6828e+00     8.2093      2.210      3.205    21.0810 0.0000e+00
      2.265      0.048     2.3348     11.963     46.386  42.292698    12.0211     10.201   156.3367 9.5008e+00     7.9594      2.221      3.222    20.9401 0.0000e+00
      2.278      0.047     2.0911      8.293     47.336  43.103383     9.6095     10.195   156.2714 9.3308e+00     7.4089      2.234      3.240    20.8330 0.0000e+00
      2.289      0.047     1.7933      5.043     48.706  44.302188     8.2750     10.190   156.1979 9.1930e+00     7.0539      2.245      3.256    20.7418 0.0000e+00
      2.299      0.046     1.4288      2.268     49.581  45.044391     8.0967     10.185   156.3954 9.0650e+00     6.9803      2.253      3.268    20.6524 0.0000e+00
      2.310      0.045     1.0649      0.150     49.689  45.094786     7.5614     10.180   156.7660 8.9161e+00     6.8258      2.264      3.283    20.5744 0.0000e+00
      2.324      0.043     0.7319     -1.092     50.146  45.482793     6.6053     10.174   157.0649 8.7469e+00     6.5530      2.279      3.305    20.5226 0.0000e+00
      2.338      0.040     0.4409     -1.530     51.214  46.434686     6.0748     10.167   157.2566 8.6185e+00     6.3799      2.295      3.328    20.4793 0.0000e+00
      2.348      0.037     0.1857     -1.437     52.099  47.208693     6.0091     10.161   157.3623 8.5598e+00     6.3043      2.303      3.340    20.4187 0.0000e+00
      2.354      0.033    -0.0179     -1.048     52.290  47.350121     6.0096     10.155   157.4833 8.5208e+00     6.2535      2.308      3.347    20.3599 0.0000e+00
      2.360      0.029    -0.1250     -0.507     51.647  46.747930     6.1313     10.148   157.6865 8.4884e+00     6.2781      2.315      3.359    20.3414 0.0000e+00
      2.367      0.027    -0.1540      0.102     51.126  46.276056     6.3480     10.141   157.8412 8.4536e+00     6.3631      2.321      3.366    20.3369 0.0000e+00
      2.373      0.027    -0.1385      0.697     51.889  46.977418     6.4578     10.135   157.9771 8.4091e+00     6.3929      2.327      3.375    20.3031 0.0000e+00
      2.380      0.030    -0.0990      1.192     53.784  48.689058     6.4428     10.130   158.2109 8.3694e+00     6.3308      2.333      3.386    20.2673 0.0000e+00
      2.386      0.033    -0.0480      1.557     55.781  50.464295     6.3340     10.125   158.5172 8.3135e+00     6.1588      2.339      3.393    20.2451 0.0000e+00
      2.394      0.037     0.0096      1.840     56.981  51.489079     6.1654     10.118   158.8411 8.2213e+00     5.9532      2.347      3.404    20.2463 0.0000e+00
      2.405      0.042     0.0665      2.066     57.692  52.063148     6.0859     10.111   159.2013 8.1128e+00     5.8948      2.359      3.422    20.2680 0.0000e+00
      2.417      0.047     0.1130      2.221     58.887  53.087178     6.0471     10.105   159.8608 8.0093e+00     5.8624      2.371      3.438    20.2693 0.0000e+00
      2.430      0.050     0.1429      2.295     60.332  54.344832     5.7460     10.098   160.6209 7.8994e+00     5.6631      2.383      3.454    20.2404 0.0000e+00
      2.444      0.051     0.1680      2.308     60.628  54.568046     5.2245     10.092   160.7338 7.7785e+00     5.3986      2.397      3.476    20.1790 0.0000e+00
      2.459      0.049     0.1898      2.294     59.610  53.626749     4.9446     10.086   160.4512 7.6631e+00     5.3289      2.412      3.498    20.1100 0.0000e+00
      2.473      0.046     0.2046      2.269     58.690  52.807269     4.9341     10.079   160.3873 7.5562e+00     5.4350      2.426      3.518    20.0691 0.0000e+00
      2.485      0.043     0.2104      2.233     58.638  52.788589     5.0306     10.071   160.3915 7.4575e+00     5.4517      2.438      3.536    20.0364 0.0000e+00
      2.494      0.040     0.2105      2.188     59.154  53.273926     5.1876     10.064   160.4155 7.3728e+00     5.3263      2.446      3.548    19.9924 0.0000e+00
      2.501      0.038     0.2088      2.157     60.149  54.166671     5.2586     10.058   159.3870 7.2900e+00     5.1829      2.452      3.557    19.9645 0.0000e+00
      2.510      0.036     0.2067      2.165     62.386  56.152356     5.2491     10.054   156.1310 7.1788e+00     5.1522      2.461      3.569    19.9777 0.0000e+00
      2.520      0.034     0.2037      2.208     66.019  59.371813     5.1556     10.050   149.0098 7.0483e+00     5.2283      2.471      3.584    20.0107 0.0000e+00
      2.530      0.034     0.1983      2.257     68.704  61.713572     4.9769     10.047   136.6955 6.9638e+00     5.2493      2.482      3.601    20.0335 0.0000e+00
      2.538      0.034     0.1946      2.295     68.154  61.152517     4.8782     10.042   124.8564 6.9409e+00     5.1663      2.489      3.612    20.0302 0.0000e+00
      2.545      0.033     0.1953      2.326     66.477  59.639800     4.8447     10.036   119.3495 6.9137e+00     5.0793      2.495      3.618    20.0032 0.0000e+00
      2.553      0.029     0.2009      2.343     66.908  60.067929     4.5547     10.029   117.4340 6.8529e+00     5.0176      2.503      3.630    19.9713 0.0000e+00
      2.563      0.024     0.2061      2.337     68.762  61.755241     4.0357     10.021   112.8807 6.7887e+00     4.9321      2.515      3.647    19.9112 0.0000e+00
      2.572      0.020     0.2095      2.359     70.685  63.460087     3.7623     10.015   103.1006 6.7530e+00     4.8997      2.525      3.663    19.8352 0.0000e+00
      2.575      0.018     0.2122      2.483     73.228  65.686951     3.7463     10.009    85.9107 6.7524e+00     4.9670      2.528      3.666    19.8340 0.0000e+00
      2.575      0.019     0.2151      2.674     75.599  67.711003     3.7343     10.002    61.8035 6.7653e+00     4.9943      2.526      3.663    19.8935 0.0000e+00
      2.575      0.021     0.2124      2.824     76.264  68.169861     3.6336      9.993    39.8844 6.7554e+00     4.9224      2.524      3.661    19.9156 0.0000e+00
      2.579      0.024     0.2106      2.885     76.039  67.866929     3.4603      9.983    24.4571 6.6757e+00     4.8491      2.527      3.664    19.8878 0.0000e+00
      2.589      0.029     0.2232      2.845     76.074  67.861250     3.3703      9.973    12.8505 6.5538e+00     4.8256      2.538      3.681    19.8600 0.0000e+00
      2.603      0.031     0.2466      2.716     75.999  67.783415     3.3621      9.963     3.4852 6.4671e+00     4.8434      2.554      3.703    19.7950 0.0000e+00
      2.613      0.031     0.2610      2.543     75.633  67.434209     3.2941      9.952    -3.9438 6.4141e+00     4.8594      2.564      3.718    19.6743 0.0000e+00
      2.621      0.029     0.2675      2.338     75.497  67.261352     3.1636      9.940    -9.1733 6.3678e+00     4.7799      2.571      3.729    19.6017 0.0000e+00
      2.627      0.025     0.2645      2.125     75.678  67.345657     3.0911      9.929   -13.4560 6.3353e+00     4.6682      2.577      3.737    19.5934 0.0000e+00
      2.630      0.022     0.2491      1.950     75.945  67.500196     3.0840      9.920   -18.1258 6.3102e+00     4.6360      2.579      3.740    19.5938 0.0000e+00
      2.633      0.020     0.2348      1.840     76.208  67.668115     3.0684      9.911   -22.9599 6.2719e+00     4.6631      2.582      3.745    19.5825 0.0000e+00
      2.638      0.020     0.2148      1.791     76.401  67.787110     3.0360      9.902   -27.5083 6.2195e+00     4.6889      2.587      3.752    19.5484 0.0000e+00
      2.644      0.019     0.1935      1.777     76.539  67.858532     3.0171      9.894   -31.2194 6.1508e+00     4.7092      2.593      3.761    19.4921 0.0000e+00
      2.651      0.019     0.1773      1.788     76.703  67.959644     3.0306      9.885   -34.7052 6.0853e+00     4.7379      2.600      3.772    19.4284 0.0000e+00
      2.657      0.020     0.1668      1.810     76.999  68.183419     3.0671      9.877   -39.2823 6.0600e+00     4.6939      2.607      3.782    19.3886 0.0000e+00
      2.660      0.021     0.1642      1.820     77.445  68.530466     3.1091      9.869   -44.3162 6.0435e+00     4.6206      2.609      3.784    19.3607 0.0000e+00
      2.663      0.023     0.1628      1.825     77.810  68.787412     3.1384      9.860   -49.0217 5.9947e+00     4.6372      2.610      3.786    19.3212 0.0000e+00
      2.668      0.025     0.1644      1.826     77.919  68.811467     3.1546      9.852   -53.1563 5.9445e+00     4.6907      2.616      3.795    19.2939 0.0000e+00
      2.676      0.027     0.1679      1.820     77.917  68.757667     3.1389      9.845   -56.5368 5.8945e+00     4.6862      2.623      3.805    19.2738 0.0000e+00
      2.685      0.027     0.1680      1.811     77.953  68.772388     3.0894      9.838   -59.4366 5.8142e+00     4.6509      2.632      3.817    19.2445 0.0000e+00
      2.695      0.026     0.1686      1.801     78.051  68.862335     3.0561      9.832   -62.1480 5.7275e+00     4.6399      2.643      3.835    19.2005 0.0000e+00
      2.703      0.023     0.1694      1.789     78.161  68.955456     3.0351      9.826   -64.7130 5.6672e+00     4.6213      2.653      3.848    19.1453 0.0000e+00
      2.708      0.019     0.1681      1.782     78.246  69.008537     2.9859      9.820   -67.2196 5.6404e+00     4.5973      2.657      3.853    19.1077 0.0000e+00
      2.709      0.015     0.1679      1.768     78.405  69.122779     2.9269      9.815   -69.8271 5.6299e+00     4.6226      2.657      3.853    19.1011 0.0000e+00
      2.710      0.013     0.1668      1.742     78.592  69.256269     2.9132      9.810   -72.2343 5.6033e+00     4.6881      2.658      3.854    19.1126 0.0000e+00
      2.713      0.013     0.1652      1.732     78.745  69.351419     2.9290      9.804   -74.5571 5.5559e+00     4.7408      2.659      3.857    19.1126 0.0000e+00
      2.718      0.014     0.1649      1.741     79.044  69.574066     2.9178      9.798   -76.8318 5.4939e+00     4.7137      2.665      3.866    19.0910 0.0000e+00
      2.723      0.016     0.1648      1.730     79.552  69.977972     2.8771      9.791   -78.9163 5.4197e+00     4.5997      2.671      3.873    19.0773 0.0000e+00
      2.726      0.019     0.1607      1.716     80.115  70.421526     2.8456      9.786   -80.8324 5.3550e+00     4.5579      2.674      3.878    19.0594 0.0000e+00
      2.729      0.021     0.1588      1.711     80.484  70.678560     2.8442      9.781   -81.7590 5.2998e+00     4.6175      2.676      3.881    19.0292 0.0000e+00
      2.734      0.022     0.1636      1.697     80.553  70.670408     2.8602      9.775   -82.1174 5.2331e+00     4.6712      2.680      3.886    19.0059 0.0000e+00
      2.742      0.022     0.1602      1.677     80.491  70.577111     2.8648      9.769   -82.9291 5.1696e+00     4.7288      2.689      3.900    18.9791 0.0000e+00
      2.750      0.022     0.1584      1.654     80.489  70.567424     2.8410      9.762   -83.3140 5.1290e+00     4.7683      2.698      3.913    18.9503 0.0000e+00
      2.756      0.022     0.1602      1.631     80.616  70.680389     2.8055      9.755   -83.5013 5.0904e+00     4.7381      2.704      3.921    18.9056 0.0000e+00
      2.760      0.023     0.1576      1.619     80.827  70.862448     2.7777      9.749   -85.1080 5.0402e+00     4.6711      2.708      3.927    18.8517 0.0000e+00
      2.762      0.025     0.1563      1.621     81.267  71.243238     2.7952      9.744   -87.8545 4.9840e+00     4.7101      2.708      3.928    18.8287 0.0000e+00
      2.767      0.030     0.1539      1.615     82.622  72.424204     2.8517      9.738   -90.7260 4.8922e+00     4.8681      2.712      3.933    18.8313 0.0000e+00
      2.775      0.039     0.1515      1.595     84.786  74.271636     2.8772      9.733   -93.1549 4.7701e+00     4.9761      2.721      3.947    18.8344 0.0000e+00
      2.786      0.047     0.1493      1.578     86.531  75.654029     2.8717      9.728   -95.0235 4.6586e+00     4.9906      2.731      3.962    18.8332 0.0000e+00
      2.800      0.052     0.1519      1.578     87.354  76.169808     2.8176      9.723   -96.8004 4.5298e+00     4.9402      2.744      3.979    18.8251 0.0000e+00
      2.818      0.053     0.1507      1.595     87.348  75.993725     2.7146      9.718   -98.5490 4.3901e+00     4.8794      2.763      4.007    18.8299 0.0000e+00
      2.836      0.049     0.1483      1.590     86.663  75.304934     2.6578      9.713   -99.9051 4.2916e+00     4.8704      2.784      4.038    18.8231 0.0000e+00
      2.851      0.043     0.1470      1.567     85.840  74.580540     2.6561      9.708  -100.8934 4.2304e+00     4.8663      2.798      4.059    18.7251 0.0000e+00
      2.859      0.036     0.1457      1.551     85.589  74.418964     2.6851      9.702  -101.8936 4.2008e+00     4.8634      2.806      4.069    18.5836 0.0000e+00
      2.862      0.031     0.1516      1.556     86.389  75.195014     2.7339      9.697  -102.9642 4.1904e+00     4.9036      2.808      4.072    18.4793 0.0000e+00
      2.866      0.028     0.1494      1.566     88.088  76.716327     2.7465      9.690  -104.2015 4.1625e+00     4.9082      2.809      4.074    18.4242 0.0000e+00
      2.872      0.027     0.1467      1.561     89.690  78.063158     2.7215      9.684  -105.5823 4.1021e+00     4.8504      2.816      4.084    18.4235 0.0000e+00
      2.881      0.028     0.1447      1.559     90.560  78.699779     2.6646      9.679  -106.7538 4.0235e+00     4.7521      2.824      4.097    18.4638 0.0000e+00
      2.891      0.030     0.1449      1.560     90.929  78.881786     2.5911      9.675  -107.6974 3.9702e+00     4.6758      2.835      4.112    18.5232 0.0000e+00
      2.900      0.031     0.1483      1.557     91.123  78.928296     2.5653      9.671  -108.5595 3.9407e+00     4.7141      2.845      4.126    18.5637 0.0000e+00
      2.907      0.032     0.1452      1.559     91.748  79.389132     2.5763      9.667  -109.5202 3.8968e+00     4.7709      2.850      4.134    18.5302 0.0000e+00
      2.913      0.036     0.1462      1.551     92.741  80.193254     2.5748      9.662  -110.8816 3.8469e+00     4.7476      2.856      4.142    18.4471 0.0000e+00
      2.919      0.042     0.1471      1.533     93.536  80.765842     2.5803      9.657  -112.4581 3.8057e+00     4.7054      2.863      4.152    18.3699 0.0000e+00
      2.928      0.048     0.1457      1.521     94.251  81.161288     2.6103      9.652  -113.8684 3.7448e+00     4.7385      2.869      4.161    18.2942 0.0000e+00
      2.943      0.055     0.1476      1.516     95.079  81.603871     2.6201      9.647  -115.1132 3.6529e+00     4.8405      2.884      4.183    18.2492 0.0000e+00
      2.963      0.061     0.1466      1.514     95.819  81.983112     2.6072      9.641  -116.1520 3.5704e+00     4.9144      2.907      4.216    18.2450 0.0000e+00
      2.981      0.063     0.1440      1.521     96.314  82.185031     2.5965      9.634  -116.9630 3.4999e+00     4.9482      2.924      4.240    18.1968 0.0000e+00
      2.998      0.061     0.1437      1.521     96.604  82.264297     2.5825      9.627  -117.7786 3.4286e+00     4.9762      2.939      4.262    18.0585 0.0000e+00
      3.014      0.057     0.1438      1.495     96.685  82.241733     2.5707      9.621  -118.7858 3.3785e+00     4.9792      2.958      4.291    17.9047 0.0000e+00
      3.028      0.053     0.1433      1.465     96.619  82.166483     2.5617      9.614  -120.0217 3.3464e+00     4.9509      2.971      4.309    17.7727 0.0000e+00
      3.039      0.049     0.1452      1.458     96.580  82.117591     2.5661      9.606  -121.4500 3.3171e+00     4.9067      2.980      4.321    17.6500 0.0000e+00
      3.049      0.045     0.1466      1.463     96.668  82.095756     2.5904      9.599  -122.8910 3.2811e+00     4.8893      2.990      4.338    17.5611 0.0000e+00
      3.060      0.041     0.1431      1.467     96.690  81.965941     2.6141      9.593  -124.0235 3.2334e+00     4.9112      3.001      4.352    17.5092 0.0000e+00
      3.072      0.037     0.1386      1.456     96.302  81.501753     2.6280      9.586  -124.8179 3.1913e+00     4.9323      3.015      4.372    17.5129 0.0000e+00
      3.082      0.034     0.1393      1.427     95.507  80.680351     2.6001      9.581  -125.6121 3.1671e+00     4.9388      3.024      4.386    17.5319 0.0000e+00
      3.090      0.031     0.1400      1.412     94.846  79.919746     2.5349      9.576  -126.4856 3.1616e+00     4.9566      3.030      4.394    17.4708 0.0000e+00
      3.095      0.028     0.1409      1.416     94.817  79.681639     2.4975      9.572  -127.3783 3.1652e+00     4.9425      3.035      4.402    17.3718 0.0000e+00
      3.101      0.026     0.1413      1.396     95.198  79.836027     2.4890      9.568  -128.1458 3.1613e+00     4.9050      3.040      4.410    17.3123 0.0000e+00
      3.107      0.026     0.1362      1.366     95.453  79.942151     2.4560      9.563  -128.7092 3.1505e+00     4.9810      3.048      4.421    17.2505 0.0000e+00
      3.115      0.026     0.1346      1.378     95.526  79.947231     2.4069      9.557  -129.3719 3.1393e+00     5.1441      3.055      4.430    17.1291 0.0000e+00
      3.122      0.026     0.1383      1.405     95.564  79.960965     2.3945      9.551  -130.1359 3.1307e+00     5.2370      3.062      4.441    17.0014 0.0000e+00
      3.129      0.026     0.1365      1.384     95.434  79.853830     2.4231      9.546  -130.8925 3.1275e+00     5.2500      3.069      4.451    16.9177 0.0000e+00
      3.136      0.025     0.1294      1.330     95.044  79.542105     2.6362      9.541  -131.6370 3.1224e+00     5.0967      3.075      4.460    16.8610 0.0000e+00
      3.142      0.024     0.1326      1.294     94.822  79.371372     3.0157      9.536  -132.2534 3.1174e+00     4.7841      3.081      4.469    16.8337 0.0000e+00
      3.148      0.022     0.1390      1.275     94.992  79.506415     3.2238      9.531  -132.8394 3.1172e+00     4.6130      3.087      4.477    16.8305 0.0000e+00
      3.153      0.020     0.1357      1.258     95.124  79.585203     3.2703      9.525  -133.5596 3.1077e+00     4.5995      3.093      4.486    16.8306 0.0000e+00
      3.158      0.018     0.1276      1.231     95.069  79.497313     3.5540      9.520  -134.5080 3.0957e+00     4.3134      3.098      4.492    16.8393 0.0000e+00
      3.162      0.016     0.1247      1.184     95.074  79.461097     4.0735      9.516  -135.6164 3.0899e+00     3.7154      3.101      4.498    16.8542 0.0000e+00
      3.166      0.014     0.1241      1.145     95.189  79.528802     4.3590      9.512  -136.6363 3.0727e+00     3.3482      3.106      4.505    16.8510 0.0000e+00
      3.170      0.013     0.1217      1.120     95.222  79.552825     4.3832      9.507  -137.4619 3.0628e+00     3.2549      3.109      4.509    16.8296 0.0000e+00
      3.172      0.012     0.1214      1.088     95.137  79.497206     4.4581      9.502  -138.2852 3.0710e+00     3.2023      3.110      4.511    16.8057 0.0000e+00
      3.175      0.012     0.1139      1.074     95.120  79.492219     5.4566      9.498  -139.2770 3.0641e+00     3.2924      3.114      4.516    16.7838 0.0000e+00
      3.179      0.012     0.1102      1.075     95.250  79.619712     7.3161      9.495  -140.2475 3.0625e+00     3.5246      3.117      4.521    16.7640 0.0000e+00
      3.181      0.012     0.1104      1.072     95.423  79.830548     8.3564      9.490  -141.0712 3.0775e+00     3.7219      3.120      4.526    16.7629 0.0000e+00
      3.184      0.012     0.1040      1.064     95.420  79.943068     8.6291      9.484  -141.8374 3.0755e+00     3.9351      3.122      4.529    16.7800 0.0000e+00
      3.187      0.013     0.1037      1.059     95.160  79.835737    10.5058      9.478  -142.5428 3.0674e+00     5.4883      3.126      4.534    16.7819 0.0000e+00
      3.190      0.015     0.1047      1.058     94.921  79.677567    13.9258      9.473  -143.2330 3.0623e+00     8.3258      3.128      4.537    16.7793 0.0000e+00
      3.194      0.016     0.1041      1.055     94.892  79.620420    15.8307      9.469  -143.9882 3.0542e+00     9.9578      3.131      4.542    16.8148 0.0000e+00
      3.199      0.017     0.1032      1.052     94.908  79.589849    16.4417      9.466  -144.7037 3.0370e+00    10.7717      3.137      4.549    16.8862 0.0000e+00
      3.204      0.017     0.1022      1.048     94.883  79.562233    21.4048      9.461  -145.2587 3.0123e+00    17.9621      3.142      4.557    16.9588 0.0000e+00
      3.209      0.016     0.1025      1.045     94.863  79.540862    30.5035      9.456  -145.7947 2.9950e+00    31.1730      3.147      4.564    16.9860 0.0000e+00
      3.213      0.016     0.1017      1.043     94.839  79.458640    35.4326      9.452  -146.3658 2.9914e+00    38.5114      3.151      4.570    16.9498 0.0000e+00
      3.216      0.015     0.1020      1.037     94.841  79.331075    35.3243      9.448  -146.8298 2.9945e+00    39.8062      3.154      4.575    16.9137 0.0000e+00
      3.219      0.014     0.1014      1.029     94.861  79.206481    29.0780      9.446  -147.2749 2.9810e+00    46.4177      3.157      4.578    16.9206 0.0000e+00
      3.222      0.014     0.1007      1.031     94.860  79.096575    17.5463      9.443  -147.7906 2.9529e+00    58.4667      3.159      4.582    16.9346 0.0000e+00
      3.226      0.013     0.1013      1.050     94.972  79.083061    11.2377      9.440  -148.3324 2.9398e+00    64.9076      3.164      4.589    16.9026 0.0000e+00
      3.230      0.013     0.1006      1.062     95.250  79.170123    10.4377      9.437  -148.9214 2.9434e+00    64.0699      3.168      4.594    16.8215 0.0000e+00
      3.233      0.013     0.0998      1.045     95.495  79.258828     7.7417      9.433  -149.4915 2.9466e+00    48.2361      3.171      4.599    16.7336 0.0000e+00
      3.237      0.012     0.0993      1.021     95.604  79.328807     2.8690      9.429  -149.9772 2.9432e+00    19.0497      3.174      4.605    16.6844 0.0000e+00
      3.239      0.010     0.1021      0.995     95.628  79.380339     0.2118      9.426  -150.4060 2.9332e+00     3.1070      3.177      4.608    16.6468 0.0000e+00
      3.242      0.009     0.1058      0.973     95.639  79.436834    -0.0330      9.423  -150.8041 2.9256e+00     1.5738      3.179      4.611    16.5504 0.0000e+00
      3.244      0.008     0.1013      0.966     95.616  79.503234    -0.0660      9.419  -151.2628 2.9293e+00     0.9559      3.181      4.614    16.4677 0.0000e+00
      3.246      0.007     0.1001      0.956     95.487  79.547395    -0.0695      9.415  -151.7365 2.9351e+00     0.1458      3.184      4.617    16.4783 0.0000e+00
      3.248      0.006     0.0973      0.955     95.308  79.589439    -0.0598      9.411  -152.1445 2.9329e+00    -0.2618      3.185      4.619    16.5015 0.0000e+00
      3.249      0.005     0.0935      0.985     95.203  79.630301    -0.0487      9.407  -152.5817 2.9322e+00    -0.2503      3.185      4.620    16.5181 0.0000e+00
      3.250      0.004     0.0951      1.016     95.208  79.660088    -0.0428      9.404  -152.9792 2.9327e+00    -0.1934      3.187      4.622    16.5576 0.0000e+00
      3.251      0.004     0.0931      1.027     95.253  79.695268    -0.0381      9.400  -153.2504 2.9305e+00    -0.1885      3.188      4.624    16.6345 0.0000e+00
      3.252      0.003     0.0906      1.029     95.258  79.737698    -0.0416      9.397  -153.4515 2.9280e+00    -0.2589      3.189      4.625    16.7666 0.0000e+00
      3.252      0.003     0.0958      1.020     95.241  79.791621    -0.0606      9.394  -153.6901 2.9167e+00    -0.3274      3.189      4.625    16.8437 0.0000e+00
      3.253      0.002     0.0999      1.004     95.240  79.838628    -0.0681      9.391  -154.0697 2.9082e+00    -0.3335      3.190      4.627    16.8341 0.0000e+00
      3.254      0.002     0.0991      0.989     95.261  79.860993    -0.0577      9.388  -154.4279 2.9109e+00    -0.2643      3.191      4.628    16.8172 0.0000e+00
      3.254      0.002     0.1006      0.981     95.302  79.871268    -0.0430      9.384  -154.6656 2.9135e+00    -0.1734      3.191      4.628    16.8421 0.0000e+00
      3.254      0.002     0.0987      0.973     95.296  79.835658    -0.0323      9.381  -154.8790 2.9139e+00    -0.1578      3.192      4.629    16.8913 0.0000e+00
      3.255      0.001     0.0973      0.965     95.263  79.748348    -0.0353      9.380  -155.1155 2.9143e+00    -0.2119      3.192      4.629    16.9194 0.0000e+00
      3.255      0.001     0.0952      0.958     95.355  79.705777    -0.0549      9.377  -155.3739 2.9051e+00    -0.2814      3.193      4.630    16.9207 0.0000e+00
      3.255      0.001     0.0951      0.958     95.598  79.765903    -0.0699      9.374  -155.5944 2.8839e+00    -0.3147      3.192      4.630    16.8969 0.0000e+00
      3.255      0.001     0.0943      0.960     95.783  79.839256    -0.0663      9.371  -155.8029 2.8581e+00    -0.2729      3.193      4.630    16.8883 0.0000e+00
      3.255      0.000     0.0934      0.956     95.737  79.829503    -0.0619      9.368  -156.0015 2.8415e+00    -0.2195      3.193      4.630    16.8694 0.0000e+00
      3.256 1.8629e-08     0.0928      0.953     95.550  79.775201    -0.0574      9.364  -156.1891 2.8474e+00    -0.2165      3.193      4.631    16.7956 0.0000e+00
      3.256 2.0492e-07     0.0929      0.954     95.420  79.755141    -0.0452      9.362  -156.5225 2.8514e+00    -0.2357      3.193      4.631    16.7037 0.0000e+00
      3.255 2.0492e-07     0.0940      0.951     95.381  79.777841    -0.0395      9.359  -156.9347 2.8385e+00    -0.2477      3.193      4.629    16.6480 0.0000e+00
      3.255 1.8629e-08     0.0927      0.946     95.340  79.795365    -0.0475      9.355  -157.2151 2.8317e+00    -0.2590      3.192      4.630    16.6713 0.0000e+00
      3.255 1.6961e-09     0.0924      0.954     95.295  79.776322    -0.0578      9.352  -157.4173 2.8402e+00    -0.2690      3.193      4.631    16.7480 0.0000e+00
      3.255 1.8193e-10     0.0926      0.962     95.321  79.738390    -0.0643      9.350  -157.6590 2.8382e+00    -0.2318      3.193      4.630    16.7984 0.0000e+00
      3.256 3.2166e-10     0.0929      0.956     95.431  79.718190    -0.0596      9.349  -157.9860 2.8156e+00    -0.1849      3.193      4.631    16.8116 0.0000e+00
      3.256 3.3856e-09     0.0906      0.943     95.574  79.722711    -0.0436      9.346  -158.3605 2.7989e+00    -0.1801      3.193      4.631    16.8478 0.0000e+00
      3.256 3.7227e-08     0.0925      0.937     95.686  79.729310    -0.0451      9.344  -158.6594 2.7997e+00    -0.2085      3.193      4.631    16.8741 0.0000e+00
      3.256 4.0950e-07     0.0942      0.942     95.746  79.734282    -0.0607      9.341  -158.9327 2.8016e+00    -0.2548      3.193      4.630    16.8319 0.0000e+00
      3.256      0.000     0.0929      0.953     95.749  79.719192    -0.0658      9.338  -159.2565 2.7968e+00    -0.2954      3.193      4.631    16.7620 0.0000e+00
      3.256      0.000     0.0914      0.955     95.727  79.674017    -0.0647      9.336  -159.5628 2.7946e+00    -0.2901      3.193      4.631    16.6988 0.0000e+00
      3.256      0.001     0.0905      0.943     95.746  79.633158    -0.0558      9.335  -159.8825 2.7955e+00    -0.2243      3.193      4.631    16.6487 0.0000e+00
      3.256      0.001     0.0916      0.947     95.792  79.606632    -0.0423      9.333  -160.1967 2.7854e+00    -0.1833      3.193      4.631    16.6276 0.0000e+00
      3.256      0.001     0.0929      0.964     95.826  79.607557    -0.0422      9.331  -160.6939 2.7705e+00    -0.2043      3.194      4.632    16.6283 0.0000e+00
      3.257      0.000     0.0943      0.969     95.822  79.644307    -0.0469      9.328  -161.3344 2.7651e+00    -0.2394      3.194      4.632    16.6184 0.0000e+00
      3.257 1.8614e-08     0.0909      0.965     95.746  79.669502    -0.0490      9.324  -161.5740 2.7580e+00    -0.2666      3.194      4.633    16.5850 0.0000e+00
      3.257 2.0475e-07     0.0915      0.955     95.626  79.657943    -0.0588      9.322  -161.6122 2.7531e+00    -0.2596      3.194      4.632    16.5406 0.0000e+00
      3.256 2.0475e-07     0.0954      0.948     95.511  79.631841    -0.0659      9.319  -161.7962 2.7546e+00    -0.2223      3.194      4.632    16.5187 0.0000e+00
      3.256 1.8610e-08     0.0942      0.947     95.403  79.608344    -0.0596      9.316  -161.9920 2.7440e+00    -0.1922      3.194      4.632    16.5435 0.0000e+00
      3.257 1.6582e-09     0.0946      0.948     95.361  79.628277    -0.0495      9.315  -162.1724 2.7291e+00    -0.1685      3.194      4.633    16.6026 0.0000e+00
      3.257 -2.193e-10     0.0926      0.952     95.435  79.682157    -0.0519      9.313  -162.4286 2.7283e+00    -0.1752      3.194      4.632    16.6536 0.0000e+00
      3.257 -4.090e-09     0.0919      0.950     95.563  79.687500    -0.0629      9.311  -162.7676 2.7287e+00    -0.2392      3.194      4.633    16.6814 0.0000e+00
      3.257 -4.515e-08     0.0923      0.936     95.680  79.629157    -0.0744      9.310  -163.0867 2.7220e+00    -0.3273      3.195      4.633    16.7180 0.0000e+00
      3.257 -4.966e-07     0.0916      0.928     95.760  79.548836    -0.0829      9.309  -163.3624 2.7223e+00    -0.3520      3.195      4.633    16.7591 0.0000e+00
      3.257      0.000     0.0926      0.927     95.810  79.479225    -0.0740      9.307  -163.6050 2.7224e+00    -0.2648      3.194      4.633    16.7639 0.0000e+00
      3.257      0.000     0.0932      0.931     95.838  79.423249    -0.0505      9.305  -163.9545 2.7180e+00    -0.1603      3.194      4.632    16.7017 0.0000e+00
      3.257     -0.001     0.0905      0.941     95.832  79.380631    -0.0325      9.303  -164.4912 2.7100e+00    -0.1482      3.194      4.632    16.6023 0.0000e+00
      3.257     -0.002     0.0903      0.931     95.744  79.345406    -0.0308      9.301  -165.0184 2.6947e+00    -0.1865      3.195      4.633    16.5243 0.0000e+00
      3.257     -0.005     0.0911      0.908     95.504  79.251754    -0.0468      9.299  -165.5106 2.6939e+00    -0.2138      3.194      4.632    16.4676 0.0000e+00
      3.256     -0.010     0.0897      0.903     95.195  79.075067    -0.0588      9.297  -166.0542 2.7050e+00    -0.2052      3.194      4.633    16.4274 0.0000e+00
      3.255     -0.018     0.0938      0.914     95.151  79.053221    -0.0521      9.296  -166.5140 2.7195e+00    -0.1164      3.193      4.630    16.3978 0.0000e+00
      3.251     -0.027     0.0916      0.922     95.406  79.305547     0.0345      9.294  -166.8550 2.7468e+00     0.8932      3.190      4.625    16.4118 0.0000e+00
      3.245     -0.034     0.0877      0.923     95.504  79.518889     0.9876      9.291  -167.1660 2.7813e+00    12.5155      3.184      4.618    16.4957 0.0000e+00
      3.233     -0.036     0.0874      0.916     95.278  79.470925     2.7255      9.288  -167.4343 2.8368e+00    33.8990      3.173      4.603    16.5518 0.0000e+00
      3.216     -0.032     0.0896      0.896     94.893  79.170920     3.6519      9.285  -167.6048 2.8984e+00    45.5327      3.153      4.574    16.5295 0.0000e+00
      3.201     -0.024     0.0905      0.889     94.542  78.753004     3.6486      9.284  -167.7642 2.9172e+00    46.3947      3.135      4.547    16.5320 0.0000e+00
      3.196     -0.013     0.0895      0.899     94.446  78.487300     2.9941      9.282  -168.0711 2.9107e+00    45.2777      3.132      4.543    16.6234 0.0000e+00
      3.199     -0.003     0.0904      0.898     94.575  78.437930     1.8220      9.279  -168.3906 2.9001e+00    43.1974      3.135      4.547    16.7280 0.0000e+00
      3.205      0.007     0.0861      0.896     94.660  78.410221     1.1960      9.276  -168.5287 2.8756e+00    42.0107      3.142      4.557    16.7463 0.0000e+00
      3.211      0.013     0.0853      0.896     94.645  78.342910     1.1350      9.274  -168.6236 2.8521e+00    41.0058      3.151      4.570    16.6543 0.0000e+00
      3.216      0.015     0.0893      0.902     94.585  78.259865     0.8435      9.271  -168.8486 2.8434e+00    31.0133      3.154      4.575    16.5386 0.0000e+00
      3.217      0.014     0.0870      0.925     94.494  78.169092     0.2837      9.268  -169.0983 2.8487e+00    12.7408      3.155      4.576    16.4530 0.0000e+00
      3.218      0.013     0.0878      0.936     94.379  78.071963    -0.0323      9.265  -169.3202 2.8472e+00     2.7924      3.155      4.577    16.4037 0.0000e+00
      3.221      0.013     0.0881      0.931     94.124  77.848485    -0.0636      9.262  -169.5532 2.8253e+00     1.9004      3.159      4.581    16.3815 0.0000e+00
      3.225      0.014     0.0866      0.933     93.846  77.565270    -0.0701      9.259  -169.8495 2.8047e+00     1.7842      3.163      4.587    16.3624 0.0000e+00
      3.229      0.014     0.0918      0.937     93.893  77.508780    -0.0684      9.255  -170.2362 2.7939e+00     1.2857      3.166      4.592    16.3548 0.0000e+00
      3.234      0.013     0.0924      0.923     94.178  77.674018    -0.0516      9.251  -170.5288 2.7805e+00     0.3827      3.171      4.600    16.3590 0.0000e+00
      3.238      0.011     0.0906      0.898     94.300  77.782744    -0.0501      9.248  -170.6338 2.7632e+00    -0.1503      3.176      4.607    16.3591 0.0000e+00
      3.241      0.008     0.0911      0.890     94.220  77.742501    -0.0670      9.245  -170.6456 2.7607e+00    -0.3092      3.179      4.610    16.3338 0.0000e+00
      3.241      0.006     0.0930      0.898     94.214  77.696136    -0.0729      9.242  -170.7574 2.7789e+00    -0.3765      3.179      4.611    16.2685 0.0000e+00
      3.241      0.004     0.0914      0.908     94.359  77.730766    -0.0625      9.239  -171.0398 2.7842e+00    -0.3154      3.178      4.610    16.2097 0.0000e+00
      3.242      0.002     0.0870      0.916     94.487  77.779598    -0.0499      9.235  -171.3068 2.7718e+00    -0.2187      3.179      4.611    16.2345 0.0000e+00
      3.243      0.001     0.0869      0.912     94.481  77.777829    -0.0462      9.232  -171.4903 2.7598e+00    -0.1644      3.180      4.612    16.2724 0.0000e+00
      3.245      0.001     0.0882      0.896     94.356  77.709388    -0.0508      9.230  -171.7089 2.7523e+00    -0.1368      3.182      4.615    16.2399 0.0000e+00
      3.245      0.001     0.0889      0.866     94.191  77.587954    -0.0556      9.227  -171.9718 2.7549e+00    -0.1248      3.183      4.616    16.1770 0.0000e+00
      3.244      0.001     0.0908      0.841     94.142  77.517673    -0.0618      9.225  -172.2593 2.7617e+00    -0.1213      3.181      4.613    16.1402 0.0000e+00
      3.243      0.001     0.0899      0.844     94.255  77.558987    -0.0678      9.223  -172.6047 2.7624e+00    -0.0944      3.179      4.611    16.1511 0.0000e+00
      3.243      0.001     0.0889      0.858     94.396  77.642333    -0.0623      9.220  -172.7920 2.7535e+00     0.0287      3.179      4.611    16.1794 0.0000e+00
      3.244      0.001     0.0852      0.858     94.462  77.698794    -0.0448      9.218  -172.8033 2.7449e+00     0.2059      3.181      4.614    16.1939 0.0000e+00
      3.246      0.002     0.0810      0.858     94.477  77.732995    -0.0304      9.216  -172.8270 2.7428e+00     0.2722      3.183      4.617    16.1723 0.0000e+00
      3.246      0.002     0.0828      0.874     94.543  77.801553    -0.0388      9.213  -172.8206 2.7443e+00     0.2492      3.183      4.617    16.1335 0.0000e+00
      3.245      0.001     0.0853      0.898     94.653  77.891914    -0.0627      9.210  -172.8122 2.7422e+00     0.2010      3.182      4.615    16.1154 0.0000e+00
      3.245      0.000     0.0846      0.914     94.710  77.935379    -0.0787      9.208  -172.8968 2.7352e+00     0.1340      3.182      4.615    16.1182 0.0000e+00
      3.246      0.000     0.0833      0.910     94.736  77.945584    -0.0817      9.205  -173.0693 2.7328e+00     0.1220      3.183      4.617    16.1372 0.0000e+00
      3.246      0.000     0.0858      0.895     94.772  77.951703    -0.0744      9.203  -173.1779 2.7417e+00     0.1929      3.183      4.617    16.1464 0.0000e+00
      3.246      0.001     0.0885      0.891     94.787  77.945747    -0.0569      9.201  -173.1764 2.7552e+00     0.2734      3.183      4.616    16.1412 0.0000e+00
      3.246      0.001     0.0910      0.906     94.773  77.937131    -0.0444      9.198  -173.2235 2.7587e+00     0.2769      3.182      4.616    16.1416 0.0000e+00
      3.246      0.001     0.0902      0.924     94.721  77.911113    -0.0562      9.196  -173.3170 2.7527e+00     0.2005      3.183      4.617    16.1392 0.0000e+00
      3.246      0.001     0.0875      0.921     94.676  77.885520    -0.0749      9.193  -173.4465 2.7377e+00     0.1352      3.183      4.617    16.1209 0.0000e+00
      3.246      0.001     0.0868      0.901     94.685  77.882043    -0.0789      9.190  -173.5857 2.7219e+00     0.1362      3.184      4.618    16.1066 0.0000e+00
      3.246      0.001     0.0890      0.880     94.695  77.869065    -0.0722      9.189  -173.6232 2.7304e+00     0.1781      3.183      4.617    16.1115 0.0000e+00
      3.247      0.000     0.0920      0.858     94.688  77.855737    -0.0602      9.187  -173.7280 2.7508e+00     0.2323      3.184      4.618    16.1238 0.0000e+00
      3.247     -0.001     0.0915      0.845     94.666  77.848049    -0.0497      9.185  -173.9914 2.7504e+00     0.3134      3.184      4.619    16.1343 0.0000e+00
      3.247     -0.010     0.0882      0.845     94.716  77.903294    -0.0459      9.183  -174.3131 2.7473e+00     0.6803      3.184      4.618    16.1259 0.0000e+00
      3.247     -0.037     0.0872      0.834     95.188  78.332962    -0.0055      9.181  -174.6927 2.7518e+00     4.8055      3.183      4.618    16.1082 0.0000e+00
      3.246     -0.090     0.0842      0.822     96.051  79.228053     0.0893      9.177  -175.1396 2.7515e+00    12.4784      3.184      4.617    16.1031 0.0000e+00
      3.241     -0.162     0.0821      0.815     96.590  80.078257     0.1595      9.171  -175.5004 2.8067e+00    16.7649      3.185      4.619    16.1133 0.0000e+00
      3.213     -0.240     0.0844      0.798     96.345  80.410365     0.2523      9.163  -175.8724 3.0623e+00    17.6906      3.171      4.598    16.1230 0.0000e+00
      3.134     -0.313     0.0819      0.770     95.348  80.128320     1.2114      9.156  -176.4537 3.6061e+00    23.3988      3.095      4.489    16.1166 0.0000e+00
      3.008     -0.369     0.0801      0.736     93.909  79.466725     2.9751      9.149  -177.1085 4.3186e+00    33.8253      2.950      4.277    16.1840 0.0000e+00
      2.873     -0.394     0.0806      0.707     92.809  79.025009     3.9402      9.143  -177.5944 5.0346e+00    39.4687      2.808      4.072    16.4255 0.0000e+00
      2.756     -0.376     0.0776      0.703     92.523  79.112165     4.0162      9.138  -177.6828 5.7746e+00    39.3343      2.701      3.918    16.7332 0.0000e+00
      2.651     -0.319     0.0745      0.721     92.409  79.185625     3.8775      9.134  -178.1778 6.5243e+00    32.5762      2.594      3.762    17.0119 0.0000e+00
      2.568     -0.241     0.0708      0.736     91.359  78.387331     3.6196      9.129  -180.0506 7.0498e+00    20.2343      2.502      3.629    17.3158 0.0000e+00
      2.523     -0.166     0.0663      0.748     89.823  77.217291     3.4865      9.124  -181.4842 7.2825e+00    13.5608      2.463      3.571    17.6082 0.0000e+00
      2.509     -0.113     0.0660      0.774     89.224  76.928946     3.4924      9.119  -180.7125 7.3582e+00    12.8621      2.457      3.563    17.7821 0.0000e+00
      2.510     -0.090     0.0688      0.807     88.882  76.808931     3.5159      9.117  -179.1513 7.3448e+00    11.1031      2.460      3.569    17.8543 0.0000e+00
      2.515     -0.097     0.0702      0.827     87.843  75.957128     3.5455      9.118  -177.5798 7.3828e+00     7.9730      2.469      3.582    17.8881 0.0000e+00
      2.505     -0.127     0.0699      0.819     86.022  74.386419     3.5678      9.123  -175.5639 7.6987e+00     6.3061      2.470      3.582    17.9491 0.0000e+00
      2.464     -0.159     0.0731      0.801     83.276  72.057853     3.6104      9.129  -173.4479 8.3595e+00     6.1501      2.428      3.523    18.1187 0.0000e+00
      2.394     -0.178     0.0762      0.785     80.590  69.860523     4.1937      9.134  -171.7839 9.1602e+00     6.6665      2.348      3.406    18.2445 0.0000e+00
      2.317     -0.177     0.0792      0.761     78.238  68.031793     5.2853      9.139  -170.5016 9.8725e+00     7.8024      2.267      3.288    18.2320 0.0000e+00
      2.255     -0.155     0.0774      0.760     75.855  66.216923     5.8897      9.140  -168.9568 1.0334e+01     8.4754      2.200      3.192    18.2230 0.0000e+00
      2.221     -0.116     0.0747      0.796     73.881  64.757913     5.9824      9.139  -166.9580 1.0454e+01     8.6202      2.166      3.143    18.2427 0.0000e+00
      2.213     -0.072     0.0752      0.842     73.151  64.371103     6.3902      9.138  -164.6607 1.0392e+01     9.6221      2.169      3.145    18.3178 0.0000e+00
      2.215     -0.033     0.0701      0.879     72.565  64.081768     7.1411      9.138  -162.2607 1.0340e+01    11.5371      2.174      3.153    18.4656 0.0000e+00
      2.216     -0.007     0.0695      0.911     69.105  61.195787     7.5630      9.137  -159.9647 1.0324e+01    12.6445      2.173      3.152    18.6435 0.0000e+00
      2.216      0.005     0.0739      0.918     64.042  56.858733     7.6213      9.136  -157.8078 1.0322e+01    12.7973      2.172      3.151    18.8300 0.0000e+00
      2.217      0.009     0.0789      0.882     60.854  54.204667     7.7122      9.137  -155.7992 1.0299e+01    12.7353      2.173      3.152    18.9928 0.0000e+00
      2.221      0.011     0.0809      0.824     59.512  53.178622     8.7122      9.137  -153.6608 1.0239e+01    12.3053      2.176      3.158    19.1690 0.0000e+00
      2.226      0.011     0.0845      0.774     58.723  52.582097    10.5729      9.137  -150.8811 1.0204e+01    11.6634      2.183      3.167    19.2884 0.0000e+00
      2.229      0.005     0.0866      0.748     59.224  53.088587    11.6002      9.138  -147.0553 1.0225e+01    11.3620      2.187      3.172    19.3695 0.0000e+00
      2.232     -0.011     0.0813      0.741     62.454  56.000097    11.6857      9.140  -142.3358 1.0231e+01    11.2913      2.187      3.173    19.5376 0.0000e+00
      2.236     -0.037     0.0750      0.746     67.014  60.029743    11.5313      9.143  -137.8699 1.0253e+01    10.7740      2.194      3.182    19.6995 0.0000e+00
      2.233     -0.066     0.0697      0.774     70.139  62.682811    11.2327      9.145  -133.9264 1.0486e+01     9.9236      2.197      3.187    19.7832 0.0000e+00
      2.213     -0.091     0.0677      0.831     71.457  63.683780    11.0463      9.145  -129.8461 1.1008e+01     9.4807      2.178      3.159    19.8215 0.0000e+00
      2.174     -0.105     0.0671      0.882     71.836  63.872595    10.9258      9.145  -126.2213 1.1711e+01     9.4506      2.136      3.097    19.8499 0.0000e+00
      2.127     -0.105     0.0677      0.900     70.955  62.995885    10.0330      9.145  -123.6543 1.2445e+01     9.7983      2.084      3.023    19.8168 0.0000e+00
      2.085     -0.091     0.0690      0.899     67.827  60.199278     8.4170      9.144  -121.5230 1.2960e+01    10.4745      2.036      2.955    19.6874 0.0000e+00
      2.060     -0.066     0.0764      0.891     63.351  56.295894     7.5415      9.142  -119.0360 1.3106e+01    10.8623      2.012      2.919    19.5467 0.0000e+00
      2.057     -0.036     0.0831      0.886     59.498  53.023879     7.4459      9.139  -115.7825 1.3031e+01    10.8661      2.014      2.921    19.4392 0.0000e+00
      2.065     -0.010     0.0830      0.881     56.592  50.615325     7.1855      9.135  -111.5244 1.2946e+01    10.2476      2.026      2.939    19.3692 0.0000e+00
      2.073      0.008     0.0833      0.897     54.413  48.828340     6.7240      9.131  -106.2690 1.2946e+01     9.1231      2.035      2.952    19.3479 0.0000e+00
      2.076      0.018     0.0815      0.984     52.696  47.418554     6.4772      9.128  -100.3367 1.2967e+01     8.5763      2.036      2.953    19.4011 0.0000e+00
      2.078      0.019     0.0815      1.170     51.361  46.331103     6.4491      9.124   -94.2604 1.2919e+01     8.5552      2.036      2.955    19.5508 0.0000e+00
      2.082      0.016     0.0803      1.455     50.699  45.837899     6.2760      9.120   -88.5546 1.2843e+01     8.1845      2.041      2.961    19.7290 0.0000e+00
      2.088      0.009     0.0789      1.844     50.882  46.089680     5.9318      9.117   -82.7130 1.2750e+01     7.4761      2.047      2.968    19.8755 0.0000e+00
      2.094     -0.005     0.0862      2.341     52.212  47.343993     5.7254      9.115   -76.2855 1.2643e+01     7.0615      2.054      2.979    19.9941 0.0000e+00
      2.099     -0.028     0.1032      2.916     54.893  49.766813     5.7119      9.113   -70.1221 1.2623e+01     7.0318      2.060      2.988    20.1012 0.0000e+00
      2.096     -0.057     0.1286      3.515     58.448  52.907641     5.8009      9.111   -64.7200 1.2816e+01     7.3899      2.061      2.989    20.2071 0.0000e+00
      2.079     -0.087     0.1628      4.061     60.957  55.030145     5.9451      9.109   -59.9259 1.3299e+01     8.0779      2.045      2.966    20.2966 0.0000e+00
      2.045     -0.113     0.2089      4.483     60.864  54.790719     6.0072      9.107   -55.5207 1.4028e+01     8.4502      2.009      2.913    20.3536 0.0000e+00
      2.001     -0.131     0.2623      4.755     59.878  53.823086     6.0027      9.104   -50.6902 1.4843e+01     8.4407      1.962      2.846    20.3510 0.0000e+00
      1.957     -0.137     0.3189      4.863     59.924  53.872936     6.0736      9.100   -44.9711 1.5552e+01     8.4069      1.916      2.778    20.2811 0.0000e+00
      1.919     -0.128     0.3732      4.867     60.100  54.060032     6.9052      9.094   -39.3715 1.6152e+01     8.2126      1.880      2.726    20.1439 0.0000e+00
      1.886     -0.106     0.4119      4.969     59.928  53.926158     8.4341      9.089   -34.6951 1.6845e+01     7.8337      1.850      2.684    19.9733 0.0000e+00
      1.856     -0.077     0.4384      5.332     59.669  53.714981     9.2781      9.083   -30.6755 1.7450e+01     7.5834      1.816      2.633    19.9039 0.0000e+00
      1.837     -0.049     0.4480      5.953     58.884  53.030870     9.4687      9.077   -27.0790 1.7618e+01     7.4746      1.794      2.602    19.9489 0.0000e+00
      1.835     -0.025     0.4387      6.751     57.775  52.068588    10.8223      9.072   -24.1633 1.7502e+01     7.2356      1.796      2.607    19.9758 0.0000e+00
      1.841     -0.007     0.4417      7.626     56.840  51.288098    13.3014      9.066   -22.1801 1.7330e+01     6.8798      1.805      2.619    19.9835 0.0000e+00
      1.847      0.007     0.4764      8.515     56.250  50.833143    14.6562      9.060   -20.7385 1.7168e+01     6.7255      1.812      2.628    20.0101 0.0000e+00
      1.851      0.015     0.5350      9.459     55.877  50.568265    14.7942      9.054   -19.2943 1.7104e+01     6.6685      1.817      2.635    20.0197 0.0000e+00
      1.852      0.017     0.6109     10.525     55.317  50.117477    14.9944      9.047   -17.8826 1.7079e+01     6.4979      1.815      2.633    20.0470 0.0000e+00
      1.854      0.016     0.6926     11.700     55.070  49.954424    15.3461      9.039   -16.5761 1.6987e+01     6.3361      1.816      2.634    20.1065 0.0000e+00
      1.860      0.009     0.7699     12.931     55.470  50.374733    15.5338      9.031   -15.3704 1.6844e+01     6.2833      1.822      2.643    20.1801 0.0000e+00
      1.868     -0.009     0.8505     14.231     55.589  50.500843    15.5409      9.022   -14.4031 1.6714e+01     6.3384      1.832      2.658    20.2553 0.0000e+00
      1.873     -0.039     0.9476     15.626     55.484  50.399857    15.3242      9.013   -13.4846 1.6661e+01     6.3875      1.839      2.668    20.2908 0.0000e+00
      1.871     -0.080     1.0555     17.008     55.580  50.487098    14.8945      9.006   -12.5241 1.6924e+01     6.3647      1.843      2.673    20.3457 0.0000e+00
      1.851     -0.127     1.1637     18.111     55.070  50.031768    14.6403      9.001   -11.4805 1.7726e+01     6.3361      1.825      2.647    20.4221 0.0000e+00
      1.806     -0.169     1.2791     18.845     53.700  48.831138    14.5813      8.996   -10.2448 1.8917e+01     6.3482      1.776      2.577    20.4281 0.0000e+00
      1.744     -0.193     1.4065     19.374     52.349  47.716514    14.4391      8.990    -8.8553 2.0429e+01     6.4425      1.713      2.485    20.4048 0.0000e+00
      1.673     -0.193     1.5448     20.000     51.775  47.348388    14.2023      8.985    -7.4997 2.2298e+01     6.5885      1.642      2.382    20.4187 0.0000e+00
      1.602     -0.168     1.6471     21.267     51.849  47.554789    14.0734      8.980    -6.4160 2.4100e+01     6.6443      1.565      2.270    20.4116 0.0000e+00
      1.551     -0.127     1.7043     23.764     52.017  47.799794    14.0548      8.975    -5.3888 2.5053e+01     6.6056      1.507      2.185    20.4291 0.0000e+00
      1.533     -0.079     1.7421     27.703     52.278  48.088820    14.0186      8.971    -4.2000 2.5052e+01     6.5636      1.497      2.171    20.5583 0.0000e+00
      1.537     -0.034     1.7732     32.743     52.506  48.319426    13.8022      8.968    -2.9692 2.4812e+01     6.6156      1.507      2.187    20.7285 0.0000e+00
      1.546      0.001     1.8585     38.052     51.925  47.794547    13.4360      8.963    -1.6916 2.4670e+01     6.7559      1.515      2.198    20.8714 0.0000e+00
      1.555      0.022     2.0711     42.724     50.682  46.694491    13.2524      8.957    -0.7991 2.4573e+01     6.8593      1.526      2.213    20.9568 0.0000e+00
      1.562      0.031     2.4319     46.315     49.477  45.684443    13.2478      8.951    -1.6417 2.4502e+01     6.8751      1.532      2.223    20.9949 0.0000e+00
      1.568      0.032     2.9067     48.811     48.719  45.104684    13.3214      8.945    -6.3732 2.4340e+01     6.7426      1.537      2.229    21.0170 0.0000e+00
      1.576      0.030     3.4181     50.722     48.856  45.334549    13.4687      8.939   -19.5481 2.4056e+01     6.4864      1.544      2.239    21.0034 0.0000e+00
      1.586      0.026     3.8400     52.896     49.562  46.051706    13.5636      8.933   -38.1605 2.3738e+01     6.3395      1.555      2.256    21.0328 0.0000e+00
      1.596      0.021     4.1530     55.779     50.076  46.539042    13.6036      8.928   -51.2478 2.3392e+01     6.3663      1.566      2.272    21.1605 0.0000e+00
      1.603      0.017     4.3494     59.178     49.748  46.211782    13.7280      8.925   -56.7279 2.3094e+01     6.3333      1.574      2.283    21.2937 0.0000e+00
      1.604      0.013     4.4713     62.451     48.863  45.395841    13.9439      8.922   -57.2703 2.2881e+01     6.2136      1.574      2.283    21.4052 0.0000e+00
      1.601      0.011     4.6463     64.996     48.215  44.862679    14.0666      8.919   -54.4502 2.2612e+01     6.1484      1.570      2.277    21.4728 0.0000e+00
      1.601      0.010     4.9044     66.651     47.748  44.526475    14.0871      8.915   -51.5396 2.2224e+01     6.1254      1.569      2.275    21.4802 0.0000e+00
      1.604      0.010     5.2361     67.832     47.213  44.123979    14.1426      8.910   -50.7292 2.1784e+01     6.1745      1.573      2.280    21.4304 0.0000e+00
      1.610      0.007     5.5470     69.176     46.777  43.804831    14.2206      8.905   -51.7929 2.1395e+01     6.2643      1.579      2.290    21.4139 0.0000e+00
      1.615     -0.004     5.7679     70.957     46.665  43.778104    14.2574      8.901   -55.5385 2.1103e+01     6.3226      1.586      2.299    21.5114 0.0000e+00
      1.618     -0.025     5.8871     73.205     46.495  43.674008    14.3039      8.898   -60.8274 2.0895e+01     6.3681      1.589      2.304    21.6245 0.0000e+00
      1.617     -0.055     5.9503     75.857     46.062  43.307970    14.7997      8.897   -63.6863 2.0883e+01     6.4381      1.588      2.303    21.7265 0.0000e+00
      1.606     -0.085     6.0546     78.702     45.653  42.970436    15.7074      8.897   -65.9287 2.1403e+01     6.5539      1.583      2.296    21.8199 0.0000e+00
      1.574     -0.115     6.1997     81.517     45.172  42.576208    16.1981      8.898   -69.4422 2.2576e+01     6.6074      1.553      2.253    21.9107 0.0000e+00
      1.526     -0.144     6.3888     84.170     44.381  41.905451    16.2383      8.899   -70.8921 2.3798e+01     6.5729      1.493      2.165    21.9698 0.0000e+00
      1.481     -0.169     6.6265     86.705     43.516  41.207391    16.2434      8.902   -68.6595 2.4727e+01     6.5461      1.448      2.100    21.9995 0.0000e+00
      1.443     -0.182     6.8749     89.300     42.957  40.863801    16.2599      8.905   -64.9041 2.6020e+01     6.5565      1.420      2.061    22.0516 0.0000e+00
      1.396     -0.178     7.1162     92.237     42.652  40.797811    16.2964      8.909   -61.8802 2.8010e+01     6.5965      1.373      1.992    22.1189 0.0000e+00
      1.338     -0.159     7.3368     96.027     42.437  40.790626    16.3102      8.912   -59.8028 3.0226e+01     6.6197      1.309      1.899    22.1917 0.0000e+00
      1.283     -0.131     7.5319    101.026     42.258  40.777209    16.2359      8.915   -57.6823 3.2137e+01     6.5974      1.252      1.816    22.3077 0.0000e+00
      1.245     -0.098     7.7204    107.071     42.072  40.762743    15.5484      8.917   -54.6543 3.3266e+01     6.6341      1.212      1.758    22.5397 0.0000e+00
      1.231     -0.062     7.9085    113.534     41.853  40.742878    14.3137      8.921   -50.9822 3.3412e+01     6.7564      1.200      1.739    22.8383 0.0000e+00
      1.235     -0.030     8.1818    119.682     41.649  40.727703    13.6500      8.925   -47.2682 3.3067e+01     6.8465      1.210      1.755    23.0810 0.0000e+00
      1.243     -0.006     8.5940    125.334     41.556  40.769926    13.5660      8.929   -43.7349 3.2836e+01     6.8687      1.222      1.773    23.2344 0.0000e+00
      1.247      0.008     9.0937    130.535     41.507  40.809326    13.2904      8.934   -40.2679 3.2831e+01     6.8891      1.226      1.778    23.4183 0.0000e+00
      1.247      0.012     9.6331    135.166     41.396  40.759962    12.8149      8.938   -36.7539 3.2780e+01     6.9561      1.222      1.773    23.6725 0.0000e+00
      1.247      0.012    10.1035    138.970     41.287  40.680872    12.5689      8.942   -33.6830 3.2525e+01     7.0294      1.222      1.772    23.9172 0.0000e+00
      1.250      0.006    10.5456    141.670     41.285  40.678137    12.5643      8.945   -31.3590 3.2315e+01     7.0923      1.227      1.778    24.0691 0.0000e+00
      1.255     -0.010    10.9724    143.378     41.408  40.790357    12.5922      8.949   -29.2189 3.2221e+01     7.1025      1.230      1.785    24.1584 0.0000e+00
      1.261     -0.038    11.3449    144.348     41.569  40.958801    12.6318      8.953   -26.9084 3.2086e+01     7.0503      1.236      1.793    24.2419 0.0000e+00
      1.262     -0.075    11.6764    144.775     41.703  41.128166    12.6430      8.959   -24.9322 3.2339e+01     7.0415      1.245      1.806    24.2752 0.0000e+00
      1.245     -0.117    11.8929    144.812     41.901  41.378476    12.6026      8.968   -23.7374 3.3639e+01     7.0982      1.234      1.789    24.2633 0.0000e+00
      1.200     -0.157    12.0353    144.589     42.219  41.764037    12.1939      8.978   -22.4423 3.5815e+01     7.1562      1.182      1.714    24.2375 0.0000e+00
      1.139     -0.184    12.1104    144.410     42.474  42.108942    11.4297      8.990   -20.2865 3.8233e+01     7.1269      1.117      1.619    24.2454 0.0000e+00
      1.076     -0.192    12.1264    144.605     42.578  42.311972    10.9867      9.003   -18.0635 4.1074e+01     7.0515      1.057      1.533    24.2989 0.0000e+00
      1.013     -0.178    12.1174    145.395     42.815  42.632279    10.8500      9.018   -15.9548 4.4310e+01     7.0312      0.991      1.438    24.3644 0.0000e+00
      0.959     -0.148    12.0671    146.860     43.170  43.062213     9.9349      9.034   -13.7197 4.6681e+01     7.2231      0.931      1.351    24.4432 0.0000e+00
      0.928     -0.110    12.0180    148.962     43.342  43.321284     8.2703      9.051   -11.6875 4.7950e+01     7.6287      0.903      1.310    24.5573 0.0000e+00
      0.916     -0.072    11.9969    151.672     43.410  43.479839     7.3612      9.069    -9.8823 4.8975e+01     7.8366      0.896      1.300    24.6941 0.0000e+00
      0.911     -0.038    12.0388    154.925     43.501  43.646503     7.2662      9.086    -8.1538 4.9906e+01     7.7887      0.893      1.295    24.7868 0.0000e+00
      0.907     -0.013    12.1482    158.553     43.610  43.813153     7.2292      9.102    -6.5340 5.0577e+01     7.7670      0.889      1.290    24.8588 0.0000e+00
      0.907      0.002    12.2957    162.165     43.657  43.908014     7.0217      9.117    -4.9245 5.0989e+01     7.9162      0.888      1.287    24.9694 0.0000e+00
      0.911      0.010    12.4967    165.301     43.617  43.904898     6.6475      9.130    -3.1484 5.1018e+01     8.1587      0.893      1.295    25.0818 0.0000e+00
      0.918      0.011    12.7477    167.837     43.590  43.902489     6.4412      9.142    -1.4059 5.0625e+01     8.2389      0.901      1.307    25.1687 0.0000e+00
      0.923      0.004    13.0425    169.853     43.551  43.878921     6.4097      9.153     0.1394 5.0064e+01     8.2034      0.906      1.314    25.2296 0.0000e+00
      0.927     -0.015    13.3467    171.377     43.538  43.873866     6.3415      9.164     1.5984 4.9464e+01     8.2066      0.910      1.319    25.2829 0.0000e+00
      0.928     -0.045    13.5924    172.358     43.633  43.968328     6.2406      9.177     2.8987 4.9199e+01     8.2436      0.912      1.323    25.3306 0.0000e+00
      0.922     -0.080    13.7898    172.730     43.734  44.068935     6.1969      9.192     4.1599 5.0184e+01     8.3092      0.910      1.320    25.3562 0.0000e+00
      0.898     -0.110    13.9515    172.597     43.865  44.201650     6.1956      9.209     5.4901 5.3062e+01     8.3169      0.889      1.289    25.3723 0.0000e+00
      0.855     -0.128    14.0737    172.279     44.087  44.430423     6.2420      9.229     6.6774 5.7402e+01     8.2679      0.842      1.221    25.3848 0.0000e+00
      0.800     -0.131    14.1607    172.129     44.314  44.676838     6.3419      9.249     7.8474 6.2332e+01     8.2636      0.784      1.137    25.3782 0.0000e+00
      0.749     -0.118    14.1889    172.287     44.504  44.895913     6.3964      9.267     9.1399 6.6179e+01     8.2654      0.728      1.056    25.3746 0.0000e+00
      0.717     -0.092    14.1672    172.753     44.625  45.048004     6.3934      9.284    10.5172 6.7683e+01     8.2898      0.694      1.007    25.3775 0.0000e+00
      0.705     -0.058    14.1286    173.606     44.730  45.182777     6.2383      9.302    11.7662 6.8150e+01     8.4210      0.688      0.998    25.3758 0.0000e+00
      0.705     -0.027    14.1071    174.921     44.901  45.382872     5.9360      9.321    12.7980 6.9010e+01     8.5875      0.690      1.001    25.3982 0.0000e+00
      0.709     -0.005    14.1148    176.663     45.115  45.626495     5.7679      9.338    13.8730 7.0109e+01     8.6642      0.695      1.008    25.4333 0.0000e+00
      0.714      0.006    14.1387    178.661     45.302  45.843186     5.7619      9.357    14.9553 7.1531e+01     8.6989      0.701      1.017    25.4690 0.0000e+00
      0.718      0.009    14.1977    180.658     45.404  45.971547     5.7890      9.377    15.9889 7.3645e+01     8.7004      0.705      1.023    25.5022 0.0000e+00
      0.720      0.008    14.2995    182.528     45.321  45.908926     5.8128      9.397    17.0781 7.5935e+01     8.5790      0.706      1.025    25.5289 0.0000e+00
      0.720      0.006    14.4378    184.252     44.999  45.593908     5.8155      9.414    18.1446 7.8238e+01     8.4606      0.706      1.025    25.5592 0.0000e+00
      0.721      0.003    14.6035    185.773     44.691  45.273223     5.8131      9.432    19.1614 8.0333e+01     8.4310      0.707      1.025    25.5922 0.0000e+00
      0.722     -0.002    14.7610    186.908     44.589  45.142036     5.8175      9.449    20.1661 8.1931e+01     8.4260      0.707      1.026    25.6205 0.0000e+00
      0.723     -0.013    14.9068    187.358     44.562  45.086834     5.8608      9.464    21.0002 8.2847e+01     8.4690      0.709      1.028    25.6445 0.0000e+00
      0.723     -0.030    15.0430    186.953     44.607  45.113554     5.9206      9.479    21.6753 8.3310e+01     8.5063      0.710      1.030    25.6653 0.0000e+00
      0.721     -0.053    15.1746    185.885     44.837  45.338123     5.9250      9.493    22.4775 8.4419e+01     8.4664      0.711      1.031    25.6546 0.0000e+00
      0.708     -0.077    15.2905    184.550     45.064  45.580307     5.9136      9.506    23.4717 8.6293e+01     8.4316      0.699      1.014    25.6112 0.0000e+00
      0.681     -0.096    15.3433    183.259     45.084  45.629597     5.9247      9.520    24.4908 8.8794e+01     8.4606      0.671      0.974    25.5775 0.0000e+00
      0.643     -0.104    15.3094    182.323     45.048  45.616742     5.9253      9.530    25.5073 9.1841e+01     8.5106      0.633      0.918    25.5594 0.0000e+00
      0.603     -0.099    15.2097    181.944     45.099  45.678836     5.9052      9.537    26.7274 9.4392e+01     8.4885      0.589      0.854    25.5436 0.0000e+00
      0.569     -0.083    15.0924    182.040     45.155  45.745578     5.8811      9.542    27.9715 9.5347e+01     8.4320      0.551      0.800    25.5578 0.0000e+00
      0.549     -0.058    14.9635    182.466     45.184  45.788925     5.8007      9.548    29.1929 9.5498e+01     8.5460      0.533      0.774    25.6040 0.0000e+00
      0.544     -0.032    14.8697    183.108     45.265  45.885569     5.6487      9.555    30.4815 9.6185e+01     8.8073      0.531      0.771    25.6333 0.0000e+00
      0.548     -0.008    14.8452    183.840     45.386  46.025383     5.5587      9.560    31.4206 9.6685e+01     8.9620      0.537      0.778    25.6368 0.0000e+00
      0.555      0.011    14.8536    184.512     45.485  46.146336     5.5356      9.564    32.2011 9.7489e+01     8.9479      0.546      0.792    25.6446 0.0000e+00
      0.560      0.024    14.8871    185.073     45.520  46.205374     5.4940      9.569    33.2086 9.9545e+01     8.8745      0.551      0.799    25.6635 0.0000e+00
      0.563      0.031    14.9377    185.564     45.520  46.231384     5.4468      9.574    34.3094 1.0124e+02     8.8603      0.550      0.797    25.6784 0.0000e+00
      0.569      0.032    14.9988    185.994     45.537  46.270411     5.4311      9.579    35.2727 1.0114e+02     8.9129      0.555      0.806    25.6971 0.0000e+00
      0.584      0.025    15.0489    186.354     45.479  46.232906     5.4376      9.584    35.9930 1.0056e+02     8.9640      0.571      0.829    25.7186 0.0000e+00
      0.599      0.007    15.0841    186.594     45.327  46.095369     5.3837      9.588    36.5665 1.0036e+02     9.0692      0.590      0.857    25.7450 0.0000e+00
      0.608     -0.025    15.1154    186.576     45.178  45.940597     5.2709      9.598    37.0436 9.9564e+01     9.2282      0.601      0.871    25.7808 0.0000e+00
      0.606     -0.066    15.1458    186.196     45.088  45.821631     5.2058      9.612    37.2881 9.9831e+01     9.3145      0.599      0.870    25.7966 0.0000e+00
      0.587     -0.110    15.1693    185.526     45.099  45.799570     5.1958      9.627    37.1136 1.0288e+02     9.3618      0.584      0.848    25.8200 0.0000e+00
      0.544     -0.147    15.1844    184.750     45.250  45.927735     5.2003      9.645    36.6537 1.0683e+02     9.4244      0.540      0.783    25.8529 0.0000e+00
      0.485     -0.167    15.1899    184.136     45.550  46.228570     5.2263      9.665    36.2024 1.1099e+02     9.4223      0.475      0.689    25.8475 0.0000e+00
      0.424     -0.167    15.1647    183.956     45.929  46.643746     5.2690      9.686    35.9581 1.1541e+02     9.3698      0.412      0.598    25.8104 0.0000e+00
      0.372     -0.149    15.1180    184.275     46.221  47.011741     5.2916      9.706    35.9366 1.1690e+02     9.3360      0.360      0.522    25.7674 0.0000e+00
      0.334     -0.117    15.0553    184.879     46.301  47.186485     5.2835      9.725    36.0294 1.1435e+02     9.3898      0.321      0.465    25.7350 0.0000e+00
      0.312     -0.078    14.9990    185.485     46.205  47.169608     5.1300      9.740    36.3064 1.0952e+02     9.7122      0.302      0.438    25.7233 0.0000e+00
      0.304     -0.042    14.9724    185.883     46.183  47.188720     4.8337      9.752    36.8758 1.0350e+02    10.1937      0.297      0.431    25.7561 0.0000e+00
      0.304     -0.014    14.9842    185.946     46.513  47.544599     4.6721      9.762    37.7518 9.7721e+01    10.3966      0.296      0.430    25.8388 0.0000e+00
      0.309      0.003    15.0114    185.778     47.071  48.171259     4.6408      9.770    38.7241 9.1908e+01    10.3892      0.302      0.436    25.9545 0.0000e+00
      0.315      0.012    15.0366    185.651     47.427  48.670964     4.4969      9.776    39.5117 8.6151e+01    10.7536      0.309      0.448    26.0564 0.0000e+00
      0.320      0.015    15.0641    185.651     47.462  48.888595     4.2715      9.783    40.2188 8.1939e+01    11.4542      0.314      0.457    26.0979 0.0000e+00
      0.324      0.017    15.0673    185.370     47.377  48.961719     4.1635      9.793    40.8218 7.8708e+01    11.8228      0.318      0.462    26.0893 0.0000e+00
      0.327      0.018    15.0355    184.250     47.295  48.983934     4.1568      9.805    41.2098 7.6409e+01    11.8290      0.320      0.465    26.1215 0.0000e+00
      0.329      0.017    14.9741    182.239     47.223  48.966890     4.1648      9.818    41.6401 7.5050e+01    11.7004      0.322      0.467    26.2851 0.0000e+00
      0.334      0.015    14.9279    179.864     47.177  48.946198     4.1859      9.832    42.1536 7.4062e+01    11.4971      0.327      0.473    26.5091 0.0000e+00
      0.342      0.010    14.8793    177.670     47.146  48.924263     4.1950      9.845    42.5999 7.2651e+01    11.3856      0.335      0.487    26.6893 0.0000e+00
      0.349      0.005    14.7622    175.871     47.114  48.892155     4.1929      9.859    42.9926 6.9872e+01    11.3440      0.344      0.500    26.7980 0.0000e+00
      0.349      0.000    14.5676    174.498     47.099  48.875435     4.1933      9.873    43.3732 6.6796e+01    11.2665      0.344      0.501    26.8516 0.0000e+00
      0.343     -0.004    14.3535    173.573     47.134  48.912575     4.1826      9.886    43.7606 6.4340e+01    11.1324      0.337      0.488    26.8740 0.0000e+00
      0.337     -0.007    14.1734    173.080     47.239  49.023762     4.1713      9.901    44.2347 6.2537e+01    11.0880      0.330      0.478    26.8824 0.0000e+00
      0.334     -0.007    14.0297    172.921     47.339  49.140451     4.1735      9.914    44.8047 6.1903e+01    11.1064      0.327      0.473    26.8817 0.0000e+00
      0.334     -0.005    13.9210    173.002     47.353  49.180649     4.1678      9.924    45.3167 6.1794e+01    11.1497      0.325      0.472    26.8776 0.0000e+00
      0.336     -0.002    13.8444    173.156     47.218  49.065394     4.1513      9.932    45.7801 6.1741e+01    11.2695      0.329      0.478    26.8817 0.0000e+00
      0.337      0.000    13.8114    173.141     46.991  48.826292     4.1414      9.939    46.2768 6.1733e+01    11.2906      0.332      0.481    26.8778 0.0000e+00
      0.336      0.002    13.7965    172.854     46.857  48.638811     4.1316      9.948    46.8488 6.1128e+01    11.2344      0.331      0.480    26.8900 0.0000e+00
      0.335      0.003    13.7983    172.472     46.875  48.576208     4.1157      9.957    47.4480 6.0509e+01    11.2403      0.328      0.477    26.9244 0.0000e+00
      0.334      0.003    13.8122    172.462     46.953  48.577146     4.0909      9.966    47.8421 6.0062e+01    11.2929      0.327      0.474    26.9590 0.0000e+00
      0.336     -0.002    13.8108    173.209     47.008  48.586536     4.0569      9.975    47.9149 5.9635e+01    11.3236      0.329      0.477    26.9668 0.0000e+00
      0.341     -0.013    13.7999    174.646     47.058  48.626182     4.0284      9.984    47.6401 5.9479e+01    11.3043      0.335      0.486    26.9090 0.0000e+00
      0.344     -0.033    13.7776    176.403     47.145  48.739038     4.0041      9.990    47.4443 5.9265e+01    11.2987      0.340      0.494    26.8079 0.0000e+00
      0.340     -0.055    13.7866    178.096     47.222  48.871786     3.8966      9.995    47.7853 5.9125e+01    11.4264      0.338      0.490    26.7093 0.0000e+00
      0.322     -0.071    13.8638    179.358     47.245  48.961523     3.7191     10.000    48.2352 5.8542e+01    11.6524      0.321      0.466    26.6572 0.0000e+00
      0.290     -0.076    13.9937    179.863     47.231  48.998785     3.6390     10.008    48.3232 5.7392e+01    11.7770      0.291      0.422    26.6489 0.0000e+00
      0.249     -0.071    14.1400    179.489     47.212  49.004952     3.6275     10.020    48.2468 5.7277e+01    11.7714      0.240      0.349    26.6691 0.0000e+00
      0.220     -0.058    14.2674    178.375     47.236  49.036127     3.5795     10.035    48.2581 5.8456e+01    11.7901      0.203      0.294    26.7366 0.0000e+00
      0.216     -0.040    14.3600    176.934     47.248  49.058264     3.5168     10.051    48.2882 5.9587e+01    11.9005      0.207      0.301    26.8160 0.0000e+00
      0.225     -0.020    14.3871    175.639     47.259  49.082159     3.4939     10.068    48.3525 6.0109e+01    12.0132      0.222      0.322    26.8767 0.0000e+00
      0.230     -0.004    14.3472    174.619     47.361  49.198072     3.5100     10.083    48.5191 5.9798e+01    12.0933      0.229      0.332    26.9022 0.0000e+00
      0.229      0.004    14.2494    173.842     47.518  49.380435     3.4965     10.098    48.7543 5.8527e+01    12.1856      0.227      0.329    26.8941 0.0000e+00
      0.224      0.006    14.1110    173.355     47.600  49.509368     3.4473     10.110    49.0462 5.7412e+01    12.2753      0.219      0.317    26.9069 0.0000e+00
      0.222      0.007    14.0031    173.155     47.582  49.550723     3.4140     10.118    49.6386 5.7034e+01    12.2901      0.215      0.313    26.9271 0.0000e+00
      0.225      0.013    13.9245    173.111     47.607  49.626591     3.4179     10.122    50.4100 5.7303e+01    12.2971      0.219      0.318    26.9307 0.0000e+00
      0.231      0.020    13.8551    172.975     47.674  49.728342     3.4779     10.123    50.7151 5.8002e+01    12.3586      0.227      0.329    26.9411 0.0000e+00
      0.236      0.017    13.8058    172.576     47.626  49.701670     3.5731     10.123    50.6615 5.8609e+01    12.3854      0.232      0.336    26.9901 0.0000e+00
      0.245     -0.006    13.7718    171.942     47.471  49.558100     3.6206     10.125    51.2243 5.9647e+01    12.3477      0.236      0.342    27.0691 0.0000e+00
      0.259     -0.050    13.7652    171.250     47.355  49.452797     3.6111     10.130    58.5517 6.1154e+01    12.2778      0.256      0.370    27.1234 0.0000e+00
      0.265     -0.102    13.7527    170.656     47.333  49.444356     3.5831     10.141    85.7400 6.3211e+01    12.2240      0.274      0.397    27.1492 0.0000e+00
      0.237     -0.150    13.7141    170.249     47.395  49.519566     3.4648     10.156   111.9435 6.4320e+01    12.2438      0.249      0.361    27.1738 0.0000e+00
      0.167     -0.181    13.6528    170.082     47.522  49.663766     3.2714     10.169   103.5783 6.4045e+01    12.3122      0.171      0.248    27.1936 0.0000e+00
      0.078     -0.187    13.5883    170.030     47.615  49.791059     3.1674     10.173    80.0148 6.6033e+01    12.2999      0.070      0.103    27.2082 0.0000e+00
      0.003     -0.165    13.5381    169.985     47.628  49.852346     3.1399     10.173    65.7978 6.9375e+01    12.2319     -0.010     -0.015    27.2260 0.0000e+00
     -0.040     -0.118    13.4963    169.875     47.626  49.896912     3.0218     10.175    59.7088 6.8476e+01    12.3440     -0.052     -0.074    27.2355 0.0000e+00
     -0.051     -0.060    13.4910    169.549     47.646  49.949019     2.8123     10.182    57.7586 6.3009e+01    12.5960     -0.058     -0.082    27.2387 0.0000e+00
     -0.040     -0.015    13.4823    169.047     47.651  49.974478     2.6966     10.189    56.5871 5.7709e+01    12.7160     -0.041     -0.059    27.2687 0.0000e+00
     -0.020      0.000    13.4616    168.489     47.612  49.950793     2.6961     10.197    55.5242 5.3853e+01    12.7366     -0.018     -0.026    27.3314 0.0000e+00
     -0.002     -0.019    13.4504    167.869     47.563  49.916634     2.7567     10.205    54.7156 5.1491e+01    12.6742      0.001      0.001    27.3849 0.0000e+00
      0.006     -0.065    13.4143    167.290     47.570  49.942449     2.8720     10.213    54.3821 5.5491e+01    12.5077      0.013      0.019    27.4129 0.0000e+00
     -0.009     -0.128    13.3629    166.841     47.610  50.008983     2.9412     10.218    55.1048 7.0499e+01    12.4316      0.004      0.005    27.4319 0.0000e+00
     -0.057     -0.198    13.3205    166.437     47.588  50.022711     2.9442     10.223    68.4445 1.3422e+02    12.4714     -0.046     -0.068    27.4494 0.0000e+00
     -0.128     -0.263    13.2620    165.990     47.572  50.045002     2.8592     10.232    81.1919 6.9236e+02    12.5113     -0.125     -0.181    27.4663 0.0000e+00
     -0.211     -0.307    13.2063    165.353     47.638  50.151585     2.6780     10.243    68.7303 1.6330e+03    12.5043     -0.202     -0.293    27.4860 0.0000e+00
     -0.307     -0.318    13.1730    164.294     47.668  50.232068     2.5591     10.254    54.6609 1.6485e+03    12.4897     -0.296     -0.429    27.5066 0.0000e+00
     -0.412     -0.294    13.1307    162.661     47.577  50.192768     2.5377     10.264    52.6142 9.9883e+02    12.5048     -0.408     -0.592    27.5491 0.0000e+00
     -0.507     -0.246    13.0885    160.512     47.406  50.057464     2.5023     10.275    51.6416 1.3048e+03    12.8580     -0.507     -0.736    27.5982 0.0000e+00
     -0.573     -0.188    13.0390    157.938     47.266  49.929558     2.4392     10.285    51.6772 2.2367e+03    13.5483     -0.577     -0.838    27.6256 0.0000e+00
     -0.600     -0.133    12.9500    155.059     47.137  49.789176     2.4071     10.293    53.1303 2.6637e+03    13.9167     -0.597     -0.867    27.6765 0.0000e+00
     -0.600     -0.093    12.8018    152.334     46.466  49.058526     2.3974     10.303    53.4658 2.6853e+03    13.6572     -0.589     -0.854    27.7492 0.0000e+00
     -0.593     -0.071    12.6163    149.977     39.784  41.984202     2.3721     10.317    50.7434 2.6443e+03    10.5475     -0.581     -0.841    27.7982 0.0000e+00
     -0.596     -0.063    12.4143    147.766     25.059  26.434929     2.2508     10.332    48.4344 2.6051e+03     4.4315     -0.572     -0.829    27.8214 0.0000e+00
     -0.625     -0.063    12.1693    146.171     12.618  13.303478     2.0461     10.347    48.2638 2.6075e+03     0.3077     -0.605     -0.877    27.8151 0.0000e+00
     -0.667     -0.065    11.9497    146.287      8.033   8.460286     1.9281     10.365    48.3358 2.6115e+03    -0.6438     -0.666     -0.966    27.7825 0.0000e+00
     -0.693     -0.060    11.7952    148.372      7.664   8.059212     1.8643     10.382    48.7033 2.5886e+03    -0.8218     -0.687     -0.996    27.7506 0.0000e+00
     -0.699     -0.046    11.6110    151.329      9.077   9.531344     1.3497     10.396    50.5553 2.4521e+03    -1.6740     -0.684     -0.993    27.7290 0.0000e+00
     -0.699     -0.026    11.4469    154.000     18.040  18.909761     0.4080     10.408    52.3162 1.7909e+03    -3.1253     -0.686     -0.995    27.7063 0.0000e+00
     -0.699     -0.009    11.4533    156.002     34.455  36.089561    -0.1073     10.419    52.2697 7.5972e+02    -2.1098     -0.685     -0.993    27.6537 0.0000e+00
     -0.699     -0.001    11.6780    157.112     44.053  46.134794    -0.1034     10.426    51.9724 2.1664e+02    19.4167     -0.685     -0.994    27.5744 0.0000e+00
     -0.699 -9.417e-10    11.9665    156.917     44.752  46.873782     0.5133     10.431    51.7334 1.5532e+02   257.9360     -0.685     -0.994    27.5086 0.0000e+00
     -0.699 -1.036e-08    12.1884    154.218     38.372  40.199939     1.6556     10.436    51.4439 1.4745e+02   695.0925     -0.685     -0.994    27.4452 0.0000e+00
     -0.699 -1.140e-07    12.3718    147.093     24.422  25.587046     2.2726     10.440    51.9138 1.9103e+02   931.6411     -0.686     -0.995    27.3708 0.0000e+00
     -0.699 -1.140e-07    12.4729    135.363     12.697  13.299976     2.2791     10.441    52.1667 7.2283e+02   931.5833     -0.686     -0.995    27.3423 0.0000e+00
     -0.699 -1.036e-08    12.4746    121.367      7.583   7.939916     1.7597     10.439    51.6623 1.2444e+03   694.1542     -0.686     -0.995    27.3658 0.0000e+00
     -0.699 -9.420e-10    12.3396    107.508      6.063   6.345540     0.8125     10.438    50.9777 9.1368e+02   255.4101     -0.686     -0.995    27.3812 0.0000e+00
     -0.699 -8.565e-11    11.7935     95.157      6.096   6.378172     0.3063     10.440    50.3419 8.1031e+02    16.0459     -0.686     -0.995    27.3792 0.0000e+00
     -0.700 -7.775e-12    10.7695     85.138      6.091   6.370443     0.2418     10.442    50.2555 1.5194e+03    -5.5423     -0.686     -0.995    27.3676 0.0000e+00
     -0.700 -6.024e-13     9.5978     77.859      5.495   5.745245     0.1502     10.442    49.3306 1.8363e+03    -5.3383     -0.686     -0.995    27.3454 0.0000e+00
     -0.699 1.0923e-12     8.4744     73.404      4.871   5.090999     0.0303     10.437    47.6769 1.3763e+03    -1.4356     -0.685     -0.994    27.3234 0.0000e+00
     -0.699 1.2718e-11     7.4724     71.595      4.833   5.048749    -0.0337     10.424    47.9851 8.7062e+02     0.7568     -0.685     -0.994    27.3067 0.0000e+00
     -0.699 1.3995e-10     6.6714     71.789      5.136   5.361129    -0.0580     10.411    49.1858 4.6161e+02     0.9130     -0.685     -0.994    27.2924 0.0000e+00
     -0.699 1.5395e-09     6.0944     72.998      5.403   5.637000    -0.0721     10.402    49.8912 2.0839e+02     0.9995     -0.685     -0.994    27.2776 0.0000e+00
     -0.699 1.6934e-08     5.7455     74.473      5.488   5.723464    -0.0212     10.397    50.3195 1.8839e+02     2.1771     -0.685     -0.994    27.2610 0.0000e+00
     -0.699 1.8627e-07     5.6218     75.851      5.234   5.456237     0.0742     10.396    50.4916 1.8963e+02     4.3575     -0.685     -0.993    27.2311 0.0000e+00
     -0.699 1.8627e-07     5.6764     77.008      4.923   5.130154     0.1158     10.396    50.5951 1.8953e+02     5.4998     -0.685     -0.994    27.1908 0.0000e+00
     -0.699 1.6934e-08     5.7948     77.966      4.873   5.075157     0.1079     10.397    50.7115 1.8864e+02     5.5705     -0.685     -0.994    27.1603 0.0000e+00
     -0.699 1.5395e-09     5.9229     78.760      4.846   5.044696     0.0790     10.398    50.8664 1.8820e+02     5.7933     -0.686     -0.995    27.1377 0.0000e+00
     -0.699 1.3995e-10     6.0394     79.391      4.637   4.825198     0.0315     10.399    51.0908 1.8849e+02     6.1438     -0.685     -0.994    27.1111 0.0000e+00
     -0.699 1.2723e-11     6.1315     79.863      4.338   4.511808    -0.0004     10.401    51.5322 1.8920e+02     6.2893     -0.685     -0.994    27.0825 0.0000e+00
     -0.698 1.1566e-12     6.2103     80.234      4.071   4.232991    -0.0059     10.403    51.9874 1.8960e+02     6.3573     -0.685     -0.993    27.0591 0.0000e+00
     -0.698 1.0515e-13     6.2750     80.561      3.898   4.051380     0.0060     10.404    52.2928 1.8976e+02     6.5561     -0.685     -0.993    27.0389 0.0000e+00
     -0.698 9.5590e-15     6.3289     80.854      3.754   3.899679     0.0106     10.405    52.4716 1.8957e+02     6.7465     -0.685     -0.994    27.0191 0.0000e+00
     -0.698 8.6900e-16     6.3657     81.091      3.591   3.729101    -0.0008     10.405    52.5997 1.8873e+02     6.7805     -0.685     -0.993    27.0002 0.0000e+00
     -0.698 7.9000e-17     6.3960     81.262      3.502   3.635975     0.0013     10.406    52.8101 1.8621e+02     6.7615     -0.685     -0.994    26.9807 0.0000e+00
     -0.698 7.1820e-18     6.4240     81.382      3.466   3.597215     0.0029     10.407    52.9500 1.8184e+02     6.7225     -0.685     -0.993    26.9615 0.0000e+00
     -0.698 6.5290e-19     6.4504     81.465      3.387   3.513842    -0.0142     10.408    53.0014 1.7690e+02     6.6166     -0.685     -0.994    26.9426 0.0000e+00
     -0.698 5.9355e-20     6.4723     81.559      3.267   3.388087    -0.0231     10.410    53.1726 1.7158e+02     6.5397     -0.684     -0.993    26.9236 0.0000e+00
     -0.698 5.3960e-21     6.4865     81.659      3.103   3.216956    -0.0210     10.411    53.3846 1.6804e+02     6.5439     -0.685     -0.993    26.9050 0.0000e+00
     -0.698 4.9052e-22     6.4997     81.733      2.922   3.028357    -0.0145     10.411    53.5857 1.6964e+02     6.5313     -0.685     -0.994    26.8863 0.0000e+00
     -0.698 4.4593e-23     6.5050     81.811      2.782   2.881426    -0.0021     10.412    53.8838 1.7443e+02     6.4217     -0.685     -0.993    26.8678 0.0000e+00
     -0.698 4.0539e-24     6.5155     81.909      2.737   2.834019     0.0037     10.413    54.2363 1.7846e+02     6.3111     -0.685     -0.993    26.8497 0.0000e+00
     -0.698 3.6854e-25     6.5279     82.007      2.800   2.898576     0.0055     10.414    54.5777 1.8107e+02     6.3214     -0.685     -0.993    26.8310 0.0000e+00
     -0.698 3.3503e-26     6.5337     82.095      2.865   2.965177     0.0115     10.414    54.8282 1.8222e+02     6.4099     -0.684     -0.992    26.8124 0.0000e+00
     -0.698 3.0458e-27     6.5416     82.185      2.844   2.942487    -0.0066     10.414    54.8567 1.8244e+02     6.3900     -0.685     -0.993    26.7945 0.0000e+00
     -0.698 2.7689e-28     6.5528     82.273      2.782   2.877618    -0.0470     10.414    54.8360 1.8577e+02     6.3200     -0.685     -0.993    26.7769 0.0000e+00
     -0.698 2.5172e-29     6.5627     82.343      2.722   2.814310    -0.0606     10.415    55.0941 2.3193e+02     6.3844     -0.685     -0.993    26.7594 0.0000e+00
     -0.698 2.2883e-30     6.5713     82.416      2.658   2.747125    -0.0543     10.417    55.6540 7.5881e+02     6.4160     -0.685     -0.994    26.7424 0.0000e+00
     -0.698 2.0803e-31     6.5804     82.522      2.612   2.698737    -0.0632     10.417    56.2713 1.8084e+03     6.2236     -0.685     -0.993    26.7254 0.0000e+00
     -0.698 1.8912e-32     6.5907     82.644      2.587   2.672665    -0.0674     10.417    56.7075 2.5062e+03     6.0053     -0.684     -0.992    26.7084 0.0000e+00
     -0.698 1.7192e-33     6.5976     82.745      2.600   2.685265    -0.0550     10.417    57.1425 2.6358e+03     5.9293     -0.684     -0.992    26.6919 0.0000e+00
     -0.698 1.5629e-34     6.6035     82.818      2.639   2.724397    -0.0549     10.418    57.9169 2.6067e+03     5.8857     -0.685     -0.993    26.6755 0.0000e+00
     -0.698 1.4209e-35     6.6151     82.899      2.619   2.702398    -0.0661     10.418    58.7575 2.6029e+03     5.6483     -0.685     -0.993    26.6592 0.0000e+00
     -0.698 1.2918e-36     6.6277     82.990      2.529   2.609313    -0.0665     10.418    59.2179 2.6367e+03     5.2448     -0.684     -0.992    26.6432 0.0000e+00
     -0.698 1.1840e-37     6.6390     83.071      2.472   2.549069    -0.0513     10.418    59.4401 2.2354e+03     5.0382     -0.685     -0.993    26.6269 0.0000e+00
     -0.698 2.1350e-38     6.6438     83.111      2.467   2.544087    -0.0404     10.418    59.5510 1.8209e+03     5.0296     -0.685     -0.993    26.6114 0.0000e+00
     -0.698 -9.990e-29     6.6533 -9.990e-29 -9.990e-29 -9.990e-29 -9.990e-29 -9.990e-29 -9.990e-29 2.2381e+03 -9.990e-29     -0.685     -0.993    26.5949 0.0000e+00
     -0.698 -9.990e-29     6.6630 -9.990e-29 -9.990e-29 -9.990e-29 -9.990e-29 -9.990e-29 -9.990e-29 2.6974e+03 -9.990e-29     -0.685     -0.993    26.5802 0.0000e+00
     -0.698 -9.990e-29     6.6714 -9.990e-29 -9.990e-29 -9.990e-29 -9.990e-29 -9.990e-29 -9.990e-29 2.7427e+03 -9.990e-29     -0.685     -0.993    26.5635 0.0000e+00
     -0.698 -9.990e-29     6.6795 -9.990e-29 -9.990e-29 -9.990e-29 -9.990e-29 -9.990e-29 -9.990e-29 2.7480e+03 -9.990e-29     -0.685     -0.993    26.5518 0.0000e+00
