* Sea-Bird SBE19plus  Data File:
* FileName = C:\DATA\062419_CTD_FCR_50_0002.hex
* Software version 2.8.0.119 SB_Terminal.dll
* Temperature SN = 7809
* Conductivity SN = 7809
* System UpLoad Time = Jun 24 2019 09:59:16
* <ApplicationData>
* <Seaterm232>
* <SoftwareVersion>2.8.0.119</SoftwareVersion>
* <BuildDate>07-Nov-2018</BuildDate>
* </Seaterm232>
* </ApplicationData>
* cast   2 24 Jun 2019 09:48:11 samples 343 to 1329, avg = 1, stop = mag switch
# nquan = 16
# nvalues = 726                         
# units = specified
# name 0 = depFM: Depth [fresh water, m]
# name 1 = dz/dtM: Descent Rate [m/s]
# name 2 = sbeox0Mg/L: Oxygen, SBE 43 [mg/l]
# name 3 = sbeox0PS: Oxygen, SBE 43 [% saturation]
# name 4 = specc: Specific Conductance [uS/cm]
# name 5 = c0uS/cm: Conductivity [uS/cm]
# name 6 = flECO-AFL: Fluorescence, WET Labs ECO-AFL/FL [mg/m^3]
# name 7 = ph: pH
# name 8 = orp: Oxidation Reduction Potential [mV]
# name 9 = par/sat/log: PAR/Logarithmic, Satlantic
# name 10 = turbWETntu0: Turbidity, WET Labs ECO [NTU]
# name 11 = prdM: Pressure, Strain Gauge [db]
# name 12 = prdE: Pressure, Strain Gauge [psi]
# name 13 = tv290C: Temperature [ITS-90, deg C]
# name 14 = density00: Density [density, kg/m^3]
# name 15 = flag:  0.000e+00
# span 0 =     -0.612,      9.617       
# span 1 =     -0.220,      0.284       
# span 2 =    -0.4828,    11.2829       
# span 3 =     -4.278,    128.040       
# span 4 =      1.396,    141.564       
# span 5 =   1.371147,  99.248650       
# span 6 =    -2.2064,     4.1327       
# span 7 =      7.460,      9.256       
# span 8 = -1240.7455,   313.0036       
# span 9 = 1.2350e-01, 1.7977e+03       
# span 10 =    -1.1999,    50.1790      
# span 11 =     -0.601,      9.431      
# span 12 =     -0.871,     13.679      
# span 13 =     9.9632,    24.1013      
# span 14 =   997.2792,   999.7977      
# span 15 = 0.0000e+00, 0.0000e+00      
# interval = seconds: 0.25
# start_time = Jun 24 2019 09:48:11 [Instrument's time stamp, header]
# bad_flag = -9.990e-29
# <Sensors count="9" >
#   <sensor Channel="1" >
#     <!-- Count, Temperature -->
#     <TemperatureSensor SensorID="58" >
#       <SerialNumber>7809</SerialNumber>
#       <CalibrationDate>24-Mar-19</CalibrationDate>
#       <A0>1.21792325e-003</A0>
#       <A1>2.81669265e-004</A1>
#       <A2>-1.60333336e-006</A2>
#       <A3>1.98414625e-007</A3>
#       <Slope>1.00000000</Slope>
#       <Offset>0.0000</Offset>
#     </TemperatureSensor>
#   </sensor>
#   <sensor Channel="2" >
#     <!-- Frequency 0, Conductivity -->
#     <ConductivitySensor SensorID="3" >
#       <SerialNumber>7809</SerialNumber>
#       <CalibrationDate>24-Mar-19</CalibrationDate>
#       <UseG_J>1</UseG_J>
#       <!-- Cell const and series R are applicable only for wide range sensors. -->
#       <SeriesR>0.0000</SeriesR>
#       <CellConst>2000.0000</CellConst>
#       <ConductivityType>0</ConductivityType>
#       <Coefficients equation="0" >
#         <A>0.00000000e+000</A>
#         <B>0.00000000e+000</B>
#         <C>0.00000000e+000</C>
#         <D>0.00000000e+000</D>
#         <M>0.0</M>
#         <CPcor>-9.57000000e-008</CPcor>
#       </Coefficients>
#       <Coefficients equation="1" >
#         <G>-1.00589325e+000</G>
#         <H>1.26816302e-001</H>
#         <I>-1.51560448e-004</I>
#         <J>2.67137274e-005</J>
#         <CPcor>-9.57000000e-008</CPcor>
#         <CTcor>3.2500e-006</CTcor>
#         <!-- WBOTC not applicable unless ConductivityType = 1. -->
#         <WBOTC>0.00000000e+000</WBOTC>
#       </Coefficients>
#       <Slope>1.00000000</Slope>
#       <Offset>0.00000</Offset>
#     </ConductivitySensor>
#   </sensor>
#   <sensor Channel="3" >
#     <!-- Count, Pressure, Strain Gauge -->
#     <PressureSensor SensorID="46" >
#       <SerialNumber>7809</SerialNumber>
#       <CalibrationDate>11-Mar-19</CalibrationDate>
#       <PA0>4.56561833e-002</PA0>
#       <PA1>4.85095118e-004</PA1>
#       <PA2>-2.88327090e-012</PA2>
#       <PTEMPA0>-5.48784562e+001</PTEMPA0>
#       <PTEMPA1>5.53756816e+001</PTEMPA1>
#       <PTEMPA2>-5.86727098e-001</PTEMPA2>
#       <PTCA0>5.25246745e+005</PTCA0>
#       <PTCA1>1.22304214e+001</PTCA1>
#       <PTCA2>-3.56745036e-001</PTCA2>
#       <PTCB0>2.51668750e+001</PTCB0>
#       <PTCB1>3.75000000e-004</PTCB1>
#       <PTCB2>0.00000000e+000</PTCB2>
#       <Offset>0.000000</Offset>
#     </PressureSensor>
#   </sensor>
#   <sensor Channel="4" >
#     <!-- A/D voltage 0, Oxygen, SBE 43 -->
#     <OxygenSensor SensorID="38" >
#       <SerialNumber>0434</SerialNumber>
#       <CalibrationDate>13-Apr-19</CalibrationDate>
#       <Use2007Equation>1</Use2007Equation>
#       <CalibrationCoefficients equation="0" >
#         <!-- Coefficients for Owens-Millard equation. -->
#         <Boc>0.0000</Boc>
#         <Soc>0.0000e+000</Soc>
#         <offset>0.0000</offset>
#         <Pcor>0.00e+000</Pcor>
#         <Tcor>0.0000</Tcor>
#         <Tau>0.0</Tau>
#       </CalibrationCoefficients>
#       <CalibrationCoefficients equation="1" >
#         <!-- Coefficients for Sea-Bird equation - SBE calibration in 2007 and later. -->
#         <Soc>4.2007e-001</Soc>
#         <offset>-0.6109</offset>
#         <A>-4.3656e-003</A>
#         <B> 1.7017e-004</B>
#         <C>-2.5341e-006</C>
#         <D0> 2.5826e+000</D0>
#         <D1> 1.92634e-004</D1>
#         <D2>-4.64803e-002</D2>
#         <E> 3.6000e-002</E>
#         <Tau20> 1.1800</Tau20>
#         <H1>-3.3000e-002</H1>
#         <H2> 5.0000e+003</H2>
#         <H3> 1.4500e+003</H3>
#       </CalibrationCoefficients>
#     </OxygenSensor>
#   </sensor>
#   <sensor Channel="5" >
#     <!-- A/D voltage 1, PAR/Logarithmic, Satlantic -->
#     <PARLog_SatlanticSensor SensorID="76" >
#       <SerialNumber>1122</SerialNumber>
#       <CalibrationDate>08-May-2019</CalibrationDate>
#       <a0>9.7456e-001</a0>
#       <a1>8.1640e-001</a1>
#       <Im>1.3589e+000</Im>
#       <Multiplier>1.0000e+000</Multiplier>
#     </PARLog_SatlanticSensor>
#   </sensor>
#   <sensor Channel="6" >
#     <!-- A/D voltage 2, pH -->
#     <pH_Sensor SensorID="43" >
#       <SerialNumber>0363</SerialNumber>
#       <CalibrationDate>15-Apr-19</CalibrationDate>
#       <Slope>4.5952</Slope>
#       <Offset>2.5370</Offset>
#     </pH_Sensor>
#   </sensor>
#   <sensor Channel="7" >
#     <!-- A/D voltage 3, Oxidation Reduction Potential -->
#     <OxidationReductionPotentialSensor SensorID="41" >
#       <SerialNumber>0363</SerialNumber>
#       <CalibrationDate>15-Apr-19</CalibrationDate>
#       <B>2.499480</B>
#       <M>-0.496195</M>
#       <Offset>0.0</Offset>
#     </OxidationReductionPotentialSensor>
#   </sensor>
#   <sensor Channel="8" >
#     <!-- A/D voltage 4, Fluorometer, WET Labs ECO-AFL/FL -->
#     <FluoroWetlabECO_AFL_FL_Sensor SensorID="20" >
#       <SerialNumber>FLNTURT-2496</SerialNumber>
#       <CalibrationDate>08-May-2019</CalibrationDate>
#       <ScaleFactor>5.00000000e+001</ScaleFactor>
#       <!-- Dark output -->
#       <Vblank>0.0550</Vblank>
#     </FluoroWetlabECO_AFL_FL_Sensor>
#   </sensor>
#   <sensor Channel="9" >
#     <!-- A/D voltage 5, Turbidity Meter, WET Labs, ECO-NTU -->
#     <TurbidityMeter SensorID="67" >
#       <SerialNumber>FLNTURT-2496</SerialNumber>
#       <CalibrationDate>08-May-2019</CalibrationDate>
#       <ScaleFactor>189.000000</ScaleFactor>
#       <!-- Dark output -->
#       <DarkVoltage>0.071000</DarkVoltage>
#     </TurbidityMeter>
#   </sensor>
# </Sensors>
# datcnv_date = Jun 24 2019 10:00:29, 7.26.7.129 [datcnv_vars = 15]
# datcnv_in = C:\DATA\062419_CTD_FCR_50_0002.hex C:\DATA\SBE19plusV2_7809.xmlcon
# datcnv_skipover = 0
# datcnv_ox_hysteresis_correction = yes
# datcnv_ox_tau_correction = yes
# filter_date = Jun 24 2019 10:01:12, 7.26.7.129
# filter_in = C:\DATA\062419_CTD_FCR_50_0002.cnv
# filter_low_pass_tc_A = 0.030
# filter_low_pass_tc_B = 0.150
# filter_low_pass_A_vars = prdM prdE tv290C density00
# filter_low_pass_B_vars = depFM dz/dtM sbeox0Mg/L sbeox0PS specc c0uS/cm flECO-AFL ph orp par/sat/log turbWETntu0
# alignctd_date = Jun 24 2019 10:01:33, 7.26.7.129
# alignctd_in = C:\DATA\062419_CTD_FCR_50_0002.cnv
# alignctd_adv = dz/dtM 1.000, sbeox0Mg/L 1.000, sbeox0PS 1.000, specc 1.000, c0uS/cm 1.000, flECO-AFL 1.000, ph 1.000, orp 1.000, turbWETntu0 1.000                                                                                 
# file_type = ascii
*END*
     -0.612 8.6275e-20     6.8389     81.334      2.521   2.474145    -0.1247      7.660 -1240.7455 1.1805e+02    -0.5019     -0.600     -0.871    24.0563   997.2902 0.0000e+00
     -0.612 7.8435e-21     6.8414     81.365      2.636   2.587560    -0.1117      7.652 -1240.7455 1.2068e+02    -0.5472     -0.601     -0.871    24.0564   997.2901 0.0000e+00
     -0.612 7.1305e-22     6.8445     81.404      2.030   1.992152    -0.1044      7.641 -1240.7455 1.2558e+02    -0.5725     -0.600     -0.870    24.0563   997.2902 0.0000e+00
     -0.612 6.4820e-23     6.8476     81.444      1.513   1.484861    -0.1138      7.631 -1240.7455 1.3454e+02    -0.5463     -0.600     -0.871    24.0569   997.2900 0.0000e+00
     -0.612 5.8930e-24     6.8507     81.483      1.423   1.396443    -0.1216      7.621 -1240.7455 1.3913e+02    -0.4921     -0.600     -0.871    24.0578   997.2898 0.0000e+00
     -0.612 5.3570e-25     6.8541     81.525      1.457   1.429978    -0.1206      7.604 -1240.7455 1.3494e+02    -0.4748     -0.600     -0.871    24.0590   997.2897 0.0000e+00
     -0.612 4.8701e-26     6.8565     81.555      1.410   1.383456    -0.1285      7.589 -1240.7455 1.2970e+02    -0.5007     -0.600     -0.871    24.0604   997.2891 0.0000e+00
     -0.612 4.4323e-27     6.8571     81.565      1.431   1.404222    -0.1821      7.573 -1240.7455 1.2839e+02    -0.4448     -0.601     -0.871    24.0616   997.2888 0.0000e+00
     -0.612 4.5741e-28     6.8576     81.573      1.583   1.554356    -0.2657      7.551 -1240.7455 1.3344e+02    -0.3236     -0.600     -0.870    24.0627   997.2886 0.0000e+00
     -0.612 6.4071e-28     6.8596     81.598      1.645   1.614685    -0.3066      7.533 -1240.7455 1.4676e+02    -0.2806     -0.600     -0.870    24.0640   997.2883 0.0000e+00
     -0.612 6.6486e-27     6.8611     81.618      1.657   1.626770    -0.3039      7.527 -1240.7455 1.8726e+02    -0.2853     -0.600     -0.870    24.0652   997.2880 0.0000e+00
     -0.612 7.3099e-26     6.8607     81.614      1.603   1.573738    -0.2324      7.535 -1240.7455 5.0170e+02    -0.3471     -0.600     -0.870    24.0664   997.2877 0.0000e+00
     -0.612 8.0408e-25     6.8606     81.614      1.508   1.480377    -0.0919      7.547 -1240.7455 8.6679e+02    -0.4703     -0.600     -0.870    24.0677   997.2874 0.0000e+00
     -0.612 8.8449e-24     6.8610     81.619      1.411   1.385016    -0.0104      7.553 -1240.7455 7.6766e+02    -0.5297     -0.600     -0.871    24.0688   997.2871 0.0000e+00
     -0.612 9.7294e-23     6.8627     81.640      1.396   1.371147    -0.0097      7.558 -1240.7455 5.0298e+02    -0.5416     -0.600     -0.870    24.0702   997.2868 0.0000e+00
     -0.612 1.0702e-21     6.8653     81.673      1.531   1.502771    -0.0145      7.558 -1240.7455 4.0259e+02    -0.7122     -0.600     -0.870    24.0711   997.2865 0.0000e+00
     -0.612 1.1773e-20     6.8670     81.696      1.677   1.645884    -0.0080      7.553 -1240.7455 6.2838e+02    -1.0200     -0.600     -0.870    24.0717   997.2863 0.0000e+00
     -0.612 1.2950e-19     6.8690     81.721      1.739   1.707558    -0.0087      7.553 -1240.7455 8.0809e+02    -1.1823     -0.600     -0.870    24.0727   997.2861 0.0000e+00
     -0.612 1.4245e-18     6.8720     81.758      1.709   1.678207    -0.0142      7.554 -1240.7455 4.7400e+02    -1.1999     -0.600     -0.870    24.0736   997.2859 0.0000e+00
     -0.612 1.5669e-17     6.8769     81.818      1.638   1.607809    -0.0320      7.546 -1240.7455 1.7700e+02    -1.0357     -0.600     -0.870    24.0747   997.2856 0.0000e+00
     -0.612 1.7236e-16     6.8811     81.870      1.711   1.680092    -0.0770      7.530 -1240.7455 1.4905e+02    -0.7047     -0.600     -0.870    24.0758   997.2854 0.0000e+00
     -0.612 1.8960e-15     6.8821     81.883      2.018   1.981905    -0.1154      7.515 -1240.7455 1.5155e+02    -0.5406     -0.600     -0.870    24.0765   997.2852 0.0000e+00
     -0.612 2.0856e-14     6.8832     81.898      2.321   2.278945    -0.1231      7.500 -1240.7455 1.9265e+02    -0.5261     -0.600     -0.870    24.0774   997.2849 0.0000e+00
     -0.612 2.2941e-13     6.8871     81.946      2.465   2.420231    -0.1187      7.488 -1240.7455 5.0217e+02    -0.4975     -0.600     -0.870    24.0786   997.2846 0.0000e+00
     -0.612 2.5236e-12     6.8937     82.026      2.726   2.676358    -0.1223      7.480 -1240.7455 7.6538e+02    -0.4891     -0.600     -0.870    24.0797   997.2844 0.0000e+00
     -0.612 2.7759e-11     6.9009     82.114      3.087   3.031223    -0.1233      7.476 -1240.7455 4.9143e+02    -0.5225     -0.600     -0.870    24.0807   997.2842 0.0000e+00
     -0.612 3.0535e-10     6.9073     82.191      3.092   3.035653    -0.1220      7.473 -1240.7455 2.9118e+02    -0.5407     -0.600     -0.870    24.0818   997.2839 0.0000e+00
     -0.612 3.3589e-09     6.9130     82.259      2.780   2.729939    -0.1246      7.472 -1240.7455 6.9010e+02    -0.5136     -0.600     -0.870    24.0829   997.2837 0.0000e+00
     -0.611 3.6947e-08     6.9170     82.308      2.485   2.439797    -0.1201      7.472 -1240.7455 1.2953e+03    -0.4891     -0.599     -0.869    24.0839   997.2835 0.0000e+00
     -0.611 4.0642e-07     6.9180     82.321      2.229   2.188908    -0.1189      7.471 -1240.7455 1.5607e+03    -0.5073     -0.599     -0.869    24.0849   997.2833 0.0000e+00
     -0.612      0.000     6.9175     82.316      2.014   1.977575    -0.1186      7.468 -1240.7455 1.2568e+03    -0.5692     -0.600     -0.870    24.0858   997.2831 0.0000e+00
     -0.612      0.000     6.9159     82.299      1.883   1.848855    -0.1078      7.466 -1240.7455 6.6440e+02    -0.5821     -0.600     -0.870    24.0863   997.2829 0.0000e+00
     -0.612      0.001     6.9113     82.244      1.806   1.773104    -0.1099      7.466 -1240.7455 6.0277e+02    -0.5323     -0.600     -0.870    24.0870   997.2826 0.0000e+00
     -0.611      0.001     6.9056     82.176      1.727   1.695294    -0.1270      7.470 -1240.7455 8.0487e+02    -0.5238     -0.599     -0.869    24.0878   997.2824 0.0000e+00
     -0.611      0.000     6.9016     82.131      1.635   1.605055    -0.1322      7.478 -1240.7455 4.7339e+02    -0.5458     -0.599     -0.869    24.0884   997.2823 0.0000e+00
     -0.611 1.8501e-08     6.8994     82.106      1.598   1.569098    -0.1297      7.485 -1240.7455 1.4045e+02    -0.5357     -0.598     -0.868    24.0891   997.2821 0.0000e+00
     -0.611 2.0352e-07     6.8980     82.091      1.607   1.577356    -0.1317      7.499 -1240.7455 9.9308e+01    -0.5327     -0.599     -0.868    24.0896   997.2819 0.0000e+00
     -0.611 2.0657e-07     6.8971     82.082      1.607   1.578173    -0.1301      7.520 -1240.7455 8.4225e+01    -0.5422     -0.599     -0.869    24.0901   997.2818 0.0000e+00
     -0.611 5.5421e-08     6.8975     82.087      1.608   1.578984    -0.1195      7.534 -1240.7455 7.8920e+01    -0.5196     -0.599     -0.869    24.0909   997.2816 0.0000e+00
     -0.611 4.0810e-07     6.8987     82.102      1.616   1.587161    -0.1151      7.540 -1240.7455 8.2152e+01    -0.5212     -0.599     -0.869    24.0915   997.2815 0.0000e+00
     -0.611      0.000     6.9002     82.120      1.708   1.677031    -0.1204      7.550 -1240.7455 8.7952e+01    -0.5618     -0.600     -0.870    24.0922   997.2813 0.0000e+00
     -0.611      0.000     6.9012     82.133      1.876   1.841894    -0.1239      7.565 -1240.7455 9.1865e+01    -0.5844     -0.599     -0.869    24.0931   997.2810 0.0000e+00
     -0.611      0.001     6.9016     82.139      1.969   1.933076    -0.1224      7.580 -1240.7455 9.6990e+01    -0.5653     -0.599     -0.869    24.0940   997.2808 0.0000e+00
     -0.611      0.001     6.9020     82.146      1.992   1.955784    -0.1189      7.590 -1240.7455 1.0657e+02    -0.5275     -0.599     -0.868    24.0945   997.2807 0.0000e+00
     -0.610      0.000     6.9037     82.167      2.026   1.989730    -0.1253      7.592 -1240.7455 1.4681e+02    -0.5201     -0.598     -0.868    24.0948   997.2806 0.0000e+00
     -0.610 4.0706e-08     6.9062     82.198      1.999   1.963343    -0.1302      7.582 -1240.7452 5.0408e+02    -0.5412     -0.598     -0.868    24.0952   997.2805 0.0000e+00
     -0.610 4.4776e-07     6.9076     82.216      1.925   1.890191    -0.1180      7.545 -1240.7423 1.1354e+03    -0.5534     -0.599     -0.868    24.0958   997.2804 0.0000e+00
     -0.610      0.000     6.9091     82.235      1.900   1.865615    -0.1160      7.494 -1240.7105 1.4479e+03    -0.5370     -0.598     -0.868    24.0964   997.2803 0.0000e+00
     -0.610      0.000     6.9101     82.247      1.955   1.919643    -0.1756      7.467 -1240.3609 1.4247e+03    -0.3430     -0.599     -0.868    24.0972   997.2801 0.0000e+00
     -0.610      0.000     6.9102     82.249      2.332   2.289985    -0.7173      7.460 -1236.5149 1.2743e+03     1.7917     -0.598     -0.868    24.0985   997.2798 0.0000e+00
     -0.610      0.004     6.9115     82.262      4.007   3.935564    -1.6891      7.465 -1194.2084 9.9690e+02     5.7089     -0.598     -0.868    24.0996   997.2795 0.0000e+00
     -0.610      0.014     6.9149     82.290      7.956   7.811336    -2.2064      7.604  -728.8374 9.5532e+02     7.8570     -0.598     -0.867    24.1002   997.2793 0.0000e+00
     -0.610      0.033     6.9201     82.316     14.374  14.103446    -2.1864      7.980    29.3459 1.0595e+03     8.0023     -0.599     -0.868    24.1011   997.2792 0.0000e+00
     -0.608      0.056     6.9270     82.346     23.219  22.767606    -1.4646      8.430   296.4126 1.0704e+03     7.4003     -0.598     -0.868    24.1006   997.2793 0.0000e+00
     -0.596      0.077     6.9366     82.415     31.189  30.567466    -0.1291      8.766   226.7416 1.2899e+03     6.2811     -0.594     -0.862    24.1013   997.2792 0.0000e+00
     -0.565      0.094     6.9388     82.407     34.381  33.682982     0.6008      8.980   221.4956 1.4745e+03     5.6450     -0.559     -0.811    24.0978   997.2812 0.0000e+00
     -0.523      0.106     6.9355     82.342     34.632  33.916855     0.6587      9.110   221.6272 1.2225e+03     5.4440     -0.508     -0.736    24.0701   997.2897 0.0000e+00
     -0.488      0.110     6.9400     82.374     34.627  33.902905     0.4935      9.184   222.2245 8.4236e+02     3.9505     -0.476     -0.689    24.0284   997.3030 0.0000e+00
     -0.462      0.107     6.9452     82.421     34.626  33.895083     0.1555      9.225   222.8674 9.1507e+02     1.1869     -0.452     -0.655    23.9979   997.3139 0.0000e+00
     -0.439      0.099     6.9453     82.415     34.619  33.885733    -0.0390      9.247   223.2917 1.2999e+03    -0.3435     -0.429     -0.623    23.9781   997.3193 0.0000e+00
     -0.418      0.092     6.9467     82.428     34.588  33.853318    -0.0547      9.256   223.3959 1.4904e+03    -0.3956     -0.409     -0.594    23.9614   997.3232 0.0000e+00
     -0.398      0.091     6.9518     82.485     34.556  33.820471    -0.0253      9.256   223.3532 1.5108e+03     0.7524     -0.391     -0.567    23.9465   997.3272 0.0000e+00
     -0.377      0.092     6.9588     82.564     34.544  33.805895     0.2731      9.249   223.2912 1.3992e+03    13.6363     -0.372     -0.539    23.9373   997.3294 0.0000e+00
     -0.351      0.095     6.9632     82.610     34.545  33.804003     0.8225      9.244   223.0771 1.2959e+03    37.3041     -0.344     -0.499    23.9341   997.3304 0.0000e+00
     -0.323      0.099     6.9639     82.613     34.541  33.797588     1.1207      9.244   222.7428 1.4207e+03    50.1384     -0.316     -0.458    23.9323   997.3309 0.0000e+00
     -0.298      0.100     6.9702     82.682     34.537  33.791798     1.1293      9.245   222.3470 1.5433e+03    50.1790     -0.293     -0.425    23.9298   997.3316 0.0000e+00
     -0.273      0.098     6.9846     82.847     34.545  33.797457     1.0482      9.245   221.9914 1.4895e+03    37.9259     -0.269     -0.390    23.9267   997.3325 0.0000e+00
     -0.247      0.093     7.0004     83.030     34.552  33.802535     0.9118      9.242   221.7123 1.4324e+03    15.3135     -0.242     -0.352    23.9233   997.3334 0.0000e+00
     -0.220      0.085     7.0156     83.208     34.540  33.789728     0.8418      9.238   221.4682 1.4922e+03     3.0022     -0.215     -0.311    23.9195   997.3344 0.0000e+00
     -0.197      0.078     7.0315     83.397     34.520  33.769535     0.8432      9.235   221.7927 1.5544e+03     1.9059     -0.191     -0.277    23.9159   997.3354 0.0000e+00
     -0.179      0.073     7.0491     83.605     34.499  33.748771     0.8854      9.233   222.6243 1.5545e+03     1.7952     -0.174     -0.254    23.9121   997.3364 0.0000e+00
     -0.167      0.072     7.0669     83.816     34.479  33.729060     0.9617      9.228   222.8332 1.5454e+03     1.7944     -0.163     -0.236    23.9091   997.3373 0.0000e+00
     -0.156      0.073     7.0831     84.008     34.471  33.721606     1.0109      9.223   222.4262 1.5390e+03     1.8314     -0.154     -0.224    23.9080   997.3376 0.0000e+00
     -0.140      0.077     7.0968     84.171     34.471  33.722114     1.0295      9.216   222.1771 1.5215e+03     1.8493     -0.141     -0.203    23.9078   997.3377 0.0000e+00
     -0.115      0.083     7.1090     84.314     34.486  33.735202     1.0740      9.211   222.0578 1.2920e+03     1.8473     -0.113     -0.164    23.9076   997.3379 0.0000e+00
     -0.087      0.088     7.1214     84.450     34.508  33.752915     1.1509      9.207   222.2741 1.0814e+03     1.8395     -0.083     -0.120    23.9071   997.3381 0.0000e+00
     -0.063      0.092     7.1324     84.558     34.511  33.745886     1.1957      9.203   223.0719 1.2868e+03     1.8533     -0.061     -0.088    23.9079   997.3380 0.0000e+00
     -0.041      0.093     7.1479     84.711     34.492  33.713671     1.1995      9.196   223.7022 1.3613e+03     1.8498     -0.040     -0.059    23.9081   997.3381 0.0000e+00
     -0.018      0.090     7.1980     85.273     34.473  33.680699     1.2234      9.186   223.9580 1.1866e+03     1.7983     -0.018     -0.026    23.9078   997.3382 0.0000e+00
      0.005      0.086     7.3109     86.581     34.469  33.664513     1.2844      9.178   223.9277 1.2407e+03     1.7539      0.005      0.007    23.9039   997.3393 0.0000e+00
      0.030      0.082     7.4701     88.441     34.459  33.644870     1.3313      9.172   223.5947 1.3061e+03     1.7398      0.029      0.041    23.8883   997.3432 0.0000e+00
      0.052      0.079     7.6330     90.346     34.456  33.633565     1.3397      9.164   223.6308 1.1814e+03     1.7595      0.054      0.077    23.8658   997.3489 0.0000e+00
      0.069      0.075     7.7707     91.956     34.486  33.654746     1.3336      9.154   224.1070 9.8513e+02     1.7954      0.070      0.100    23.8455   997.3540 0.0000e+00
      0.084      0.068     7.8784     93.215     34.485  33.647104     1.3611      9.142   224.4480 7.8997e+02     1.8122      0.081      0.116    23.8279   997.3583 0.0000e+00
      0.102      0.060     7.9613     94.183     34.447  33.604616     1.4201      9.132   224.4840 6.6073e+02     1.7984      0.099      0.144    23.8129   997.3620 0.0000e+00
      0.122      0.050     8.0093     94.743     34.431  33.585266     1.4500      9.125   224.4566 5.9920e+02     1.7928      0.122      0.178    23.7994   997.3654 0.0000e+00
      0.137      0.040     8.0063     94.698     34.453  33.603522     1.4540      9.121   224.5469 6.0818e+02     1.8106      0.137      0.198    23.7874   997.3684 0.0000e+00
      0.144      0.029     7.9518     94.045     34.489  33.634961     1.4590      9.118   224.3709 6.5345e+02     1.8164      0.142      0.206    23.7778   997.3708 0.0000e+00
      0.147      0.018     7.8639     92.995     34.506  33.648074     1.4587      9.115   223.8769 5.8042e+02     1.7972      0.144      0.209    23.7712   997.3725 0.0000e+00
      0.147      0.008     7.7667     91.837     34.496  33.635131     1.4500      9.111   223.7373 4.1302e+02     1.7749      0.145      0.210    23.7662   997.3736 0.0000e+00
      0.147      0.003     7.6765     90.762     34.469  33.605392     1.4492      9.106   223.9724 3.0701e+02     1.7760      0.145      0.209    23.7616   997.3747 0.0000e+00
      0.147      0.000     7.5972     89.819     34.473  33.605807     1.4583      9.102   224.2251 2.7586e+02     1.7780      0.144      0.208    23.7568   997.3760 0.0000e+00
      0.147 3.9221e-10     7.5262     88.976     34.509  33.640154     1.4559      9.097   224.4692 2.8103e+02     1.7673      0.144      0.209    23.7511   997.3774 0.0000e+00
      0.147 4.3144e-09     7.4665     88.270     34.509  33.639897     1.4464      9.092   224.6017 2.9498e+02     1.7775      0.144      0.208    23.7454   997.3787 0.0000e+00
      0.147 4.7458e-08     7.4248     87.779     34.470  33.602705     1.4557      9.088   224.6216 2.9458e+02     1.8029      0.144      0.209    23.7405   997.3799 0.0000e+00
      0.147 4.7458e-08     7.4087     87.593     34.435  33.571235     1.4722      9.084   224.7102 2.8828e+02     1.8123      0.144      0.209    23.7366   997.3809 0.0000e+00
      0.147 4.3144e-09     7.4233     87.772     34.438  33.576715     1.4737      9.079   224.8986 2.8280e+02     1.8259      0.144      0.209    23.7348   997.3813 0.0000e+00
      0.147 3.9221e-10     7.4689     88.316     34.465  33.605509     1.4652      9.074   225.0929 2.8366e+02     1.8354      0.144      0.209    23.7343   997.3814 0.0000e+00
      0.147 3.5656e-11     7.5454     89.224     34.460  33.602074     1.4561      9.070   225.2522 3.0151e+02     1.8287      0.144      0.209    23.7357   997.3811 0.0000e+00
      0.147 3.2414e-12     7.6494     90.458     34.455  33.598639     1.4680      9.067   225.4477 3.4805e+02     1.8435      0.145      0.210    23.7395   997.3801 0.0000e+00
      0.147 2.9467e-13     7.7689     91.876     34.483  33.627448     1.5045      9.064   225.6503 4.5669e+02     1.8504      0.145      0.210    23.7439   997.3791 0.0000e+00
      0.147 2.6789e-14     7.8835     93.237     34.487  33.633086     1.5251      9.061   225.8092 5.9912e+02     1.8137      0.144      0.209    23.7470   997.3783 0.0000e+00
      0.147 2.4353e-15     7.9757     94.332     34.454  33.603342     1.5172      9.059   226.0782 6.3530e+02     1.7608      0.144      0.209    23.7490   997.3778 0.0000e+00
      0.147 2.2139e-16     8.0374     95.068     34.434  33.585136     1.5039      9.058   226.4080 5.0951e+02     1.7354      0.145      0.211    23.7508   997.3775 0.0000e+00
      0.147 2.0127e-17     8.0678     95.434     34.450  33.603356     1.4596      9.056   226.5275 3.7757e+02     1.7680      0.144      0.210    23.7529   997.3769 0.0000e+00
      0.147 1.8296e-18     8.0720     95.492     34.477  33.633257     1.3804      9.054   226.3183 4.0527e+02     1.8285      0.144      0.209    23.7560   997.3761 0.0000e+00
      0.147 1.6541e-19     8.0576     95.331     34.469  33.629361     1.3360      9.051   226.0292 5.5999e+02     1.8436      0.144      0.209    23.7591   997.3754 0.0000e+00
      0.147 4.9866e-21     8.0291     95.005     34.455  33.619709     1.3301      9.047   226.0434 7.0409e+02     1.8190      0.145      0.210    23.7625   997.3745 0.0000e+00
      0.147 -1.101e-19     7.9915     94.569     34.475  33.643486     1.3436      9.044   226.2314 7.6326e+02     1.8263      0.144      0.209    23.7662   997.3736 0.0000e+00
      0.147 -1.226e-18     7.9515     94.104     34.492  33.663007     1.3786      9.042   226.5821 6.7911e+02     1.8336      0.145      0.210    23.7703   997.3727 0.0000e+00
      0.147 -1.349e-17     7.9119     93.640     34.492  33.665349     1.3971      9.041   227.1856 5.1867e+02     1.8089      0.145      0.210    23.7761   997.3712 0.0000e+00
      0.147 -1.484e-16     7.8732     93.188     34.497  33.671803     1.3943      9.040   227.0764 4.3663e+02     1.7895      0.145      0.210    23.7825   997.3696 0.0000e+00
      0.147 -1.632e-15     7.8368     92.763     34.501  33.677586     1.3879      9.039   226.1219 4.3387e+02     1.7628      0.145      0.210    23.7875   997.3684 0.0000e+00
      0.148 -1.795e-14     7.8040     92.380     34.493  33.671802     1.3884      9.038   225.6248 4.3098e+02     1.7491      0.145      0.210    23.7919   997.3674 0.0000e+00
      0.148 -1.975e-13     7.7787     92.084     34.485  33.665347     1.3999      9.036   225.9697 4.0064e+02     1.7875      0.145      0.210    23.7954   997.3665 0.0000e+00
      0.148 -3.620e-13     7.7634     91.904     34.482  33.663005     1.3974      9.034   226.5929 3.8197e+02     1.8334      0.145      0.211    23.7984   997.3658 0.0000e+00
      0.148 -1.966e-13     7.7568     91.826     34.462  33.643485     1.3759      9.032   226.8792 3.7796e+02     1.8122      0.145      0.210    23.8018   997.3650 0.0000e+00
      0.148 -8.396e-15     7.7561     91.817     34.437  33.619721     1.3567      9.030   226.4200 3.8961e+02     1.7612      0.144      0.209    23.8049   997.3642 0.0000e+00
      0.148 1.0351e-13     7.7566     91.824     34.447  33.629528     1.3475      9.027   225.4294 3.9480e+02     1.7727      0.145      0.210    23.8067   997.3637 0.0000e+00
      0.148 1.1565e-12     7.7555     91.811     34.452  33.635126     1.3421      9.023   224.8820 3.8728e+02     1.7882      0.145      0.210    23.8071   997.3637 0.0000e+00
      0.148 1.2723e-11     7.7519     91.771     34.441  33.623950     1.3348      9.020   225.0500 4.4363e+02     1.7526      0.145      0.211    23.8069   997.3637 0.0000e+00
      0.148 1.3995e-10     7.7439     91.677     34.438  33.621320     1.3369      9.016   225.3090 5.1411e+02     1.7679      0.145      0.211    23.8072   997.3636 0.0000e+00
      0.148 1.5395e-09     7.7296     91.509     34.419  33.603335     1.3507      9.013   225.6055 5.5026e+02     1.8419      0.145      0.211    23.8075   997.3635 0.0000e+00
      0.148 1.6934e-08     7.7100     91.277     34.412  33.596875     1.3540      9.008   225.9666 6.1335e+02     1.8619      0.146      0.212    23.8079   997.3635 0.0000e+00
      0.148 1.8627e-07     7.6855     90.988     34.421  33.606683     1.3343      9.003   225.9755 6.7157e+02     1.8449      0.146      0.211    23.8087   997.3633 0.0000e+00
      0.148 1.8627e-07     7.6571     90.652     34.409  33.594996     1.2685      8.999   225.6266 6.9738e+02     1.8335      0.145      0.211    23.8091   997.3632 0.0000e+00
      0.149 1.6934e-08     7.6268     90.294     34.395  33.582498     1.1823      8.996   225.3620 7.4221e+02     1.8216      0.146      0.212    23.8096   997.3631 0.0000e+00
      0.149 1.5394e-09     7.5920     89.884     34.395  33.582497     1.1507      8.994   225.4433 8.1556e+02     1.8329      0.146      0.212    23.8102   997.3629 0.0000e+00
      0.148 1.3975e-10     7.5490     89.375     34.408  33.594982     1.1545      8.991   226.3522 8.8123e+02     1.8391      0.146      0.211    23.8108   997.3628 0.0000e+00
      0.148 1.2361e-11     7.5014     88.813     34.419  33.606525     1.1506      8.987   227.5757 8.8046e+02     1.7973      0.145      0.211    23.8114   997.3626 0.0000e+00
      0.148 9.5950e-13     7.4539     88.252     34.407  33.595142     1.1461      8.983   227.8469 8.6200e+02     1.7538      0.146      0.212    23.8120   997.3624 0.0000e+00
      0.148 8.7230e-14     7.4026     87.646     34.395  33.584282     1.1440      8.980   227.7389 9.1360e+02     1.7721      0.145      0.210    23.8125   997.3623 0.0000e+00
      0.148 7.9300e-15     7.3472     86.991     34.413  33.602139     1.1422      8.976   227.6454 9.7603e+02     1.8218      0.146      0.211    23.8131   997.3622 0.0000e+00
      0.148 7.2090e-16     7.2915     86.334     34.432  33.620659     1.1506      8.974   227.2333 9.3052e+02     1.8307      0.146      0.212    23.8138   997.3620 0.0000e+00
      0.149 6.5535e-17     7.2354     85.670     34.428  33.617815     1.1770      8.971   227.5734 8.1436e+02     1.7817      0.146      0.211    23.8145   997.3618 0.0000e+00
      0.149 5.9580e-18     7.1785     84.999     34.441  33.631227     1.2007      8.968   228.7464 8.0463e+02     1.7204      0.146      0.212    23.8153   997.3616 0.0000e+00
      0.149 5.4165e-19     7.1232     84.345     34.466  33.655893     1.2121      8.966   229.3715 8.5925e+02     1.7125      0.146      0.212    23.8157   997.3615 0.0000e+00
      0.149 4.9283e-20     7.0706     83.723     34.472  33.662197     1.2716      8.965   229.3668 8.7219e+02     1.7516      0.146      0.212    23.8168   997.3613 0.0000e+00
      0.149 4.9668e-21     7.0214     83.141     34.453  33.643977     1.3821      8.963   229.1191 9.0113e+02     1.7663      0.146      0.212    23.8180   997.3610 0.0000e+00
      0.149 5.8027e-21     6.9752     82.595     34.434  33.625991     1.4388      8.962   228.7854 9.5445e+02     1.7597      0.146      0.212    23.8187   997.3608 0.0000e+00
      0.149 5.9390e-20     6.9289     82.049     34.443  33.635123     1.4367      8.959   228.8604 1.0101e+03     1.7702      0.146      0.212    23.8194   997.3606 0.0000e+00
      0.149 6.5289e-19     6.8828     81.504     34.434  33.627466     1.3820      8.956   229.4239 1.0399e+03     1.7951      0.146      0.211    23.8200   997.3605 0.0000e+00
      0.149 7.1817e-18     6.8396     80.992     34.402  33.596875     1.2725      8.954   229.9192 1.0037e+03     1.7983      0.146      0.212    23.8209   997.3603 0.0000e+00
      0.149 7.8999e-17     6.7982     80.503     34.387  33.582566     1.2053      8.951   230.0307 9.6244e+02     1.7763      0.146      0.211    23.8216   997.3601 0.0000e+00
      0.149 8.6899e-16     6.7584     80.033     34.386  33.581382     1.1935      8.948   229.9978 9.5403e+02     1.7917      0.146      0.212    23.8221   997.3600 0.0000e+00
      0.149 9.5589e-15     6.7209     79.589     34.387  33.582566     1.1980      8.944   229.9508 9.5191e+02     1.8200      0.146      0.211    23.8229   997.3598 0.0000e+00
      0.149 1.0515e-13     6.6820     79.129     34.401  33.596874     1.1998      8.942   229.6349 9.5711e+02     1.8237      0.146      0.212    23.8233   997.3597 0.0000e+00
      0.149 1.1566e-12     6.6412     78.647     34.432  33.627451     1.1719      8.940   229.1899 9.4669e+02     1.8038      0.146      0.212    23.8238   997.3595 0.0000e+00
      0.149 1.2723e-11     6.6035     78.202     34.439  33.634951     1.1383      8.937   229.2168 9.4153e+02     1.7758      0.146      0.212    23.8245   997.3594 0.0000e+00
      0.149 1.3995e-10     6.5681     77.784     34.428  33.624102     1.1322      8.935   229.6158 9.6912e+02     1.8128      0.146      0.212    23.8250   997.3593 0.0000e+00
      0.149 1.5395e-09     6.5319     77.357     34.427  33.623206     1.1405      8.933   229.9705 9.8114e+02     1.8588      0.146      0.212    23.8256   997.3591 0.0000e+00
      0.149 1.6934e-08     6.4962     76.933     34.427  33.624118     1.1431      8.930   230.0640 9.6935e+02     1.8394      0.146      0.212    23.8262   997.3590 0.0000e+00
      0.149 1.8627e-07     6.4598     76.502     34.438  33.635124     1.1386      8.928   229.5417 9.6490e+02     1.8076      0.147      0.213    23.8269   997.3588 0.0000e+00
      0.149 1.8627e-07     6.4226     76.062     34.431  33.629355     1.1381      8.927   228.9036 9.5996e+02     1.8022      0.147      0.213    23.8274   997.3587 0.0000e+00
      0.149 1.6934e-08     6.3874     75.647     34.419  33.617830     1.1622      8.925   228.9742 9.5133e+02     1.8719      0.146      0.212    23.8281   997.3585 0.0000e+00
      0.149 1.5395e-09     6.3540     75.253     34.423  33.622702     1.1964      8.921   229.2765 9.5423e+02     1.9950      0.146      0.211    23.8288   997.3583 0.0000e+00
      0.149 1.3995e-10     6.3201     74.853     34.425  33.624795     1.2043      8.919   229.4615 9.6013e+02     2.0451      0.146      0.212    23.8293   997.3582 0.0000e+00
      0.149 1.2723e-11     6.2852     74.441     34.444  33.643130     1.1968      8.917   229.7479 9.6165e+02     2.0199      0.146      0.211    23.8300   997.3580 0.0000e+00
      0.149 1.1566e-12     6.2510     74.036     34.454  33.654004     1.2279      8.915   229.6420 9.5854e+02     1.9526      0.146      0.212    23.8304   997.3579 0.0000e+00
      0.149 1.0515e-13     6.2193     73.661     34.429  33.629354     1.2948      8.913   228.9550 9.4999e+02     1.8539      0.147      0.213    23.8310   997.3578 0.0000e+00
      0.149 9.5590e-15     6.1891     73.304     34.397  33.598934     1.3294      8.912   228.4975 9.4629e+02     1.8090      0.146      0.212    23.8319   997.3576 0.0000e+00
      0.149 8.6900e-16     6.1592     72.951     34.401  33.603519     1.3339      8.910   228.5842 9.5057e+02     1.8037      0.147      0.212    23.8323   997.3575 0.0000e+00
      0.149 7.9000e-17     6.1298     72.604     34.419  33.621332     1.3406      8.907   228.9712 9.5783e+02     1.7902      0.146      0.212    23.8330   997.3573 0.0000e+00
      0.149 7.1820e-18     6.1009     72.262     34.422  33.623919     1.3408      8.905   229.3903 9.6299e+02     1.8093      0.147      0.213    23.8336   997.3572 0.0000e+00
      0.149 6.5290e-19     6.0722     71.923     34.433  33.634809     1.3368      8.902   229.6081 9.6673e+02     1.8378      0.147      0.212    23.8340   997.3570 0.0000e+00
      0.149 5.9355e-20     6.0436     71.585     34.423  33.626074     1.3348      8.899   229.6252 9.6905e+02     1.8394      0.147      0.212    23.8347   997.3569 0.0000e+00
      0.149 5.3960e-21     6.0153     71.250     34.377  33.581767     1.3258      8.896   229.5114 9.5254e+02     1.8286      0.147      0.212    23.8352   997.3568 0.0000e+00
      0.149 4.9052e-22     5.9883     70.930     34.337  33.543331     1.3053      8.893   229.3506 9.4464e+02     1.8055      0.146      0.212    23.8359   997.3566 0.0000e+00
      0.149 4.4593e-23     5.9625     70.625     34.336  33.542123     1.2872      8.892   229.2298 9.5853e+02     1.7894      0.147      0.212    23.8364   997.3565 0.0000e+00
      0.149 4.0539e-24     5.9373     70.328     34.361  33.567162     1.2801      8.889   229.2552 9.4912e+02     1.7978      0.146      0.212    23.8369   997.3563 0.0000e+00
      0.149 3.6854e-25     5.9108     70.014     34.386  33.592222     1.2793      8.886   229.7442 9.3853e+02     1.8086      0.146      0.212    23.8375   997.3562 0.0000e+00
      0.149 3.3504e-26     5.8841     69.699     34.385  33.591275     1.3036      8.884   230.5818 9.5997e+02     1.7895      0.147      0.212    23.8381   997.3560 0.0000e+00
      0.149 3.0480e-27     5.8601     69.415     34.348  33.555715     1.3571      8.882   230.9516 9.7992e+02     1.7635      0.147      0.213    23.8386   997.3559 0.0000e+00
      0.149 3.0206e-28     5.8373     69.146     34.335  33.543044     1.3887      8.880   230.7739 9.6320e+02     1.7900      0.147      0.213    23.8392   997.3558 0.0000e+00
      0.149 3.0206e-28     5.8135     68.866     34.357  33.565002     1.3823      8.879   230.4976 9.3863e+02     1.8141      0.147      0.213    23.8397   997.3556 0.0000e+00
      0.149 3.0480e-27     5.7907     68.596     34.358  33.567359     1.3923      8.877   230.4500 9.3919e+02     1.7927      0.147      0.213    23.8401   997.3556 0.0000e+00
      0.149 3.3503e-26     5.7715     68.369     34.363  33.571546     1.4319      8.875   231.1450 9.4503e+02     1.7932      0.147      0.213    23.8407   997.3554 0.0000e+00
      0.149 3.6854e-25     5.7625     68.262     34.409  33.615619     1.4542      8.874   232.2753 9.4658e+02     1.8203      0.147      0.213    23.8414   997.3552 0.0000e+00
      0.149 4.0539e-24     5.8218     68.955     34.455  33.656000     1.4533      8.874   232.7590 9.4358e+02     1.8262      0.147      0.213    23.8417   997.3551 0.0000e+00
      0.149 4.4593e-23     6.0752     71.933     34.490  33.679009     1.4383      8.872   232.5190 9.4329e+02     1.7983      0.147      0.213    23.8425   997.3549 0.0000e+00
      0.150 4.9052e-22     6.6005     78.124     34.528  33.703414     1.4117      8.869   232.2136 9.5769e+02     1.7778      0.147      0.213    23.8427   997.3548 0.0000e+00
      0.150 5.3957e-21     7.3370     86.821     34.531  33.697199     1.3914      8.866   232.3357 9.6651e+02     1.7752      0.147      0.213    23.8440   997.3546 0.0000e+00
      0.150 5.9353e-20     8.1419     96.332     34.506  33.667311     1.3835      8.863   232.7903 9.5731e+02     1.7671      0.147      0.213    23.8400   997.3557 0.0000e+00
      0.150 6.5288e-19     8.8827    105.085     34.502  33.659349     1.3862      8.861   233.1506 9.5065e+02     1.7772      0.147      0.213    23.8187   997.3608 0.0000e+00
      0.150 7.1817e-18     9.4926    112.287     34.512  33.664390     1.3888      8.859   233.3368 9.5648e+02     1.7997      0.147      0.213    23.7966   997.3662 0.0000e+00
      0.149 7.8999e-17     9.9450    117.626     34.517  33.664798     1.3897      8.858   233.2340 9.5821e+02     1.8101      0.147      0.213    23.7845   997.3692 0.0000e+00
      0.149 8.6899e-16    10.2189    120.861     34.517  33.664267     1.3966      8.856   232.8550 9.5086e+02     1.8038      0.147      0.213    23.7779   997.3708 0.0000e+00
      0.149 9.5589e-15    10.3175    122.027     34.511  33.657977     1.3690      8.852   232.3676 9.5027e+02     1.7893      0.146      0.212    23.7733   997.3720 0.0000e+00
      0.149 1.0515e-13    10.2774    121.551     34.506  33.652209     1.3066      8.850   232.0731 9.5544e+02     1.7997      0.147      0.213    23.7659   997.3738 0.0000e+00
      0.149 1.1566e-12    10.1569    120.121     34.513  33.657988     1.2756      8.848   232.2201 9.6593e+02     1.7982      0.147      0.214    23.7587   997.3755 0.0000e+00
      0.149 1.2723e-11    10.0124    118.404     34.522  33.664392     1.2715      8.847   232.5092 9.8133e+02     1.7711      0.147      0.213    23.7573   997.3758 0.0000e+00
      0.149 1.3995e-10     9.8795    116.826     34.526  33.666162     1.2742      8.846   232.8159 9.7970e+02     1.7670      0.147      0.213    23.7587   997.3755 0.0000e+00
      0.150 1.5395e-09     9.7706    115.537     34.540  33.679384     1.3077      8.845   233.1759 9.6332e+02     1.7810      0.147      0.213    23.7579   997.3758 0.0000e+00
      0.150 1.6934e-08     9.6831    114.506     34.558  33.697334     1.3650      8.843   232.9037 9.4699e+02     1.8091      0.147      0.213    23.7547   997.3765 0.0000e+00
      0.150 1.8627e-07     9.6140    113.692     34.552  33.692814     1.3952      8.842   232.1053 9.4124e+02     1.8123      0.148      0.214    23.7509   997.3774 0.0000e+00
      0.150 1.8627e-07     9.5611    113.068     34.547  33.688189     1.3947      8.841   231.8689 9.6024e+02     1.7859      0.148      0.214    23.7479   997.3781 0.0000e+00
      0.150 1.6934e-08     9.5211    112.597     34.563  33.704881     1.3768      8.839   232.1103 9.7800e+02     1.7858      0.147      0.213    23.7474   997.3783 0.0000e+00
      0.150 1.5395e-09     9.4886    112.214     34.561  33.704243     1.3431      8.838   232.5284 9.6285e+02     1.7782      0.147      0.213    23.7494   997.3778 0.0000e+00
      0.150 1.3995e-10     9.4589    111.864     34.536  33.680481     1.3258      8.837   233.0521 9.4866e+02     1.7592      0.147      0.213    23.7513   997.3773 0.0000e+00
      0.150 1.2723e-11     9.4318    111.548     34.526  33.671424     1.3228      8.834   232.7643 9.5897e+02     1.7852      0.147      0.213    23.7527   997.3770 0.0000e+00
      0.150 1.1566e-12     9.4100    111.294     34.511  33.658207     1.3419      8.832   231.7151 9.6481e+02     1.8309      0.148      0.214    23.7534   997.3768 0.0000e+00
      0.150 1.0515e-13     9.3988    111.160     34.501  33.647604     1.3830      8.831   231.1212 9.6263e+02     1.8528      0.147      0.213    23.7531   997.3770 0.0000e+00
      0.150 9.5590e-15     9.4001    111.168     34.527  33.670142     1.3957      8.831   231.0038 9.6653e+02     1.8542      0.148      0.214    23.7539   997.3767 0.0000e+00
      0.150 8.6900e-16     9.4086    111.258     34.537  33.676860     1.3917      8.830   231.0698 9.6278e+02     1.8471      0.148      0.214    23.7567   997.3760 0.0000e+00
      0.150 7.9000e-17     9.4147    111.324     34.527  33.665365     1.4123      8.828   231.4035 9.5204e+02     1.8976      0.147      0.213    23.7582   997.3757 0.0000e+00
      0.150 7.1821e-18     9.4146    111.324     34.520  33.658078     1.4457      8.828   231.5968 9.5292e+02     2.0062      0.147      0.213    23.7583   997.3756 0.0000e+00
      0.150 6.5420e-19     9.4142    111.323     34.513  33.652218     1.4570      8.826   231.4279 9.5883e+02     2.0458      0.148      0.214    23.7550   997.3764 0.0000e+00
      0.150 7.3599e-20     9.4172    111.359     34.518  33.657979     1.4451      8.823   231.1689 9.5917e+02     2.0165      0.147      0.213    23.7481   997.3781 0.0000e+00
      0.151 1.6208e-19     9.4222    111.414     34.526  33.664268     1.4398      8.822   231.0462 9.5202e+02     1.9460      0.148      0.214    23.7443   997.3790 0.0000e+00
      0.151 1.7240e-18     9.4274    111.473     34.527  33.664798     1.4453      8.822   231.0624 9.4484e+02     1.8498      0.148      0.215    23.7461   997.3786 0.0000e+00
      0.150 1.8959e-17     9.4331    111.541     34.527  33.664382     1.4425      8.821   231.1931 9.4289e+02     1.8043      0.147      0.213    23.7491   997.3778 0.0000e+00
      0.150 2.0855e-16     9.4395    111.621     34.520  33.659237     1.4409      8.819   231.6798 9.4689e+02     1.7883      0.147      0.213    23.7489   997.3779 0.0000e+00
      0.150 2.2940e-15     9.4449    111.690     34.525  33.666054     1.4429      8.818   232.3015 9.5491e+02     1.7874      0.147      0.213    23.7468   997.3784 0.0000e+00
      0.150 2.5234e-14     9.4475    111.725     34.542  33.683347     1.4154      8.818   232.4283 9.5431e+02     1.7937      0.148      0.215    23.7449   997.3788 0.0000e+00
      0.150 2.7758e-13     9.4487    111.740     34.536  33.677942     1.3683      8.817   232.3528 9.5651e+02     1.7657      0.147      0.214    23.7448   997.3789 0.0000e+00
      0.150 3.0533e-12     9.4514    111.770     34.522  33.664168     1.3410      8.815   232.1636 9.6408e+02     1.7110      0.148      0.213    23.7476   997.3782 0.0000e+00
      0.150 3.3587e-11     9.4556    111.817     34.502  33.643726     1.3279      8.813   231.7755 9.6030e+02     1.6897      0.147      0.214    23.7508   997.3774 0.0000e+00
      0.150 3.6945e-10     9.4597    111.862     34.480  33.621168     1.3054      8.813   232.2198 9.5561e+02     1.7372      0.148      0.213    23.7523   997.3771 0.0000e+00
      0.150 4.0640e-09     9.4619    111.884     34.506  33.645270     1.2858      8.812   233.3199 9.5627e+02     1.7938      0.147      0.214    23.7528   997.3770 0.0000e+00
      0.150 4.4704e-08     9.4617    111.879     34.544  33.681288     1.2815      8.809   233.7195 9.5108e+02     1.8173      0.148      0.213    23.7520   997.3771 0.0000e+00
      0.150 4.9174e-07     9.4597    111.857     34.538  33.675881     1.2712      8.807   233.6957 9.4797e+02     1.8243      0.147      0.214    23.7504   997.3775 0.0000e+00
      0.150      0.000     9.4547    111.803     34.504  33.643357     1.2563      8.805   233.4626 9.5607e+02     1.8459      0.148      0.213    23.7490   997.3778 0.0000e+00
      0.150      0.000     9.4475    111.719     34.464  33.605360     1.2583      8.804   232.7945 9.5657e+02     1.8490      0.148      0.214    23.7465   997.3785 0.0000e+00
      0.151      0.001     9.4398    111.623     34.457  33.597238     1.2682      8.803   232.8444 9.5262e+02     1.8293      0.148      0.214    23.7443   997.3791 0.0000e+00
      0.151      0.002     9.4324    111.523     34.473  33.608612     1.2719      8.802   233.7219 9.5738e+02     1.8372      0.148      0.214    23.7461   997.3786 0.0000e+00
      0.151      0.004     9.4293    111.465     34.487  33.615954     1.2423      8.800   234.1980 9.5898e+02     1.8785      0.148      0.214    23.7490   997.3779 0.0000e+00
      0.151      0.006     9.4323    111.477     34.502  33.622532     1.1795      8.796   234.1263 9.4477e+02     1.9677      0.148      0.214    23.7501   997.3776 0.0000e+00
      0.152      0.008     9.4375    111.523     34.510  33.624677     1.1451      8.791   233.8883 9.2557e+02     2.0310      0.148      0.214    23.7488   997.3779 0.0000e+00
      0.156      0.009     9.4420    111.567     34.530  33.641881     1.1478      8.787   233.8155 9.2124e+02     2.0220      0.153      0.221    23.7425   997.3794 0.0000e+00
      0.161      0.011     9.4425    111.569     34.530  33.640157     1.1507      8.784   234.0202 9.2353e+02     1.9893      0.158      0.230    23.7310   997.3822 0.0000e+00
      0.164      0.014     9.4367    111.495     34.495  33.603837     1.1458      8.769   234.2130 9.2736e+02     1.9638      0.161      0.233    23.7183   997.3854 0.0000e+00
      0.165      0.016     9.4275    111.376     34.477  33.583511     1.1410      8.733   234.2536 9.2431e+02     1.9755      0.162      0.235    23.7107   997.3873 0.0000e+00
      0.167      0.015     9.4178    111.255     34.481  33.584779     1.1446      8.701   234.1664 9.0176e+02     1.9996      0.162      0.235    23.7081   997.3878 0.0000e+00
      0.173      0.008     9.4077    111.134     34.516  33.619163     1.1539      8.692   233.9329 8.9542e+02     1.9934      0.169      0.243    23.7061   997.3884 0.0000e+00
      0.182     -0.012     9.3973    111.016     34.579  33.681925     1.1405      8.701   233.5819 9.1470e+02     1.9330      0.181      0.262    23.7034   997.3892 0.0000e+00
      0.187     -0.047     9.3870    110.915     34.600  33.708995     1.1045      8.711   232.9334 9.1861e+02     1.8264      0.185      0.269    23.6983   997.3904 0.0000e+00
      0.182     -0.092     9.3785    110.856     34.570  33.692629     1.0916      8.718   232.2010 9.0925e+02     1.7541      0.183      0.266    23.6941   997.3914 0.0000e+00
      0.160     -0.134     9.3748    110.859     34.535  33.674457     1.0967      8.718   232.0394 9.5181e+02     1.7467      0.169      0.245    23.6943   997.3913 0.0000e+00
      0.109     -0.165     9.3777    110.927     34.528  33.679692     1.0798      8.714   232.1842 1.0736e+03     1.7363      0.117      0.169    23.6939   997.3912 0.0000e+00
      0.034     -0.180     9.3873    111.061     34.534  33.692481     1.0345      8.711   232.2310 1.1851e+03     1.7276      0.032      0.047    23.7021   997.3888 0.0000e+00
     -0.037     -0.187     9.4018    111.241     34.542  33.702175     1.0086      8.712   231.6593 1.2324e+03     1.7720     -0.047     -0.067    23.7261   997.3826 0.0000e+00
     -0.082     -0.192     9.4221    111.484     34.573  33.733438     1.0614      8.712   230.2617 1.2468e+03     1.9458     -0.089     -0.129    23.7512   997.3763 0.0000e+00
     -0.106     -0.199     9.4484    111.804     34.590  33.753168     1.5432      8.708   229.0985 1.2563e+03     3.3699     -0.104     -0.152    23.7684   997.3720 0.0000e+00
     -0.128     -0.209     9.4745    112.128     34.582  33.750341     2.4036      8.699   228.6947 1.2716e+03     5.9149     -0.115     -0.168    23.7780   997.3696 0.0000e+00
     -0.177     -0.217     9.4898    112.331     34.588  33.762733     2.8735      8.685   228.7344 1.2795e+03     7.3183     -0.159     -0.232    23.7796   997.3690 0.0000e+00
     -0.258     -0.220     9.4871    112.325     34.593  33.776087     2.9324      8.671   228.7189 1.2789e+03     7.8188     -0.250     -0.363    23.7790   997.3688 0.0000e+00
     -0.350     -0.212     9.4625    112.060     34.593  33.784890     3.1160      8.661   227.9899 1.2738e+03    11.5412     -0.352     -0.511    23.7830   997.3673 0.0000e+00
     -0.421     -0.189     9.4116    111.483     34.605  33.805720     3.4461      8.650   226.8895 1.2646e+03    18.2423     -0.428     -0.620    23.7910   997.3650 0.0000e+00
     -0.456     -0.154     9.3332    110.577     34.630  33.837556     3.6199      8.640   226.3420 1.2552e+03    21.8545     -0.456     -0.661    23.8018   997.3623 0.0000e+00
     -0.469     -0.113     9.2287    109.354     34.640  33.852518     3.5614      8.637   228.2528 1.2455e+03    21.8205     -0.460     -0.667    23.8138   997.3594 0.0000e+00
     -0.478     -0.077     9.1056    107.899     34.711  33.923173     2.7132      8.637   232.9573 1.2333e+03    17.7007     -0.467     -0.676    23.8263   997.3562 0.0000e+00
     -0.495     -0.049     8.9828    106.434     34.916  34.120656     1.1494      8.633   235.1275 1.2226e+03    10.0908     -0.482     -0.699    23.8398   997.3528 0.0000e+00
     -0.515     -0.024     8.8824    105.228     35.013  34.209397     0.2948      8.622   233.5857 1.2242e+03     5.9719     -0.509     -0.737    23.8518   997.3498 0.0000e+00
     -0.528      0.010     8.8111    104.367     34.850  34.044163     0.2175      8.607   232.8138 1.2313e+03     5.6537     -0.524     -0.759    23.8605   997.3476 0.0000e+00
     -0.529      0.055     8.7580    103.727     34.641  33.836358     0.2671      8.596   232.9361 1.1815e+03     6.0140     -0.521     -0.755    23.8626   997.3471 0.0000e+00
     -0.515      0.110     8.7215    103.283     34.535  33.727687     0.9981      8.591   232.6553 9.3780e+02    10.6559     -0.514     -0.745    23.8559   997.3488 0.0000e+00
     -0.479      0.167     8.7187    103.230     34.495  33.682180     2.3540      8.587   232.2579 7.8995e+02    19.2075     -0.481     -0.698    23.8458   997.3515 0.0000e+00
     -0.418      0.217     8.7645    103.749     34.488  33.666902     3.0843      8.584   232.0027 1.0367e+03    23.8097     -0.411     -0.598    23.8367   997.3540 0.0000e+00
     -0.345      0.257     8.8523    104.764     34.499  33.669874     3.0920      8.583   231.9778 1.2633e+03    23.6641     -0.339     -0.492    23.8326   997.3552 0.0000e+00
     -0.267      0.281     8.9574    105.982     34.493  33.654644     2.5851      8.580   231.9568 1.2913e+03    18.0693     -0.265     -0.384    23.8285   997.3566 0.0000e+00
     -0.187      0.284     9.0583    107.143     34.458  33.609658     1.6556      8.576   231.7495 1.3207e+03     7.8781     -0.181     -0.262    23.8167   997.3598 0.0000e+00
     -0.109      0.264     9.1456    108.136     34.431  33.570176     1.1467      8.574   231.5362 1.6017e+03     2.3646     -0.107     -0.155    23.8034   997.3634 0.0000e+00
     -0.034      0.226     9.2163    108.933     34.433  33.558024     1.0880      8.573   231.4430 1.7977e+03     1.8760     -0.031     -0.045    23.7923   997.3665 0.0000e+00
      0.032      0.174     9.2668    109.501     34.476  33.589643     1.0589      8.573   231.3107 1.3719e+03     1.8385      0.043      0.062    23.7802   997.3698 0.0000e+00
      0.073      0.111     9.2902    109.768     34.526  33.635138     1.0366      8.572   231.1413 9.5513e+02     1.8467      0.082      0.118    23.7649   997.3736 0.0000e+00
      0.088      0.041     9.2868    109.737     34.552  33.663868     1.0269      8.570   230.9436 1.1952e+03     1.8117      0.092      0.133    23.7438   997.3788 0.0000e+00
      0.086     -0.026     9.2675    109.532     34.564  33.683167     1.0288      8.567   230.8134 1.4284e+03     1.7757      0.090      0.131    23.7218   997.3843 0.0000e+00
      0.067     -0.078     9.2433    109.273     34.549  33.678107     1.0427      8.562   230.9424 1.0329e+03     1.7708      0.073      0.106    23.7066   997.3879 0.0000e+00
      0.030     -0.106     9.2196    109.018     34.528  33.666169     1.0642      8.557   231.2136 8.2252e+02     1.7853      0.035      0.052    23.7011   997.3891 0.0000e+00
     -0.021     -0.113     9.1986    108.791     34.521  33.665763     1.0809      8.550   231.3393 1.1038e+03     1.8203     -0.021     -0.031    23.7070   997.3874 0.0000e+00
     -0.067     -0.105     9.1816    108.604     34.523  33.673205     1.0887      8.544   231.1722 1.2706e+03     1.8328     -0.074     -0.108    23.7201   997.3840 0.0000e+00
     -0.092     -0.087     9.1697    108.474     34.540  33.692697     1.0807      8.540   230.8276 1.2852e+03     1.8066     -0.097     -0.141    23.7348   997.3802 0.0000e+00
     -0.099     -0.064     9.1671    108.451     34.556  33.711053     1.0711      8.539   230.6139 1.2882e+03     1.7652     -0.097     -0.142    23.7475   997.3771 0.0000e+00
     -0.101     -0.041     9.1743    108.542     34.547  33.704754     1.0762      8.537   230.5679 1.2861e+03     1.7578     -0.096     -0.139    23.7573   997.3747 0.0000e+00
     -0.107     -0.024     9.1874    108.702     34.519  33.680003     1.0814      8.536   230.7013 1.2861e+03     1.7827     -0.103     -0.150    23.7646   997.3729 0.0000e+00
     -0.116     -0.015     9.2025    108.884     34.504  33.665646     1.0824      8.535   231.0217 1.2852e+03     1.8047     -0.115     -0.168    23.7691   997.3718 0.0000e+00
     -0.121     -0.010     9.2161    109.048     34.495  33.658099     1.0794      8.535   231.0871 1.2785e+03     1.7937     -0.121     -0.175    23.7725   997.3709 0.0000e+00
     -0.121     -0.005     9.2296    109.211     34.488  33.652216     1.0710      8.534   230.8040 1.2761e+03     1.7484     -0.118     -0.172    23.7760   997.3701 0.0000e+00
     -0.119      0.003     9.2390    109.323     34.494  33.657986     1.0759      8.534   230.6099 1.2774e+03     1.7483     -0.116     -0.169    23.7783   997.3695 0.0000e+00
     -0.118      0.012     9.2419    109.354     34.501  33.664398     1.0955      8.534   230.5468 1.2792e+03     1.7924     -0.117     -0.169    23.7798   997.3691 0.0000e+00
     -0.115      0.020     9.2463    109.403     34.503  33.666271     1.1254      8.534   230.4709 1.2823e+03     1.7909     -0.115     -0.166    23.7817   997.3687 0.0000e+00
     -0.110      0.028     9.2485    109.430     34.518  33.680627     1.1687      8.532   230.5524 1.2855e+03     1.7625     -0.109     -0.158    23.7835   997.3683 0.0000e+00
     -0.102      0.038     9.2449    109.389     34.549  33.711052     1.1949      8.529   230.8445 1.2878e+03     1.7775     -0.101     -0.146    23.7834   997.3684 0.0000e+00
     -0.091      0.047     9.2406    109.336     34.556  33.716822     1.2076      8.525   231.0771 1.2900e+03     1.7752     -0.089     -0.130    23.7812   997.3690 0.0000e+00
     -0.077      0.054     9.2371    109.291     34.527  33.686927     1.2451      8.520   231.1279 1.2914e+03     1.8001     -0.078     -0.112    23.7796   997.3694 0.0000e+00
     -0.061      0.058     9.2341    109.251     34.508  33.666906     1.2925      8.515   231.0275 1.2893e+03     1.9145     -0.061     -0.088    23.7807   997.3691 0.0000e+00
     -0.042      0.059     9.2307    109.207     34.507  33.665137     1.3200      8.511   230.8108 1.2854e+03     1.9784     -0.041     -0.059    23.7823   997.3689 0.0000e+00
     -0.026      0.058     9.2249    109.139     34.508  33.665530     1.3448      8.507   230.7450 1.3110e+03     1.9834     -0.024     -0.035    23.7806   997.3694 0.0000e+00
     -0.012      0.056     9.2200    109.084     34.513  33.671662     1.4021      8.504   231.2639 1.2971e+03     2.0077     -0.011     -0.016    23.7778   997.3701 0.0000e+00
      0.001      0.052     9.2201    109.092     34.515  33.675818     1.4741      8.502   232.0940 1.1811e+03     2.0417      0.000      0.000    23.7760   997.3705 0.0000e+00
      0.014      0.047     9.2162    109.050     34.489  33.652316     1.5047      8.502   232.4360 1.1152e+03     2.0343      0.014      0.019    23.7741   997.3711 0.0000e+00
      0.026      0.043     9.2048    108.915     34.477  33.641353     1.5037      8.501   232.3017 1.1150e+03     1.9841      0.025      0.037    23.7734   997.3714 0.0000e+00
      0.036      0.041     9.1958    108.809     34.507  33.670200     1.5221      8.500   232.0194 1.0876e+03     1.9268      0.036      0.052    23.7758   997.3708 0.0000e+00
      0.045      0.040     9.1931    108.776     34.521  33.683786     1.5537      8.500   232.2059 1.0428e+03     1.8648      0.046      0.066    23.7798   997.3699 0.0000e+00
      0.054      0.040     9.2001    108.858     34.516  33.678689     1.5649      8.498   232.9227 1.0853e+03     1.8247      0.053      0.077    23.7820   997.3694 0.0000e+00
      0.063      0.042     9.2152    109.037     34.509  33.672035     1.5704      8.496   233.1997 1.2002e+03     1.8032      0.062      0.090    23.7822   997.3693 0.0000e+00
      0.073      0.045     9.2296    109.206     34.504  33.666799     1.5779      8.493   232.9747 1.0034e+03     1.8007      0.071      0.103    23.7818   997.3695 0.0000e+00
      0.085      0.049     9.2448    109.386     34.516  33.678845     1.5771      8.485   232.6968 5.9751e+02     1.7953      0.082      0.119    23.7816   997.3696 0.0000e+00
      0.099      0.053     9.2591    109.552     34.530  33.690757     1.5783      8.474   232.5069 5.4453e+02     1.7701      0.098      0.142    23.7818   997.3696 0.0000e+00
      0.114      0.056     9.2668    109.637     34.525  33.683894     1.5755      8.465   232.6571 7.4355e+02     1.7590      0.110      0.160    23.7814   997.3698 0.0000e+00
      0.131      0.059     9.2724    109.701     34.501  33.659324     1.5694      8.457   233.2222 8.8835e+02     1.7591      0.127      0.184    23.7810   997.3700 0.0000e+00
      0.146      0.063     9.2787    109.771     34.490  33.647534     1.5561      8.448   233.6615 1.0282e+03     1.7711      0.147      0.213    23.7813   997.3700 0.0000e+00
      0.159      0.065     9.2798    109.776     34.515  33.668260     1.5365      8.443   233.7526 1.1003e+03     1.7728      0.154      0.224    23.7794   997.3705 0.0000e+00
      0.174      0.067     9.2743    109.698     34.507  33.656073     1.5310      8.441   233.7211 1.0229e+03     1.7797      0.167      0.243    23.7756   997.3715 0.0000e+00
      0.195      0.068     9.2663    109.589     34.482  33.627099     1.5244      8.438   233.5392 9.3275e+02     1.8217      0.193      0.281    23.7743   997.3719 0.0000e+00
      0.215      0.068     9.2584    109.480     34.495  33.635248     1.5085      8.433   233.1882 9.2232e+02     1.8552      0.211      0.307    23.7739   997.3720 0.0000e+00
      0.231      0.068     9.2472    109.334     34.492  33.627673     1.5037      8.428   232.9177 9.0761e+02     1.8571      0.226      0.328    23.7694   997.3733 0.0000e+00
      0.249      0.067     9.2267    109.084     34.465  33.598962     1.5095      8.427   233.0222 8.2873e+02     1.8119      0.245      0.355    23.7622   997.3751 0.0000e+00
      0.266      0.066     9.2025    108.795     34.472  33.605415     1.5090      8.428   233.2478 7.5967e+02     1.7669      0.262      0.380    23.7554   997.3768 0.0000e+00
      0.280      0.066     9.1860    108.604     34.508  33.642227     1.5327      8.429   233.4939 7.2999e+02     1.8375      0.275      0.400    23.7476   997.3787 0.0000e+00
      0.295      0.067     9.1820    108.563     34.528  33.663279     1.5969      8.431   233.8474 8.0919e+02     1.9771      0.288      0.417    23.7405   997.3805 0.0000e+00
      0.312      0.070     9.1903    108.669     34.532  33.669560     1.6350      8.432   233.5643 9.0099e+02     2.0458      0.306      0.444    23.7364   997.3817 0.0000e+00
      0.331      0.073     9.2053    108.853     34.514  33.654720     1.6381      8.431   232.7374 8.1574e+02     2.0455      0.326      0.473    23.7364   997.3817 0.0000e+00
      0.351      0.075     9.2183    109.011     34.468  33.610774     1.6508      8.428   232.4541 7.2519e+02     2.0395      0.344      0.498    23.7386   997.3813 0.0000e+00
      0.371      0.076     9.2278    109.118     34.441  33.582464     1.6758      8.426   232.6335 7.1598e+02     2.0375      0.364      0.528    23.7405   997.3809 0.0000e+00
      0.392      0.076     9.2360    109.199     34.430  33.566273     1.6988      8.425   233.1004 7.3653e+02     2.0221      0.384      0.557    23.7451   997.3799 0.0000e+00
      0.412      0.076     9.2420    109.247     34.413  33.541913     1.7038      8.423   233.7969 7.5493e+02     2.0174      0.405      0.588    23.7493   997.3789 0.0000e+00
      0.431      0.077     9.2380    109.177     34.421  33.541778     1.6924      8.418   233.5702 6.9265e+02     2.0125      0.424      0.614    23.7516   997.3784 0.0000e+00
      0.448      0.080     9.2244    109.002     34.449  33.564625     1.6737      8.412   232.5096 6.1927e+02     1.9303      0.438      0.635    23.7495   997.3790 0.0000e+00
      0.467      0.083     9.2127    108.850     34.453  33.564293     1.6516      8.407   232.0729 6.1208e+02     1.8429      0.457      0.662    23.7413   997.3811 0.0000e+00
      0.489      0.086     9.2053    108.733     34.437  33.537764     1.6412      8.406   232.5060 6.5004e+02     1.8405      0.479      0.695    23.7286   997.3844 0.0000e+00
      0.513      0.091     9.2027    108.643     34.416  33.497695     1.6345      8.407   233.1850 6.5305e+02     1.8364      0.502      0.728    23.7152   997.3877 0.0000e+00
      0.538      0.095     9.2057    108.599     34.405  33.460566     1.6395      8.412   233.5722 6.0807e+02     1.7927      0.528      0.766    23.7107   997.3889 0.0000e+00
      0.563      0.096     9.2114    108.592     34.440  33.469582     1.6669      8.418   233.4012 6.0429e+02     1.7717      0.552      0.801    23.7073   997.3899 0.0000e+00
      0.588      0.093     9.2194    108.629     34.470  33.479750     1.6894      8.423   232.7525 6.1567e+02     1.7790      0.576      0.835    23.6949   997.3930 0.0000e+00
      0.614      0.088     9.2270    108.682     34.460  33.456551     1.7030      8.428   232.2685 6.0505e+02     1.7823      0.603      0.875    23.6648   997.4004 0.0000e+00
      0.638      0.082     9.2290    108.683     34.453  33.442912     1.7192      8.433   232.3669 6.0061e+02     1.7788      0.629      0.912    23.6201   997.4114 0.0000e+00
      0.658      0.076     9.2242    108.617     34.455  33.441766     1.7379      8.437   232.7379 5.8268e+02     1.7692      0.646      0.937    23.5819   997.4207 0.0000e+00
      0.673      0.071     9.2147    108.500     34.457  33.442685     1.7552      8.438   233.0546 5.5165e+02     1.7650      0.660      0.957    23.5543   997.4275 0.0000e+00
      0.689      0.068     9.1993    108.312     34.472  33.454013     1.7638      8.438   233.3567 5.2460e+02     1.7925      0.675      0.979    23.5359   997.4320 0.0000e+00
      0.705      0.067     9.1770    108.037     34.474  33.451810     1.7468      8.438   233.5517 5.1803e+02     1.8076      0.691      1.002    23.5269   997.4343 0.0000e+00
      0.722      0.069     9.1520    107.730     34.442  33.416042     1.7139      8.438   233.3465 5.5296e+02     1.7844      0.707      1.025    23.5235   997.4352 0.0000e+00
      0.740      0.072     9.1313    107.472     34.433  33.402311     1.6956      8.436   233.1129 5.6175e+02     1.7739      0.726      1.053    23.5222   997.4356 0.0000e+00
      0.759      0.074     9.1195    107.321     34.448  33.412706     1.6987      8.432   233.1355 5.0032e+02     1.7791      0.745      1.080    23.5190   997.4365 0.0000e+00
      0.779      0.076     9.1185    107.298     34.454  33.414796     1.7171      8.427   233.3629 4.4677e+02     1.7814      0.763      1.107    23.5130   997.4380 0.0000e+00
      0.799      0.078     9.1277    107.397     34.471  33.427572     1.7353      8.421   233.9698 4.2699e+02     1.8014      0.784      1.137    23.5055   997.4399 0.0000e+00
      0.818      0.081     9.1421    107.555     34.487  33.440254     1.7453      8.416   234.6224 4.3064e+02     1.8239      0.804      1.165    23.4982   997.4417 0.0000e+00
      0.838      0.084     9.1538    107.684     34.491  33.441200     1.7605      8.412   234.8002 4.4525e+02     1.8246      0.821      1.191    23.4919   997.4434 0.0000e+00
      0.859      0.089     9.1578    107.726     34.491  33.439008     1.7716      8.409   234.7437 4.2524e+02     1.8093      0.841      1.220    23.4868   997.4447 0.0000e+00
      0.883      0.094     9.1517    107.652     34.465  33.413738     1.7758      8.408   234.6268 3.8857e+02     1.7698      0.866      1.256    23.4823   997.4459 0.0000e+00
      0.908      0.098     9.1369    107.477     34.440  33.389508     1.7938      8.408   234.4197 3.6605e+02     1.7411      0.891      1.292    23.4769   997.4473 0.0000e+00
      0.934      0.098     9.1172    107.239     34.454  33.399903     1.8071      8.410   234.9067 3.4921e+02     1.7574      0.914      1.325    23.4714   997.4487 0.0000e+00
      0.963      0.096     9.0974    106.995     34.471  33.412491     1.8157      8.414   235.9548 3.3475e+02     1.8027      0.944      1.369    23.4682   997.4497 0.0000e+00
      0.992      0.091     9.0858    106.847     34.477  33.414782     1.8449      8.416   236.3372 3.2437e+02     1.8303      0.976      1.416    23.4688   997.4497 0.0000e+00
      1.013      0.085     9.0849    106.828     34.493  33.427597     1.8741      8.417   236.0034 3.1725e+02     1.7958      0.995      1.444    23.4696   997.4495 0.0000e+00
      1.030      0.080     9.0895    106.876     34.508  33.440508     1.8827      8.418   235.5322 3.0990e+02     1.7459      1.009      1.463    23.4663   997.4504 0.0000e+00
      1.047      0.076     9.0916    106.897     34.513  33.443963     1.8793      8.416   235.4579 3.0128e+02     1.7519      1.026      1.489    23.4597   997.4521 0.0000e+00
      1.065      0.076     9.0896    106.871     34.541  33.469359     1.8599      8.412   236.2237 2.9341e+02     1.8023      1.045      1.515    23.4537   997.4536 0.0000e+00
      1.084      0.080     9.0848    106.808     34.568  33.493714     1.8298      8.408   237.3919 2.8807e+02     1.8313      1.061      1.539    23.4496   997.4547 0.0000e+00
      1.105      0.084     9.0709    106.638     34.561  33.484589     1.8183      8.407   237.9668 2.8312e+02     1.8073      1.081      1.568    23.4467   997.4555 0.0000e+00
      1.128      0.087     9.0469    106.348     34.565  33.485951     1.8257      8.408   237.8407 2.7555e+02     1.7745      1.107      1.606    23.4452   997.4559 0.0000e+00
      1.152      0.090     9.0234    106.065     34.592  33.510179     1.8330      8.408   237.5017 2.6698e+02     1.7948      1.131      1.640    23.4436   997.4564 0.0000e+00
      1.176      0.093     9.0083    105.877     34.610  33.523672     1.8281      8.407   237.3095 2.5928e+02     1.8235      1.154      1.674    23.4408   997.4572 0.0000e+00
      1.199      0.095     8.9989    105.752     34.614  33.522163     1.8177      8.406   237.5818 2.5365e+02     1.8262      1.175      1.705    23.4372   997.4582 0.0000e+00
      1.222      0.095     8.9937    105.667     34.591  33.491926     1.8200      8.406   238.1265 2.4894e+02     1.8277      1.196      1.734    23.4340   997.4590 0.0000e+00
      1.247      0.094     8.9945    105.642     34.521  33.411920     1.8387      8.406   238.4755 2.4376e+02     1.8741      1.223      1.774    23.4305   997.4600 0.0000e+00
      1.273      0.091     9.0003    105.649     34.443  33.316344     1.8707      8.407   238.6185 2.3927e+02     1.9613      1.249      1.812    23.4255   997.4614 0.0000e+00
      1.297      0.086     9.0078    105.647     34.381  33.224764     1.8947      8.408   238.5641 2.3547e+02     1.9983      1.272      1.845    23.4180   997.4633 0.0000e+00
      1.320      0.081     9.0127    105.587     34.325  33.129600     1.8946      8.410   238.4201 2.3176e+02     1.9938      1.296      1.880    23.4072   997.4660 0.0000e+00
      1.339      0.076     9.0115    105.426     34.299  33.054128     1.8865      8.411   238.5122 2.2865e+02     1.9724      1.314      1.906    23.3923   997.4696 0.0000e+00
      1.354      0.071     9.0090    105.232     34.312  33.010238     1.9275      8.413   238.6447 2.2545e+02     1.9354      1.328      1.926    23.3637   997.4766 0.0000e+00
      1.371      0.067     9.0148    105.132     34.340  32.979614     2.0168      8.415   238.6459 2.2129e+02     1.8746      1.344      1.950    23.3172   997.4877 0.0000e+00
      1.388      0.066     9.0394    105.262     34.352  32.937628     2.0646      8.416   238.6992 2.1729e+02     1.7943      1.361      1.974    23.2587   997.5019 0.0000e+00
      1.406      0.067     9.1027    105.859     34.346  32.883275     2.0643      8.415   238.7732 2.1426e+02     1.7509      1.379      2.000    23.1837   997.5199 0.0000e+00
      1.423      0.070     9.2212    107.102     34.337  32.830056     2.0482      8.414   238.7660 2.1156e+02     1.7434      1.395      2.023    23.0978   997.5403 0.0000e+00
      1.438      0.073     9.3797    108.812     34.353  32.801784     2.0248      8.414   238.7838 2.0869e+02     1.7369      1.410      2.046    23.0108   997.5610 0.0000e+00
      1.456      0.078     9.5498    110.682     34.381  32.795210     2.0161      8.413   238.9026 2.0550e+02     1.7702      1.426      2.069    22.9310   997.5801 0.0000e+00
      1.476      0.082     9.7177    112.579     34.351  32.750530     2.0120      8.412   238.9977 2.0222e+02     1.8173      1.447      2.099    22.8639   997.5960 0.0000e+00
      1.499      0.086     9.8728    114.362     34.309  32.705752     2.0016      8.410   238.9879 1.9852e+02     1.8154      1.471      2.132    22.8016   997.6107 0.0000e+00
      1.524      0.089    10.0044    115.882     34.303  32.698027     1.9944      8.409   238.8698 1.9403e+02     1.8131      1.494      2.166    22.7318   997.6272 0.0000e+00
      1.548      0.089    10.1042    117.017     34.267  32.657120     1.9937      8.408   238.6028 1.9016e+02     1.8220      1.519      2.204    22.6742   997.6409 0.0000e+00
      1.571      0.087    10.1675    117.671     34.223  32.591909     2.0108      8.409   238.4262 1.8673e+02     1.8242      1.540      2.234    22.6595   997.6443 0.0000e+00
      1.593      0.084    10.2021    117.932     34.217  32.544134     2.1668      8.412   238.4551 1.8303e+02     1.8728      1.562      2.265    22.6571   997.6449 0.0000e+00
      1.615      0.082    10.2205    117.997     34.243  32.523638     2.4490      8.412   238.4352 1.8052e+02     1.9843      1.587      2.301    22.6552   997.6456 0.0000e+00
      1.634      0.082    10.2355    118.038     34.297  32.534407     2.6045      8.410   238.3582 1.7891e+02     2.0570      1.604      2.326    22.6585   997.6449 0.0000e+00
      1.651      0.082    10.2587    118.188     34.348  32.547362     2.6086      8.409   238.3848 1.7681e+02     2.0636      1.618      2.347    22.6232   997.6531 0.0000e+00
      1.671      0.082    10.2959    118.501     34.391  32.553308     2.5411      8.410   238.4986 1.7410e+02     2.0980      1.637      2.374    22.5492   997.6703 0.0000e+00
      1.695      0.083    10.3453    118.959     34.415  32.542790     2.4299      8.412   238.5302 1.7075e+02     2.1774      1.663      2.412    22.4784   997.6869 0.0000e+00
      1.719      0.085    10.3943    119.416     34.387  32.483598     2.3746      8.414   238.5084 1.6681e+02     2.2374      1.687      2.447    22.4230   997.6999 0.0000e+00
      1.740      0.087    10.4331    119.747     34.344  32.408722     2.3752      8.417   238.5790 1.6300e+02     2.2661      1.706      2.474    22.3734   997.7114 0.0000e+00
      1.760      0.089    10.4671    120.012     34.306  32.335474     2.3772      8.419   238.6104 1.5930e+02     2.2622      1.725      2.502    22.3212   997.7235 0.0000e+00
      1.782      0.089    10.5118    120.393     34.238  32.232512     2.4414      8.421   238.5434 1.5493e+02     2.2226      1.747      2.534    22.2728   997.7348 0.0000e+00
      1.805      0.089    10.5830    121.069     34.157  32.115645     2.5791      8.424   238.4578 1.5062e+02     2.2131      1.769      2.566    22.2290   997.7449 0.0000e+00
      1.829      0.090    10.6818    122.053     34.080  32.001184     2.6634      8.427   238.3493 1.4747e+02     2.2463      1.793      2.601    22.1792   997.7564 0.0000e+00
      1.854      0.090    10.8017    123.275     33.978  31.863839     2.6896      8.429   238.2637 1.4557e+02     2.2634      1.820      2.640    22.1233   997.7693 0.0000e+00
      1.877      0.088    10.9332    124.636     33.872  31.724119     2.7833      8.431   238.2832 1.4457e+02     2.2558      1.842      2.672    22.0675   997.7821 0.0000e+00
      1.897      0.085    11.0591    125.934     33.827  31.644402     2.9468      8.432   238.4141 1.4357e+02     2.2527      1.860      2.697    22.0089   997.7954 0.0000e+00
      1.919      0.083    11.1642    126.993     33.818  31.597977     3.0444      8.432   238.3826 1.4167e+02     2.2592      1.881      2.728    21.9437   997.8103 0.0000e+00
      1.941      0.081    11.2409    127.725     33.800  31.543478     3.0530      8.433   238.1603 1.3928e+02     2.2687      1.905      2.763    21.8808   997.8246 0.0000e+00
      1.961      0.080    11.2814    128.040     33.789  31.493061     3.0332      8.436   238.2217 1.3739e+02     2.2691      1.924      2.790    21.8240   997.8374 0.0000e+00
      1.979      0.080    11.2823    127.891     33.771  31.432531     3.0049      8.438   238.5226 1.3566e+02     2.2308      1.939      2.813    21.7688   997.8499 0.0000e+00
      1.999      0.080    11.2534    127.394     33.767  31.382667     2.9799      8.439   238.7004 1.3316e+02     2.1990      1.960      2.843    21.7120   997.8627 0.0000e+00
      2.021      0.080    11.2091    126.742     33.760  31.334287     2.9736      8.439   238.7379 1.3059e+02     2.2447      1.983      2.876    21.6558   997.8754 0.0000e+00
      2.042      0.080    11.1574    126.038     33.681  31.228258     3.0411      8.439   238.8036 1.2870e+02     2.2918      2.003      2.905    21.5987   997.8882 0.0000e+00
      2.061      0.081    11.1033    125.291     33.600  31.115924     3.1541      8.438   239.0638 1.2676e+02     2.2775      2.021      2.932    21.5354   997.9024 0.0000e+00
      2.081      0.082    11.0557    124.558     33.593  31.054764     3.2046      8.437   239.2168 1.2461e+02     2.2684      2.040      2.960    21.4611   997.9189 0.0000e+00
      2.102      0.083    11.0224    123.943     33.602  30.996354     3.2018      8.435   239.1919 1.2249e+02     2.2799      2.060      2.989    21.3946   997.9338 0.0000e+00
      2.124      0.084    11.0002    123.440     33.593  30.917244     3.1807      8.435   239.4510 1.2028e+02     2.2862      2.082      3.020    21.3570   997.9420 0.0000e+00
      2.147      0.085    10.9752    122.909     33.606  30.859620     3.1400      8.434   240.1122 1.1810e+02     2.2787      2.105      3.053    21.3097   997.9526 0.0000e+00
      2.170      0.086    10.9358    122.229     33.622  30.807173     3.1081      8.433   241.0779 1.1607e+02     2.2544      2.128      3.086    21.2237   997.9716 0.0000e+00
      2.191      0.086    10.8844    121.425     33.605  30.727200     3.0978      8.432   242.1791 1.1416e+02     2.2552      2.149      3.118    21.1193   997.9944 0.0000e+00
      2.211      0.086    10.8364    120.658     33.596  30.654036     3.1032      8.431   242.7570 1.1211e+02     2.2222      2.168      3.145    21.0121   998.0178 0.0000e+00
      2.233      0.086    10.8029    120.041     33.636  30.620470     3.1208      8.431   242.6446 1.0975e+02     2.1181      2.189      3.174    20.9075   998.0405 0.0000e+00
      2.256      0.086    10.7815    119.557     33.663  30.575081     3.1458      8.431   242.7996 1.0768e+02     2.0776      2.214      3.210    20.8078   998.0621 0.0000e+00
      2.279      0.085    10.7668    119.154     33.640  30.485865     3.1624      8.430   243.5981 1.0626e+02     2.0930      2.236      3.242    20.7139   998.0823 0.0000e+00
      2.300      0.085    10.7558    118.801     33.651  30.430031     3.1662      8.429   244.8996 1.0475e+02     2.0741      2.255      3.269    20.6186   998.1026 0.0000e+00
      2.322      0.084    10.7489    118.505     33.696  30.407535     3.1912      8.428   246.4908 1.0283e+02     2.0462      2.276      3.302    20.5130   998.1252 0.0000e+00
      2.344      0.084    10.7483    118.287     33.689  30.340692     3.2485      8.428   247.3510 1.0111e+02     2.0503      2.300      3.336    20.4063   998.1479 0.0000e+00
      2.364      0.085    10.7605    118.208     33.663  30.256291     3.2873      8.428   247.3844 9.9440e+01     2.0262      2.318      3.362    20.3066   998.1688 0.0000e+00
      2.385      0.088    10.7904    118.320     33.682  30.211865     3.2870      8.428   247.8406 9.7380e+01     1.9508      2.337      3.390    20.2083   998.1894 0.0000e+00
      2.407      0.090    10.8322    118.605     33.707  30.184168     3.2534      8.428   248.8226 9.5212e+01     1.8927      2.359      3.423    20.1130   998.2094 0.0000e+00
      2.430      0.093    10.8844    119.056     33.665  30.111710     3.2018      8.427   250.2245 9.3023e+01     1.8477      2.382      3.455    20.0257   998.2276 0.0000e+00
      2.455      0.095    10.9563    119.669     33.560  29.970270     3.1662      8.427   252.2288 9.0868e+01     1.7998      2.408      3.492    19.9376   998.2458 0.0000e+00
      2.481      0.095    11.0503    120.399     33.468  29.806463     3.1518      8.427   253.9556 8.9046e+01     1.7407      2.433      3.529    19.8370   998.2666 0.0000e+00
      2.506      0.096    11.1489    121.102     33.412  29.653875     3.1667      8.426   254.5833 8.7433e+01     1.6577      2.458      3.565    19.7547   998.2835 0.0000e+00
      2.529      0.097    11.2281    121.583     33.379  29.521138     3.1993      8.425   254.5701 8.5692e+01     1.5821      2.481      3.599    19.7271   998.2892 0.0000e+00
      2.552      0.099    11.2746    121.721     33.362  29.406988     3.2161      8.425   254.9148 8.3805e+01     1.5802      2.501      3.629    19.6734   998.3001 0.0000e+00
      2.576      0.102    11.2829    121.479     33.330  29.288782     3.2397      8.424   255.5676 8.1846e+01     1.6027      2.525      3.663    19.5323   998.3287 0.0000e+00
      2.603      0.104    11.2555    120.900     33.284  29.170452     3.4672      8.424   256.4399 7.9744e+01     1.5260      2.552      3.702    19.3704   998.3613 0.0000e+00
      2.633      0.106    11.2052    120.119     33.228  29.054830     3.8862      8.423   257.5460 7.7558e+01     1.4067      2.581      3.744    19.2144   998.3925 0.0000e+00
      2.662      0.108    11.1511    119.295     33.133  28.905923     4.1184      8.423   258.1001 7.5708e+01     1.3725      2.612      3.788    19.0615   998.4227 0.0000e+00
      2.689      0.110    11.1071    118.535     32.990  28.702379     4.1327      8.422   258.1499 7.4305e+01     1.3747      2.638      3.825    18.9248   998.4495 0.0000e+00
      2.715      0.111    11.0758    117.866     32.860  28.497161     4.1115      8.421   258.4927 7.2905e+01     1.3358      2.661      3.859    18.8079   998.4723 0.0000e+00
      2.742      0.112    11.0519    117.261     32.775  28.327980     3.9409      8.421   258.9750 7.1347e+01     1.2628      2.689      3.901    18.7163   998.4901 0.0000e+00
      2.771      0.113    11.0307    116.716     32.705  28.179439     3.6383      8.421   259.2492 6.9715e+01     1.1792      2.717      3.941    18.6250   998.5078 0.0000e+00
      2.801      0.113    11.0177    116.296     32.625  28.033446     3.4786      8.421   259.5703 6.7959e+01     1.1448      2.746      3.982    18.5045   998.5309 0.0000e+00
      2.832      0.112    11.0229    116.067     32.554  27.895068     3.4573      8.421   260.0181 6.6242e+01     1.1421      2.779      4.030    18.3606   998.5582 0.0000e+00
      2.862      0.110    11.0480    116.025     32.510  27.775162     3.3553      8.420   260.5339 6.4826e+01     1.1129      2.809      4.073    18.2055   998.5874 0.0000e+00
      2.888      0.109    11.0863    116.110     32.478  27.662147     3.1645      8.419   260.9889 6.3660e+01     1.0870      2.832      4.108    18.0682   998.6132 0.0000e+00
      2.913      0.108    11.1258    116.213     32.437  27.543632     3.0574      8.417   261.2172 6.2611e+01     1.0909      2.857      4.143    17.9612   998.6330 0.0000e+00
      2.939      0.106    11.1585    116.262     32.386  27.420674     3.0487      8.417   261.3154 6.1571e+01     1.0947      2.882      4.181    17.8452   998.6544 0.0000e+00
      2.967      0.104    11.1829    116.244     32.350  27.317377     3.0422      8.418   261.3164 6.0359e+01     1.0346      2.908      4.218    17.7140   998.6784 0.0000e+00
      2.996      0.102    11.1944    116.115     32.345  27.246255     3.0393      8.418   261.4005 5.9051e+01     0.9542      2.938      4.262    17.5798   998.7028 0.0000e+00
      3.025      0.100    11.1913    115.855     32.356  27.195111     3.0401      8.418   262.1611 5.7963e+01     0.9427      2.969      4.307    17.4483   998.7265 0.0000e+00
      3.050      0.097    11.1840    115.562     32.364  27.143027     3.0347      8.418   263.2847 5.7112e+01     0.9610      2.992      4.339    17.3272   998.7481 0.0000e+00
      3.070      0.093    11.1845    115.347     32.335  27.060548     3.0172      8.418   263.8874 5.6216e+01     0.9460      3.010      4.365    17.2141   998.7682 0.0000e+00
      3.092      0.092    11.1956    115.238     32.285  26.959119     2.9850      8.417   264.1996 5.5288e+01     0.8919      3.032      4.397    17.1114   998.7864 0.0000e+00
      3.115      0.092    11.2179    115.240     32.249  26.868239     2.9743      8.416   264.3064 5.4514e+01     0.8638      3.055      4.431    17.0196   998.8025 0.0000e+00
      3.138      0.094    11.2432    115.273     32.224  26.786422     2.9835      8.415   264.1460 5.3779e+01     0.8685      3.077      4.463    16.9308   998.8179 0.0000e+00
      3.162      0.098    11.2617    115.237     32.230  26.731111     3.0008      8.413   264.2392 5.2906e+01     0.8500      3.100      4.497    16.8398   998.8337 0.0000e+00
      3.188      0.102    11.2727    115.107     32.279  26.706942     3.0268      8.412   265.0891 5.1974e+01     0.8370      3.125      4.533    16.7478   998.8496 0.0000e+00
      3.214      0.104    11.2702    114.798     32.342  26.684454     3.0383      8.412   266.4201 5.1030e+01     0.8423      3.151      4.571    16.6528   998.8659 0.0000e+00
      3.243      0.106    11.2465    114.242     32.402  26.649447     3.0443      8.412   267.1683 4.9995e+01     0.8487      3.180      4.611    16.5579   998.8821 0.0000e+00
      3.272      0.108    11.2057    113.496     32.452  26.600780     3.0478      8.412   267.4246 4.9015e+01     0.8491      3.210      4.654    16.4683   998.8973 0.0000e+00
      3.298      0.110    11.1572    112.665     32.490  26.540006     3.0277      8.412   267.3684 4.8221e+01     0.8143      3.236      4.692    16.3727   998.9134 0.0000e+00
      3.325      0.110    11.1041    111.792     32.536  26.485512     3.0002      8.412   266.9184 4.7472e+01     0.7878      3.259      4.728    16.2546   998.9331 0.0000e+00
      3.353      0.108    11.0417    110.835     32.603  26.449320     2.9938      8.412   266.8027 4.6624e+01     0.8248      3.288      4.769    16.1208   998.9553 0.0000e+00
      3.383      0.103    10.9655    109.737     32.680  26.419518     2.9938      8.413   267.6036 4.5726e+01     0.8679      3.317      4.811    15.9832   998.9778 0.0000e+00
      3.413      0.098    10.8782    108.533     32.744  26.378842     2.9996      8.413   268.8587 4.4952e+01     0.8173      3.347      4.854    15.8399   999.0010 0.0000e+00
      3.438      0.093    10.7872    107.321     32.801  26.338045     3.0214      8.414   269.5019 4.4351e+01     0.7045      3.375      4.894    15.6966   999.0241 0.0000e+00
      3.458      0.089    10.6844    106.035     32.856  26.306794     3.0316      8.414   269.7015 4.3787e+01     0.6506      3.391      4.919    15.5606   999.0457 0.0000e+00
      3.476      0.087    10.5574    104.533     32.880  26.254672     3.0272      8.413   269.9819 4.3198e+01     0.6576      3.407      4.941    15.4201   999.0678 0.0000e+00
      3.496      0.089    10.4129    102.860     32.920  26.215284     3.0550      8.411   270.0539 4.2650e+01     0.6586      3.427      4.971    15.2713   999.0910 0.0000e+00
      3.517      0.094    10.2567    101.066     33.010  26.211125     3.1248      8.410   269.9689 4.2095e+01     0.6629      3.449      5.002    15.1381   999.1114 0.0000e+00
      3.542      0.099    10.0873     99.128     33.106  26.204300     3.1698      8.410   270.5899 4.1422e+01     0.6764      3.472      5.036    15.0278   999.1282 0.0000e+00
      3.571      0.104     9.9101     97.100     33.209  26.196103     3.1658      8.410   271.7972 4.0627e+01     0.6580      3.501      5.079    14.9232   999.1441 0.0000e+00
      3.602      0.109     9.7255     95.005     33.299  26.175349     3.1278      8.409   272.6062 3.9835e+01     0.6363      3.534      5.126    14.8158   999.1603 0.0000e+00
      3.629      0.112     9.5292     92.813     33.373  26.143589     3.0739      8.408   273.0577 3.9139e+01     0.6435      3.559      5.162    14.7027   999.1772 0.0000e+00
      3.655      0.113     9.3274     90.575     33.472  26.129194     3.0439      8.406   273.2994 3.8397e+01     0.6467      3.582      5.196    14.5786   999.1954 0.0000e+00
      3.685      0.111     9.1261     88.349     33.591  26.128071     3.0416      8.406   273.3770 3.7591e+01     0.6426      3.613      5.241    14.4393   999.2159 0.0000e+00
      3.716      0.106     8.9186     86.089     33.708  26.129908     3.0634      8.406   273.5657 3.6913e+01     0.6600      3.645      5.287    14.2978   999.2362 0.0000e+00
      3.745      0.100     8.6896     83.660     33.839  26.151301     3.0995      8.406   273.9470 3.6349e+01     0.6928      3.672      5.326    14.1666   999.2550 0.0000e+00
      3.772      0.095     8.4357     81.026     33.990  26.196317     3.1147      8.405   274.4592 3.5853e+01     0.7120      3.701      5.367    14.0306   999.2742 0.0000e+00
      3.794      0.090     8.1682     78.286     34.121  26.230018     3.1002      8.404   274.8548 3.5488e+01     0.6953      3.724      5.401    13.8854   999.2944 0.0000e+00
      3.811      0.087     7.8877     75.443     34.218  26.241498     3.0890      8.404   275.1166 3.5161e+01     0.6549      3.737      5.419    13.7503   999.3129 0.0000e+00
      3.828      0.087     7.5903     72.460     34.334  26.271598     3.0828      8.402   275.3871 3.4696e+01     0.6172      3.751      5.441    13.6343   999.3288 0.0000e+00
      3.851      0.091     7.2757     69.338     34.493  26.340116     3.0595      8.400   275.6303 3.4118e+01     0.5996      3.777      5.478    13.5290   999.3430 0.0000e+00
      3.876      0.098     6.9410     66.035     34.688  26.435470     3.0410      8.399   275.6488 3.3577e+01     0.6052      3.801      5.514    13.4322   999.3560 0.0000e+00
      3.902      0.105     6.5981     62.636     34.911  26.536252     3.0417      8.398   275.6098 3.3061e+01     0.6193      3.824      5.546    13.3406   999.3682 0.0000e+00
      3.931      0.109     6.2677     59.346     35.111  26.606948     3.0774      8.396   276.0195 3.2496e+01     0.6383      3.854      5.589    13.2522   999.3798 0.0000e+00
      3.962      0.109     5.9521     56.219     35.277  26.655729     3.1432      8.396   276.7304 3.1882e+01     0.6383      3.886      5.637    13.1773   999.3897 0.0000e+00
      3.993      0.107     5.6491     53.233     35.409  26.681868     3.1773      8.395   277.4936 3.1295e+01     0.6207      3.917      5.681    13.1112   999.3983 0.0000e+00
      4.021      0.105     5.3601     50.383     35.499  26.669135     3.1602      8.394   278.3647 3.0835e+01     0.6216      3.945      5.722    13.0123   999.4111 0.0000e+00
      4.045      0.102     5.0879     47.694     35.559  26.628574     3.1010      8.392   279.1749 3.0445e+01     0.6495      3.967      5.755    12.8808   999.4279 0.0000e+00
      4.066      0.101     4.8338     45.185     35.601  26.572014     3.0258      8.390   279.5468 2.9985e+01     0.6958      3.985      5.780    12.7736   999.4414 0.0000e+00
      4.090      0.101     4.5956     42.835     35.702  26.556166     2.9872      8.390   279.5057 2.9476e+01     0.7228      4.009      5.814    12.6802   999.4530 0.0000e+00
      4.117      0.104     4.3767     40.679     35.917  26.627179     2.9730      8.389   279.7106 2.9019e+01     0.7130      4.037      5.855    12.5644   999.4673 0.0000e+00
      4.145      0.108     4.1757     38.711     36.171  26.732652     2.9232      8.387   280.2169 2.8602e+01     0.7410      4.065      5.896    12.4398   999.4825 0.0000e+00
      4.173      0.110     3.9923     36.921     36.301  26.752803     2.8451      8.384   280.6375 2.8121e+01     0.8330      4.092      5.935    12.3184   999.4970 0.0000e+00
      4.203      0.110     3.8380     35.411     36.216  26.616964     2.8001      8.384   280.9240 2.7579e+01     0.8749      4.122      5.978    12.1886   999.5124 0.0000e+00
      4.232      0.110     3.7237     34.282     36.045  26.422468     2.7861      8.383   281.1002 2.7055e+01     0.8543      4.151      6.021    12.0595   999.5276 0.0000e+00
      4.261      0.111     3.6556     33.585     35.972  26.304387     2.7284      8.382   281.2188 2.6565e+01     0.8453      4.178      6.060    11.9491   999.5404 0.0000e+00
      4.287      0.113     3.6449     33.422     36.004  26.267711     2.6307      8.379   281.3251 2.6132e+01     0.8642      4.205      6.098    11.8450   999.5523 0.0000e+00
      4.312      0.117     3.7037     33.904     36.027  26.232730     2.5763      8.377   281.6976 2.5731e+01     0.8862      4.228      6.132    11.7414   999.5639 0.0000e+00
      4.340      0.118     3.8281     34.992     35.954  26.135147     2.5563      8.375   282.2804 2.5267e+01     0.8831      4.254      6.169    11.6477   999.5743 0.0000e+00
      4.374      0.117     4.0077     36.581     35.884  26.039424     2.5362      8.374   282.6072 2.4722e+01     0.8919      4.289      6.220    11.5590   999.5841 0.0000e+00
      4.411      0.114     4.2335     38.585     36.018  26.090375     2.4372      8.371   282.8958 2.4181e+01     0.9593      4.327      6.276    11.4714   999.5937 0.0000e+00
      4.443      0.111     4.4904     40.871     36.640  26.497368     2.2531      8.369   283.3616 2.3762e+01     1.0423      4.361      6.325    11.3998   999.6015 0.0000e+00
      4.468      0.106     4.7644     43.317     37.599  27.153692     2.1558      8.367   283.5925 2.3470e+01     1.0769      4.384      6.358    11.3435   999.6076 0.0000e+00
      4.488      0.101     5.0402     45.786     38.016  27.427682     2.1370      8.364   283.5370 2.3172e+01     1.0825      4.401      6.383    11.2819   999.6141 0.0000e+00
      4.509      0.097     5.2992     48.118     37.733  27.208910     2.0165      8.362   283.6361 2.2777e+01     1.2087      4.420      6.411    11.2130   999.6214 0.0000e+00
      4.535      0.098     5.5325     50.239     37.506  27.046347     1.8172      8.359   284.0172 2.2341e+01     1.4551      4.447      6.449    11.1532   999.6279 0.0000e+00
      4.564      0.102     5.7376     52.117     37.759  27.238635     1.7214      8.354   284.3585 2.1961e+01     1.5718      4.476      6.493    11.1048   999.6335 0.0000e+00
      4.589      0.107     5.9112     53.702     38.471  27.757374     1.7075      8.349   284.4931 2.1615e+01     1.5705      4.501      6.528    11.0647   999.6378 0.0000e+00
      4.614      0.108     6.0538     54.970     39.255  28.306098     1.6405      8.344   284.5268 2.1185e+01     1.7013      4.522      6.558    11.0437   999.6399 0.0000e+00
      4.645      0.104     6.1612     55.875     39.732  28.607027     1.5360      8.341   284.5940 2.0670e+01     1.9412      4.553      6.604    11.0489   999.6394 0.0000e+00
      4.678      0.099     6.2228     56.350     39.975  28.730985     1.4761      8.339   284.7026 2.0250e+01     2.0456      4.590      6.658    11.0675   999.6377 0.0000e+00
      4.703      0.094     6.2360     56.400     40.116  28.789607     1.4538      8.337   284.8081 1.9979e+01     2.0462      4.616      6.695    11.0839   999.6365 0.0000e+00
      4.722      0.088     6.2092     56.103     40.189  28.808167     1.3958      8.335   284.9236 1.9733e+01     2.1121      4.630      6.715    11.0669   999.6387 0.0000e+00
      4.740      0.083     6.1504     55.530     40.254  28.828465     1.3133      8.333   285.0661 1.9456e+01     2.2203      4.648      6.741    10.9997   999.6457 0.0000e+00
      4.759      0.081     6.0635     54.719     40.300  28.844643     1.2792      8.330   285.4991 1.9146e+01     2.2727      4.668      6.770    10.9277   999.6531 0.0000e+00
      4.779      0.081     5.9530     53.710     40.267  28.813402     1.2704      8.326   286.2869 1.8816e+01     2.3194      4.686      6.796    10.8765   999.6583 0.0000e+00
      4.800      0.082     5.8257     52.557     40.208  28.767982     1.1718      8.323   287.1917 1.8501e+01     2.7522      4.706      6.825    10.8345   999.6625 0.0000e+00
      4.822      0.079     5.6942     51.367     40.172  28.739626     0.9968      8.320   288.1788 1.8205e+01     3.5078      4.729      6.859    10.8012   999.6660 0.0000e+00
      4.847      0.072     5.5692     50.233     40.157  28.724356     0.9068      8.317   288.9292 1.7915e+01     3.9182      4.752      6.893    10.7802   999.6683 0.0000e+00
      4.869      0.063     5.4526     49.171     40.147  28.710238     0.9072      8.314   289.2095 1.7678e+01     3.9776      4.778      6.930    10.7732   999.6690 0.0000e+00
      4.884      0.057     5.3467     48.204     40.139  28.695814     0.9061      8.312   289.4170 1.7554e+01     3.9967      4.793      6.952    10.7725   999.6691 0.0000e+00
      4.890      0.055     5.2553     47.368     40.124  28.676853     0.8930      8.310   289.7179 1.7479e+01     4.1485      4.795      6.954    10.7696   999.6694 0.0000e+00
      4.896      0.058     5.1795     46.676     39.858  28.480973     0.8702      8.306   289.7509 1.7350e+01     4.4699      4.799      6.961    10.7639   999.6700 0.0000e+00
      4.907      0.063     5.1181     46.116     39.428  28.167459     0.8468      8.302   289.5570 1.7122e+01     4.6713      4.810      6.976    10.7545   999.6710 0.0000e+00
      4.926      0.070     5.0716     45.682     39.291  28.058631     0.8363      8.300   289.6109 1.6767e+01     4.7152      4.828      7.003    10.7433   999.6721 0.0000e+00
      4.952      0.076     5.0394     45.369     39.218  27.989974     0.8377      8.299   289.9714 1.6351e+01     4.7062      4.855      7.042    10.7314   999.6735 0.0000e+00
      4.978      0.081     5.0163     45.139     38.950  27.781452     0.8470      8.297   290.3888 1.6016e+01     4.6927      4.884      7.083    10.7240   999.6743 0.0000e+00
      4.999      0.083     5.0013     44.984     38.670  27.567716     0.8534      8.295   290.6136 1.5801e+01     4.7163      4.905      7.114    10.7217   999.6743 0.0000e+00
      5.016      0.083     4.9957     44.921     38.498  27.435990     0.8457      8.292   290.4531 1.5585e+01     4.7622      4.918      7.133    10.7067   999.6759 0.0000e+00
      5.033      0.080     4.9982     44.936     38.625  27.521125     0.7972      8.289   290.2546 1.5245e+01     5.1492      4.933      7.154    10.6821   999.6783 0.0000e+00
      5.055      0.078     5.0132     45.063     38.986  27.772280     0.7174      8.287   290.5366 1.4826e+01     5.8564      4.955      7.187    10.6592   999.6805 0.0000e+00
      5.080      0.078     5.0423     45.313     39.403  28.061687     0.6788      8.285   291.0234 1.4472e+01     6.2665      4.982      7.228    10.6396   999.6825 0.0000e+00
      5.100      0.082     5.0804     45.647     39.736  28.292055     0.6860      8.283   291.3231 1.4217e+01     6.3389      5.003      7.257    10.6286   999.6835 0.0000e+00
      5.116      0.087     5.1270     46.067     39.888  28.400392     0.7007      8.282   291.5783 1.3959e+01     6.1417      5.016      7.276    10.6240   999.6841 0.0000e+00
      5.134      0.092     5.1850     46.592     39.999  28.483297     0.7168      8.279   291.8725 1.3635e+01     5.7501      5.031      7.298    10.6172   999.6849 0.0000e+00
      5.158      0.099     5.2545     47.214     39.983  28.469611     0.7252      8.276   291.7829 1.3274e+01     5.5695      5.056      7.333    10.6053   999.6863 0.0000e+00
      5.187      0.107     5.3299     47.882     39.842  28.361808     0.7245      8.274   291.3545 1.2894e+01     5.5640      5.087      7.377    10.5935   999.6877 0.0000e+00
      5.218      0.114     5.4024     48.523     39.796  28.321938     0.7250      8.271   291.1678 1.2473e+01     5.6510      5.116      7.420    10.5948   999.6878 0.0000e+00
      5.250      0.116     5.4630     49.056     39.782  28.304784     0.7234      8.268   291.1596 1.2033e+01     5.8680      5.147      7.465    10.6061   999.6869 0.0000e+00
      5.282      0.115     5.5025     49.398     39.761  28.281295     0.7228      8.266   291.2548 1.1640e+01     6.0250      5.180      7.514    10.6023   999.6875 0.0000e+00
      5.312      0.114     5.5167     49.517     39.784  28.291722     0.7261      8.264   291.5446 1.1320e+01     6.0742      5.210      7.558    10.5886   999.6888 0.0000e+00
      5.337      0.112     5.5062     49.420     39.804  28.303948     0.7199      8.260   291.7385 1.1039e+01     6.0699      5.234      7.591    10.5825   999.6895 0.0000e+00
      5.362      0.111     5.4736     49.126     39.803  28.302214     0.6911      8.255   291.6208 1.0722e+01     5.9728      5.257      7.625    10.5741   999.6905 0.0000e+00
      5.391      0.110     5.4263     48.698     39.763  28.270760     0.6548      8.251   291.4979 1.0379e+01     5.8502      5.287      7.668    10.5592   999.6920 0.0000e+00
      5.421      0.109     5.3741     48.223     39.638  28.177438     0.6368      8.249   291.7150 1.0064e+01     5.7998      5.317      7.712    10.5509   999.6929 0.0000e+00
      5.451      0.107     5.3256     47.779     39.484  28.062142     0.6299      8.247   292.0946 9.7579e+00     5.8233      5.345      7.753    10.5521   999.6930 0.0000e+00
      5.480      0.102     5.2858     47.412     39.433  28.018786     0.6064      8.245   292.4743 9.4717e+00     5.9699      5.374      7.794    10.5508   999.6932 0.0000e+00
      5.506      0.096     5.2560     47.135     39.464  28.033897     0.5684      8.243   292.8643 9.2325e+00     6.1954      5.402      7.835    10.5464   999.6938 0.0000e+00
      5.530      0.091     5.2353     46.942     39.412  27.991049     0.5523      8.240   293.1958 9.0284e+00     6.2885      5.425      7.868    10.5424   999.6943 0.0000e+00
      5.549      0.086     5.2222     46.820     39.262  27.881406     0.5587      8.238   293.3845 8.8455e+00     6.2760      5.442      7.894    10.5343   999.6950 0.0000e+00
      5.567      0.082     5.2137     46.740     39.132  27.786816     0.5763      8.236   293.4255 8.6352e+00     6.3404      5.459      7.917    10.5236   999.6960 0.0000e+00
      5.587      0.082     5.2065     46.672     39.064  27.735638     0.6015      8.234   293.5198 8.3743e+00     6.4438      5.479      7.945    10.5146   999.6971 0.0000e+00
      5.610      0.085     5.2054     46.657     39.029  27.706740     0.6122      8.233   293.6648 8.1276e+00     6.4776      5.503      7.980    10.5073   999.6979 0.0000e+00
      5.631      0.090     5.2116     46.709     39.011  27.691202     0.6188      8.230   293.7157 7.9003e+00     6.4867      5.523      8.011    10.5039   999.6982 0.0000e+00
      5.652      0.095     5.2180     46.764     38.990  27.674656     0.6463      8.227   293.7047 7.6321e+00     6.5547      5.541      8.038    10.5024   999.6983 0.0000e+00
      5.676      0.097     5.2255     46.831     38.931  27.633573     0.6763      8.225   294.0483 7.3134e+00     6.6437      5.564      8.070    10.4981   999.6989 0.0000e+00
      5.705      0.096     5.2402     46.964     38.848  27.575152     0.6861      8.223   294.7728 6.9714e+00     6.6786      5.594      8.114    10.4931   999.6995 0.0000e+00
      5.736      0.095     5.2609     47.146     38.711  27.475868     0.6786      8.222   295.1508 6.6776e+00     6.6814      5.627      8.161    10.4892   999.7000 0.0000e+00
      5.761      0.092     5.2838     47.346     38.588  27.384838     0.6460      8.221   295.0051 6.4712e+00     6.6770      5.652      8.197    10.4866   999.7004 0.0000e+00
      5.780      0.089     5.3091     47.567     38.562  27.362762     0.5951      8.220   294.7324 6.3039e+00     6.6265      5.669      8.222    10.4878   999.7002 0.0000e+00
      5.797      0.088     5.3343     47.790     38.437  27.272391     0.5670      8.218   294.7794 6.1374e+00     6.5619      5.684      8.245    10.4901   999.7001 0.0000e+00
      5.817      0.091     5.3588     48.009     38.130  27.053509     0.5651      8.216   295.5726 5.9549e+00     6.5186      5.704      8.273    10.4870   999.7005 0.0000e+00
      5.840      0.096     5.3837     48.231     37.876  26.873420     0.5642      8.214   296.7518 5.7542e+00     6.4955      5.726      8.305    10.4803   999.7011 0.0000e+00
      5.866      0.102     5.4053     48.425     37.784  26.807959     0.5907      8.213   297.0780 5.5471e+00     6.4472      5.753      8.343    10.4751   999.7018 0.0000e+00
      5.895      0.105     5.4243     48.594     37.730  26.769588     0.6507      8.213   296.5910 5.3301e+00     6.3280      5.780      8.384    10.4731   999.7021 0.0000e+00
      5.926      0.102     5.4448     48.774     37.675  26.726694     0.6833      8.211   296.3701 5.0991e+00     6.2342      5.810      8.426    10.4731   999.7021 0.0000e+00
      5.957      0.096     5.4682     48.974     37.603  26.669989     0.6894      8.210   296.2138 4.8931e+00     6.2302      5.845      8.477    10.4716   999.7023 0.0000e+00
      5.983      0.087     5.4934     49.191     37.499  26.591523     0.6987      8.210   295.8197 4.7471e+00     6.1492      5.871      8.516    10.4721   999.7024 0.0000e+00
      6.001      0.078     5.5212     49.436     37.430  26.539290     0.7004      8.210   296.2509 4.6329e+00     5.9427      5.886      8.537    10.4747   999.7022 0.0000e+00
      6.015      0.071     5.5514     49.704     37.353  26.482546     0.6934      8.208   297.4695 4.5334e+00     5.8299      5.898      8.556    10.4687   999.7028 0.0000e+00
      6.028      0.069     5.5828     49.984     37.257  26.412979     0.6827      8.206   298.0776 4.4484e+00     5.8339      5.912      8.575    10.4587   999.7038 0.0000e+00
      6.043      0.073     5.6186     50.304     37.233  26.396034     0.6666      8.205   298.0970 4.3578e+00     5.8607      5.926      8.594    10.4527   999.7044 0.0000e+00
      6.061      0.081     5.6570     50.649     37.243  26.404548     0.6459      8.205   298.1341 4.2489e+00     5.8590      5.941      8.617    10.4501   999.7046 0.0000e+00
      6.084      0.087     5.6932     50.975     37.219  26.389037     0.6320      8.203   297.9251 4.1139e+00     5.8135      5.963      8.650    10.4467   999.7050 0.0000e+00
      6.112      0.092     5.7284     51.291     37.143  26.335372     0.6289      8.201   297.4617 3.9658e+00     5.8013      5.993      8.692    10.4439   999.7054 0.0000e+00
      6.140      0.092     5.7637     51.604     37.044  26.263232     0.6169      8.200   297.6946 3.8382e+00     5.7122      6.023      8.735    10.4451   999.7054 0.0000e+00
      6.165      0.087     5.7972     51.894     36.984  26.214667     0.5905      8.199   298.5906 3.7379e+00     5.4902      6.047      8.771    10.4463   999.7054 0.0000e+00
      6.187      0.078     5.8270     52.147     36.964  26.192275     0.5702      8.196   299.0877 3.6504e+00     5.3779      6.068      8.801    10.4477   999.7054 0.0000e+00
      6.205      0.070     5.8540     52.375     36.962  26.182807     0.5615      8.195   299.1455 3.5813e+00     5.3712      6.087      8.828    10.4502   999.7052 0.0000e+00
      6.219      0.065     5.8799     52.599     36.942  26.163624     0.5900      8.195   299.0312 3.5348e+00     5.2442      6.101      8.849    10.4489   999.7053 0.0000e+00
      6.230      0.063     5.9064     52.834     36.836  26.087208     0.6550      8.195   298.9097 3.4865e+00     5.0549      6.109      8.860    10.4388   999.7063 0.0000e+00
      6.243      0.066     5.9343     53.085     36.651  25.956733     0.6875      8.195   298.9673 3.4040e+00     4.9514      6.119      8.876    10.4259   999.7076 0.0000e+00
      6.261      0.073     5.9616     53.330     36.507  25.854902     0.6801      8.194   299.1251 3.3053e+00     4.9104      6.139      8.905    10.4148   999.7087 0.0000e+00
      6.282      0.083     5.9876     53.562     36.440  25.807600     0.6694      8.192   299.4412 3.2299e+00     4.8857      6.161      8.936    10.4067   999.7096 0.0000e+00
      6.303      0.091     6.0135     53.793     36.380  25.765454     0.6538      8.190   299.8642 3.1517e+00     4.6857      6.180      8.963    10.4063   999.7096 0.0000e+00
      6.327      0.096     6.0382     54.011     36.327  25.725960     0.6382      8.189   300.1094 3.0436e+00     4.2952      6.203      8.997    10.4092   999.7094 0.0000e+00
      6.357      0.098     6.0593     54.193     36.311  25.710732     0.6285      8.189   300.1687 2.9317e+00     4.0640      6.234      9.042    10.4087   999.7095 0.0000e+00
      6.387      0.098     6.0765     54.339     36.313  25.708202     0.6231      8.188   300.3230 2.8345e+00     4.0206      6.265      9.087    10.4088   999.7097 0.0000e+00
      6.412      0.097     6.0921     54.479     36.295  25.695370     0.6344      8.187   300.5128 2.7535e+00     3.9020      6.288      9.121    10.4101   999.7097 0.0000e+00
      6.434      0.096     6.1096     54.642     36.272  25.682461     0.6611      8.186   300.2277 2.6948e+00     3.6788      6.310      9.152    10.4082   999.7100 0.0000e+00
      6.455      0.095     6.1294     54.827     36.261  25.679009     0.6859      8.185   299.7146 2.6372e+00     3.5493      6.330      9.181    10.4010   999.7107 0.0000e+00
      6.477      0.093     6.1514     55.027     36.223  25.653644     0.6906      8.184   299.7289 2.5561e+00     3.5488      6.350      9.210    10.3929   999.7116 0.0000e+00
      6.503      0.092     6.1769     55.249     36.193  25.629526     0.6928      8.183   300.1426 2.4676e+00     3.5095      6.376      9.246    10.3929   999.7117 0.0000e+00
      6.530      0.091     6.2017     55.459     36.219  25.641166     0.7130      8.182   300.5862 2.4035e+00     3.4021      6.406      9.291    10.3993   999.7113 0.0000e+00
      6.555      0.088     6.2241     55.648     36.265  25.667487     0.7264      8.181   300.8777 2.3655e+00     3.3311      6.430      9.327    10.4065   999.7107 0.0000e+00
      6.575      0.083     6.2454     55.831     36.309  25.693999     0.7155      8.179   300.9128 2.3218e+00     3.3064      6.448      9.351    10.4115   999.7103 0.0000e+00
      6.595      0.075     6.2619     55.972     36.333  25.707954     0.6685      8.179   300.3228 2.2597e+00     3.1368      6.467      9.379    10.4073   999.7107 0.0000e+00
      6.615      0.069     6.2732     56.070     36.338  25.709338     0.6000      8.177   299.5086 2.2048e+00     2.8204      6.487      9.409    10.3946   999.7120 0.0000e+00
      6.631      0.066     6.2821     56.148     36.341  25.710722     0.5635      8.175   299.5003 2.1729e+00     2.6604      6.505      9.435    10.3850   999.7130 0.0000e+00
      6.644      0.066     6.2886     56.205     36.361  25.724689     0.5562      8.175   299.7915 2.1550e+00     2.6435      6.516      9.450    10.3799   999.7135 0.0000e+00
      6.657      0.067     6.2930     56.244     36.399  25.751324     0.5554      8.174   299.8470 2.1193e+00     2.6156      6.526      9.465    10.3748   999.7141 0.0000e+00
      6.674      0.068     6.2962     56.273     36.438  25.779008     0.5634      8.173   300.0842 2.0555e+00     2.5859      6.544      9.492    10.3719   999.7145 0.0000e+00
      6.694      0.071     6.2981     56.288     36.477  25.805644     0.5653      8.172   300.5950 2.0137e+00     2.5468      6.567      9.523    10.3724   999.7145 0.0000e+00
      6.714      0.074     6.2985     56.287     36.501  25.819610     0.5606      8.171   300.6026 1.9915e+00     2.5038      6.585      9.550    10.3714   999.7147 0.0000e+00
      6.734      0.076     6.2967     56.266     36.507  25.820994     0.5590      8.170   300.0906 1.9557e+00     2.4918      6.604      9.578    10.3698   999.7150 0.0000e+00
      6.753      0.076     6.2892     56.195     36.512  25.822368     0.5718      8.169   299.9106 1.9217e+00     2.4991      6.623      9.606    10.3716   999.7149 0.0000e+00
      6.772      0.078     6.2772     56.084     36.535  25.836220     0.6026      8.167   299.9755 1.8975e+00     2.4937      6.640      9.631    10.3711   999.7150 0.0000e+00
      6.790      0.082     6.2647     55.967     36.574  25.861599     0.6192      8.165   300.2730 1.8745e+00     2.4925      6.658      9.657    10.3662   999.7156 0.0000e+00
      6.810      0.086     6.2509     55.842     36.595  25.875451     0.6168      8.164   300.8404 1.8423e+00     2.4844      6.678      9.686    10.3625   999.7160 0.0000e+00
      6.832      0.089     6.2318     55.673     36.595  25.876814     0.5996      8.163   301.0706 1.7986e+00     2.4937      6.698      9.716    10.3597   999.7164 0.0000e+00
      6.858      0.090     6.2081     55.465     36.594  25.878081     0.5667      8.162   300.9053 1.7522e+00     2.5725      6.724      9.754    10.3563   999.7168 0.0000e+00
      6.886      0.092     6.1869     55.275     36.614  25.890780     0.5497      8.161   300.9063 1.7099e+00     2.6182      6.755      9.798    10.3523   999.7173 0.0000e+00
      6.909      0.095     6.1692     55.110     36.637  25.903470     0.5499      8.161   301.1698 1.6814e+00     2.5876      6.778      9.831    10.3495   999.7177 0.0000e+00
      6.928      0.096     6.1527     54.955     36.644  25.904624     0.5517      8.160   301.4238 1.6638e+00     2.5623      6.792      9.852    10.3530   999.7175 0.0000e+00
      6.949      0.096     6.1383     54.821     36.648  25.904731     0.5545      8.157   301.6548 1.6325e+00     2.5420      6.811      9.879    10.3574   999.7171 0.0000e+00
      6.977      0.095     6.1240     54.687     36.653  25.904761     0.5575      8.155   301.8971 1.5941e+00     2.5063      6.841      9.922    10.3563   999.7174 0.0000e+00
      7.008      0.094     6.1099     54.554     36.660  25.904983     0.5619      8.154   302.0307 1.5675e+00     2.4915      6.875      9.970    10.3500   999.7181 0.0000e+00
      7.034      0.095     6.0992     54.449     36.671  25.907410     0.5558      8.153   302.0652 1.5469e+00     2.5269      6.900     10.007    10.3427   999.7190 0.0000e+00
      7.054      0.096     6.0922     54.377     36.716  25.934099     0.5433      8.152   302.1427 1.5307e+00     2.5744      6.919     10.035    10.3399   999.7193 0.0000e+00
      7.073      0.100     6.0854     54.307     36.779  25.973897     0.5508      8.151   302.3653 1.5127e+00     2.6385      6.935     10.058    10.3356   999.7198 0.0000e+00
      7.093      0.105     6.0770     54.225     36.834  26.007955     0.5674      8.150   302.6917 1.4729e+00     2.6790      6.953     10.084    10.3289   999.7205 0.0000e+00
      7.122      0.114     6.0686     54.144     36.869  26.028676     0.5704      8.148   302.9052 1.4128e+00     2.6385      6.983     10.128    10.3220   999.7212 0.0000e+00
      7.157      0.123     6.0606     54.065     36.883  26.034103     0.5615      8.146   303.0547 1.3611e+00     2.6074      7.019     10.180    10.3136   999.7222 0.0000e+00
      7.192      0.129     6.0521     53.983     36.944  26.073563     0.5550      8.145   303.2083 1.3268e+00     2.6306      7.053     10.229    10.3074   999.7230 0.0000e+00
      7.228      0.130     6.0452     53.916     37.022  26.125128     0.5617      8.144   303.2133 1.2952e+00     2.6575      7.088     10.280    10.3023   999.7236 0.0000e+00
      7.263      0.125     6.0413     53.876     37.062  26.150037     0.5639      8.143   303.2018 1.2612e+00     2.6371      7.124     10.333    10.2962   999.7244 0.0000e+00
      7.296      0.118     6.0372     53.834     37.115  26.184401     0.5380      8.141   303.3267 1.2321e+00     2.5810      7.158     10.381    10.2903   999.7251 0.0000e+00
      7.324      0.109     6.0321     53.784     37.174  26.223406     0.5091      8.140   303.6052 1.2094e+00     2.5690      7.183     10.418    10.2849   999.7257 0.0000e+00
      7.348      0.101     6.0264     53.729     37.202  26.240984     0.5087      8.139   303.9020 1.1838e+00     2.5910      7.206     10.452    10.2804   999.7263 0.0000e+00
      7.372      0.095     6.0174     53.645     37.246  26.270048     0.5172      8.138   303.9904 1.1587e+00     2.5840      7.231     10.487    10.2765   999.7267 0.0000e+00
      7.395      0.094     6.0045     53.527     37.321  26.321041     0.5251      8.137   303.7264 1.1341e+00     2.5831      7.253     10.519    10.2723   999.7273 0.0000e+00
      7.416      0.097     5.9901     53.395     37.365  26.349995     0.5429      8.136   303.2911 1.1064e+00     2.6128      7.273     10.548    10.2685   999.7277 0.0000e+00
      7.438      0.102     5.9714     53.225     37.391  26.366359     0.5599      8.133   303.3740 1.0865e+00     2.6488      7.293     10.577    10.2655   999.7281 0.0000e+00
      7.464      0.107     5.9453     52.989     37.431  26.392002     0.5658      8.132   303.9538 1.0634e+00     2.6896      7.317     10.613    10.2631   999.7285 0.0000e+00
      7.495      0.112     5.9133     52.702     37.453  26.406270     0.5531      8.131   304.4513 1.0297e+00     2.7460      7.349     10.658    10.2609   999.7289 0.0000e+00
      7.528      0.114     5.8789     52.395     37.461  26.411988     0.5281      8.129   305.0013 9.9833e-01     2.8065      7.384     10.709    10.2581   999.7293 0.0000e+00
      7.561      0.114     5.8441     52.086     37.529  26.461133     0.5146      8.129   305.6129 9.7218e-01     2.8313      7.416     10.756    10.2548   999.7297 0.0000e+00
      7.590      0.112     5.8077     51.764     37.662  26.556370     0.5107      8.127   305.3077 9.5438e-01     2.8490      7.446     10.799    10.2517   999.7302 0.0000e+00
      7.615      0.107     5.7684     51.417     37.738  26.611845     0.5164      8.125   304.3227 9.3134e-01     2.9223      7.469     10.832    10.2496   999.7305 0.0000e+00
      7.640      0.101     5.7280     51.059     37.754  26.624323     0.5394      8.123   304.0276 8.9395e-01     2.9959      7.491     10.865    10.2494   999.7306 0.0000e+00
      7.666      0.094     5.6908     50.729     37.780  26.643799     0.5635      8.122   304.2347 8.6036e-01     3.0184      7.517     10.903    10.2513   999.7306 0.0000e+00
      7.692      0.086     5.6577     50.435     37.798  26.656995     0.5745      8.120   304.6759 8.3866e-01     3.0630      7.543     10.941    10.2539   999.7306 0.0000e+00
      7.716      0.079     5.6264     50.155     37.799  26.656987     0.5760      8.119   305.4043 8.2430e-01     3.1092      7.569     10.978    10.2566   999.7304 0.0000e+00
      7.735      0.073     5.5959     49.880     37.783  26.643712     0.5564      8.119   305.8140 8.1183e-01     3.1512      7.588     11.005    10.2582   999.7304 0.0000e+00
      7.748      0.067     5.5679     49.627     37.757  26.623362     0.5191      8.118   305.4142 8.0365e-01     3.2426      7.598     11.020    10.2595   999.7303 0.0000e+00
      7.761      0.064     5.5448     49.420     37.726  26.601277     0.5059      8.116   304.5280 8.0376e-01     3.2969      7.609     11.036    10.2613   999.7302 0.0000e+00
      7.777      0.066     5.5267     49.257     37.679  26.567006     0.5098      8.114   304.1339 7.9606e-01     3.2838      7.626     11.060    10.2601   999.7304 0.0000e+00
      7.792      0.072     5.5099     49.103     37.625  26.526206     0.5145      8.112   304.2625 7.7927e-01     3.2148      7.641     11.083    10.2559   999.7309 0.0000e+00
      7.809      0.080     5.4905     48.925     37.577  26.488626     0.5282      8.110   304.6204 7.6555e-01     3.1514      7.655     11.103    10.2533   999.7311 0.0000e+00
      7.830      0.087     5.4719     48.753     37.590  26.493291     0.5459      8.110   305.1923 7.5991e-01     3.1404      7.677     11.135    10.2539   999.7312 0.0000e+00
      7.857      0.095     5.4559     48.604     37.722  26.582603     0.5544      8.109   305.4118 7.5431e-01     3.1140      7.705     11.175    10.2530   999.7314 0.0000e+00
      7.884      0.101     5.4411     48.468     37.956  26.743725     0.5362      8.108   305.1231 7.2773e-01     3.1927      7.732     11.215    10.2481   999.7320 0.0000e+00
      7.910      0.105     5.4283     48.349     38.209  26.918742     0.5068      8.106   304.7997 6.9600e-01     3.4035      7.757     11.250    10.2433   999.7325 0.0000e+00
      7.937      0.107     5.4177     48.249     38.399  27.049158     0.4940      8.104   304.6848 6.7167e-01     3.5330      7.781     11.286    10.2379   999.7331 0.0000e+00
      7.966      0.109     5.4115     48.188     38.498  27.115123     0.4944      8.103   304.7657 6.5373e-01     3.5775      7.813     11.332    10.2319   999.7338 0.0000e+00
      7.994      0.113     5.4115     48.183     38.546  27.145303     0.4934      8.101   305.0034 6.4531e-01     3.6479      7.843     11.375    10.2283   999.7343 0.0000e+00
      8.019      0.118     5.4179     48.235     38.572  27.160275     0.4915      8.099   305.3225 6.2940e-01     3.7283      7.862     11.404    10.2243   999.7349 0.0000e+00
      8.046      0.122     5.4242     48.285     38.590  27.169258     0.4972      8.097   305.9562 6.0628e-01     3.7630      7.887     11.439    10.2185   999.7357 0.0000e+00
      8.080      0.125     5.4215     48.255     38.625  27.190466     0.5015      8.095   306.6428 5.8812e-01     3.7715      7.924     11.492    10.2134   999.7363 0.0000e+00
      8.117      0.125     5.4095     48.144     38.682  27.226355     0.4828      8.094   306.6543 5.6943e-01     3.7669      7.961     11.547    10.2094   999.7369 0.0000e+00
      8.153      0.125     5.3888     47.955     38.772  27.285960     0.4528      8.093   306.4408 5.4824e-01     3.7396      7.996     11.597    10.2055   999.7374 0.0000e+00
      8.185      0.123     5.3565     47.662     38.854  27.340132     0.4339      8.091   306.2978 5.3134e-01     3.7367      8.029     11.644    10.2004   999.7380 0.0000e+00
      8.215      0.119     5.3125     47.265     38.906  27.373771     0.4283      8.090   306.0433 5.2091e-01     3.7644      8.057     11.686    10.1952   999.7387 0.0000e+00
      8.241      0.117     5.2612     46.805     39.003  27.438894     0.4372      8.088   306.1170 5.0683e-01     3.7802      8.082     11.722    10.1911   999.7391 0.0000e+00
      8.268      0.115     5.2068     46.317     39.174  27.556508     0.4455      8.086   307.1031 4.8804e-01     3.8290      8.107     11.759    10.1863   999.7398 0.0000e+00
      8.298      0.111     5.1545     45.848     39.316  27.653788     0.4423      8.084   308.3298 4.7543e-01     3.9289      8.136     11.801    10.1810   999.7404 0.0000e+00
      8.330      0.105     5.1078     45.430     39.334  27.663392     0.4332      8.082   308.5596 4.5912e-01     4.0047      8.169     11.848    10.1767   999.7410 0.0000e+00
      8.361      0.096     5.0637     45.035     39.349  27.672624     0.4307      8.081   308.4188 4.3552e-01     4.0574      8.201     11.893    10.1730   999.7415 0.0000e+00
      8.387      0.088     5.0223     44.665     39.483  27.765412     0.4379      8.079   308.5200 4.2024e-01     4.0411      8.228     11.932    10.1694   999.7420 0.0000e+00
      8.405      0.083     4.9843     44.326     39.672  27.897023     0.4422      8.078   308.3205 4.1984e-01     3.9711      8.247     11.960    10.1660   999.7425 0.0000e+00
      8.417      0.082     4.9473     43.994     39.904  28.058410     0.4477      8.077   307.8996 4.1631e-01     3.9647      8.253     11.971    10.1627   999.7428 0.0000e+00
      8.430      0.086     4.9085     43.646     40.280  28.320871     0.4527      8.075   308.4207 3.9615e-01     3.9972      8.262     11.984    10.1603   999.7430 0.0000e+00
      8.451      0.094     4.8657     43.261     40.766  28.659349     0.4426      8.072   309.7172 3.7622e-01     4.0687      8.285     12.016    10.1591   999.7433 0.0000e+00
      8.480      0.106     4.8223     42.871     41.135  28.914987     0.4288      8.069   310.2394 3.6591e-01     4.1741      8.316     12.061    10.1578   999.7436 0.0000e+00
      8.513      0.117     4.7811     42.499     41.353  29.064106     0.4252      8.067   310.1744 3.5854e-01     4.2230      8.349     12.110    10.1557   999.7439 0.0000e+00
      8.547      0.125     4.7406     42.133     41.634  29.256758     0.4333      8.064   310.0500 3.5311e-01     4.2342      8.382     12.157    10.1530   999.7445 0.0000e+00
      8.580      0.128     4.6979     41.747     42.576  29.911823     0.4573      8.061   309.7676 3.4321e-01     4.2766      8.414     12.203    10.1489   999.7453 0.0000e+00
      8.614      0.129     4.6471     41.288     44.343  31.146590     0.4908      8.059   309.9438 3.1652e-01     4.3742      8.448     12.253    10.1443   999.7460 0.0000e+00
      8.647      0.128     4.5807     40.692     45.843  32.192926     0.5093      8.057   310.6323 3.0117e-01     4.4321      8.480     12.300    10.1396   999.7466 0.0000e+00
      8.678      0.126     4.5007     39.974     46.704  32.790401     0.4980      8.053   310.9499 3.0751e-01     4.4196      8.510     12.341    10.1335   999.7474 0.0000e+00
      8.710      0.124     4.4122     39.181     48.154  33.801341     0.4583      8.047   310.9452 2.9204e-01     4.6481      8.542     12.389    10.1254   999.7485 0.0000e+00
      8.743      0.122     4.3062     38.233     50.900  35.721166     0.4104      8.042   311.0916 2.6639e-01     5.0979      8.575     12.437    10.1174   999.7501 0.0000e+00
      8.773      0.119     4.1729     37.042     54.040  37.913733     0.3869      8.037   311.1712 2.5171e-01     5.3364      8.604     12.479    10.1097   999.7515 0.0000e+00
      8.803      0.116     4.0024     35.517     56.401  39.555008     0.3824      8.030   311.1337 2.3679e-01     5.4008      8.632     12.520    10.1016   999.7525 0.0000e+00
      8.833      0.114     3.7879     33.602     57.441  40.266782     0.3909      8.022   311.4112 2.2823e-01     5.6146      8.662     12.563    10.0946   999.7536 0.0000e+00
      8.862      0.113     3.5343     31.342     57.691  40.425217     0.4110      8.012   312.0321 2.2590e-01     5.9218      8.691     12.606    10.0887   999.7554 0.0000e+00
      8.889      0.113     3.2401     28.724     58.299  40.835742     0.4268      8.002   312.4463 2.2388e-01     6.0353      8.717     12.643    10.0798   999.7576 0.0000e+00
      8.916      0.113     2.8927     25.637     59.428  41.611550     0.4342      7.992   312.5475 2.2023e-01     6.0038      8.741     12.678    10.0639   999.7600 0.0000e+00
      8.946      0.114     2.4777     21.953     60.813  42.567581     0.4310      7.984   312.6530 2.1737e-01     6.0644      8.772     12.722    10.0467   999.7620 0.0000e+00
      8.976      0.114     2.0052     17.763     62.352  43.633014     0.4325      7.977   312.8615 2.0937e-01     6.7689      8.803     12.768    10.0332   999.7631 0.0000e+00
      9.005      0.113     1.5150     13.418     63.914  44.715254     0.4434      7.971   313.0036 1.9936e-01     8.0322      8.831     12.809    10.0200   999.7647 0.0000e+00
      9.035      0.110     1.0397      9.207     65.583  45.873992     0.4415      7.964   312.8228 1.9516e-01     8.7216      8.860     12.851    10.0072   999.7665 0.0000e+00
      9.064      0.105     0.6034      5.343     67.892  47.482781     0.4439      7.956   312.2242 1.8133e-01     8.8775      8.889     12.894     9.9962   999.7680 0.0000e+00
      9.091      0.103     0.2239      1.982     72.502  50.703333     0.5853      7.947   311.0997 1.6738e-01    10.1138      8.916     12.932     9.9863   999.7696 0.0000e+00
      9.114      0.103    -0.0851     -0.753     79.583  55.658223     0.8507      7.937   308.8641 1.6228e-01    12.3965      8.939     12.963     9.9779   999.7709 0.0000e+00
      9.136      0.104    -0.3019     -2.673     85.776  59.999416     0.9993      7.926   304.5526 1.5592e-01    13.6670      8.958     12.992     9.9713   999.7722 0.0000e+00
      9.159      0.108    -0.4255     -3.769     90.732  63.481061     1.0303      7.913   297.9452 1.5336e-01    14.0389      8.980     13.025     9.9664   999.7733 0.0000e+00
      9.189      0.113    -0.4797     -4.250     98.907  69.218288     1.1729      7.896   289.4598 1.4732e-01    16.7943      9.009     13.068     9.9632   999.7751 0.0000e+00
      9.223      0.118    -0.4828     -4.278    109.879  76.917784     1.4230      7.879   279.9940 1.3617e-01    21.7809      9.045     13.118     9.9639   999.7785 0.0000e+00
      9.255      0.123    -0.4493     -3.982    117.435  82.238290     1.5576      7.861   271.4272 1.3028e-01    24.4852      9.077     13.165     9.9704   999.7804 0.0000e+00
      9.286      0.123    -0.3950     -3.503    119.725  83.874025     1.5686      7.842   262.3679 1.2699e-01    24.8142      9.106     13.205     9.9806   999.7804 0.0000e+00
      9.318      0.118    -0.3294     -2.921    119.753  83.908614     1.5135      7.824   250.7338 1.2463e-01    25.5615      9.138     13.253     9.9889   999.7826 0.0000e+00
      9.351      0.111    -0.2605     -2.311    119.249  83.547244     1.4020      7.808   239.5135 1.2478e-01    26.8676      9.172     13.304     9.9957   999.7875 0.0000e+00
      9.380      0.103    -0.1997     -1.771    118.689  83.131251     1.3398      7.790   230.8980 1.2553e-01    27.5958      9.201     13.345    10.0108   999.7893 0.0000e+00
      9.405      0.095    -0.1485     -1.317    118.290  82.823446     1.3331      7.772   223.9136 1.2464e-01    27.6148      9.225     13.380    10.0289   999.7878 0.0000e+00
      9.425      0.085    -0.1005     -0.891    118.043  82.624900     1.3123      7.756   216.4112 1.2370e-01    26.9335      9.244     13.407    10.0354   999.7873 0.0000e+00
      9.444      0.077    -0.0565     -0.500    117.905  82.512004     1.2795      7.741   206.6107 1.2364e-01    25.6833      9.260     13.430    10.0303   999.7877 0.0000e+00
      9.463      0.072    -0.0183     -0.162    117.959  82.539938     1.2660      7.725   195.9301 1.2362e-01    25.0183      9.279     13.459    10.0190   999.7884 0.0000e+00
      9.482      0.072     0.0157      0.139    120.853  84.553116     1.2704      7.709   187.5091 1.2358e-01    25.0210      9.299     13.488    10.0055   999.7897 0.0000e+00
      9.497      0.072     0.0445      0.394    126.911  88.781441     1.2799      7.693   181.5391 1.2359e-01    25.4870      9.314     13.509     9.9942   999.7906 0.0000e+00
      9.512      0.071     0.0689      0.610    130.925  91.602588     1.2863      7.678   176.4032 1.2353e-01    26.3263      9.326     13.525     9.9866   999.7915 0.0000e+00
      9.532      0.067     0.0899      0.796    131.807  92.254385     1.2873      7.664   171.5287 1.2350e-01    26.8128      9.345     13.555     9.9849   999.7912 0.0000e+00
      9.556      0.061     0.1064      0.943    131.963  92.397867     1.2828      7.651   166.4826 1.2361e-01    26.8467      9.374     13.596     9.9807   999.7922 0.0000e+00
      9.575      0.053     0.1204      1.068    131.814  92.319037     1.2751      7.640   162.1959 1.2367e-01    26.7355      9.393     13.623     9.9707   999.7969 0.0000e+00
      9.585      0.043     0.1313      1.164    132.243  92.637951     1.2722      7.629   158.7606 1.2364e-01    26.2549      9.401     13.635     9.9767   999.7977 0.0000e+00
      9.591      0.032     0.1377      1.222    134.926  94.535191     1.2747      7.618   154.9744 1.2359e-01    25.4603      9.407     13.644     9.9951   999.7958 0.0000e+00
      9.596      0.022     0.1442      1.279    139.297  97.625099     1.2791      7.607   151.1765 1.2359e-01    25.0587      9.411     13.650    10.0078   999.7950 0.0000e+00
      9.599      0.016     0.1520      1.349    141.564  99.248650     1.2819      7.598   147.6867 1.2364e-01    25.0696      9.414     13.653    10.0167   999.7940 0.0000e+00
      9.602      0.012     0.1582      1.404    139.920  98.121691     1.2822      7.589   144.0987 1.2370e-01    25.0677      9.416     13.657    10.0239   999.7933 0.0000e+00
      9.605      0.010     0.1622      1.439    136.845  95.968920     1.2828      7.581   141.1777 1.2368e-01    25.0365      9.418     13.660    10.0283   999.7938 0.0000e+00
      9.608      0.009     0.1650      1.464    134.206  94.102206     1.2808      7.572   139.0411 1.2360e-01    25.0195      9.422     13.666    10.0376   999.7953 0.0000e+00
      9.610      0.008     0.1684      1.495    131.745  92.357502     1.2753      7.564   136.4183 1.2358e-01    25.0264      9.425     13.670    10.0532   999.7952 0.0000e+00
      9.612      0.007     0.1714      1.521    129.794  90.978032     1.2680      7.555   134.7621 1.2363e-01    25.2839      9.426     13.671    10.0644   999.7929 0.0000e+00
      9.614      0.006     0.1717      1.524    128.624  90.153037     1.2621      7.548   134.6747 1.2365e-01    25.7734      9.428     13.673    10.0657   999.7915 0.0000e+00
      9.615      0.004     0.1711      1.518    126.528  88.683507     1.2650      7.541   133.8131 1.2365e-01    26.0624      9.429     13.676    10.0563   999.7916 0.0000e+00
      9.616      0.003     0.1719      1.525    122.966  86.192188     1.2681      7.535   132.5186 1.2365e-01    25.9269      9.430     13.677    10.0476   999.7914 0.0000e+00
      9.616      0.002     0.1727      1.532    120.120  84.211878     1.1871      7.529   132.2732 1.2360e-01    23.5773      9.430     13.677    10.0440   999.7908 0.0000e+00
      9.616      0.001     0.1706      1.514    118.727  83.256319     1.0224      7.523   132.1364 1.2355e-01    19.2496      9.430     13.677    10.0421   999.7909 0.0000e+00
      9.616      0.000     0.1680      1.491    117.568  82.464425     0.9234      7.518   131.0363 1.2353e-01    16.8931      9.430     13.677    10.0420   999.7903 0.0000e+00
      9.616      0.000     0.1678      1.490    115.906  81.317295     0.9007      7.512   129.7264 1.2359e-01    16.6499      9.430     13.678    10.0431   999.7883 0.0000e+00
      9.616      0.000     0.1682      1.493    114.018  80.010539     0.8778      7.506   129.1179 1.2365e-01    16.2430      9.430     13.677    10.0500   999.7867 0.0000e+00
      9.616      0.001     0.1701      1.511    112.291  78.814859     0.8553      7.501   128.0678 1.2366e-01    15.5129      9.430     13.677    10.0597   999.7855 0.0000e+00
      9.616      0.001     0.1735      1.541    110.468  77.546948     0.8530      7.497   126.4083 1.2366e-01    15.0981      9.430     13.678    10.0691   999.7844 0.0000e+00
      9.617      0.001     0.1760      1.563    108.623  76.256550     0.8595      7.492   125.7440 1.2363e-01    15.0623      9.431     13.678    10.0770   999.7831 0.0000e+00
      9.617      0.001     0.1785      1.586    107.531  75.487992     0.8635      7.487   125.8009 1.2363e-01    15.1778      9.431     13.679    10.0841   999.7816 0.0000e+00
      9.617      0.001     0.1801      1.600    107.287  75.313967     0.8674      7.485   125.8056 1.2367e-01    15.2822      9.431     13.678    10.0928   999.7804 0.0000e+00
      9.617 -9.990e-29 -9.990e-29 -9.990e-29 -9.990e-29 -9.990e-29 -9.990e-29 -9.990e-29 -9.990e-29 1.2367e-01 -9.990e-29      9.431     13.679    10.0980   999.7793 0.0000e+00
      9.617 -9.990e-29 -9.990e-29 -9.990e-29 -9.990e-29 -9.990e-29 -9.990e-29 -9.990e-29 -9.990e-29 1.2362e-01 -9.990e-29      9.431     13.679    10.1004   999.7783 0.0000e+00
      9.617 -9.990e-29 -9.990e-29 -9.990e-29 -9.990e-29 -9.990e-29 -9.990e-29 -9.990e-29 -9.990e-29 1.2359e-01 -9.990e-29      9.431     13.679    10.0986   999.7780 0.0000e+00
      9.617 -9.990e-29 -9.990e-29 -9.990e-29 -9.990e-29 -9.990e-29 -9.990e-29 -9.990e-29 -9.990e-29 1.2360e-01 -9.990e-29      9.431     13.679    10.0949   999.7783 0.0000e+00
