* Sea-Bird SBE19plus  Data File:
* FileName = C:\DATA\062419_fcr50_0003.hex
* Software version 2.8.0.119 SB_Terminal.dll
* Temperature SN = 7809
* Conductivity SN = 7809
* System UpLoad Time = Jun 24 2019 17:07:59
* <ApplicationData>
* <Seaterm232>
* <SoftwareVersion>2.8.0.119</SoftwareVersion>
* <BuildDate>07-Nov-2018</BuildDate>
* </Seaterm232>
* </ApplicationData>
* cast   3 24 Jun 2019 11:04:36 samples 1330 to 1864, avg = 1, stop = mag switch
# nquan = 16
# nvalues = 435                         
# units = specified
# name 0 = depFM: Depth [fresh water, m]
# name 1 = dz/dtM: Descent Rate [m/s]
# name 2 = sbeox0Mg/L: Oxygen, SBE 43 [mg/l]
# name 3 = sbeox0PS: Oxygen, SBE 43 [% saturation]
# name 4 = specc: Specific Conductance [uS/cm]
# name 5 = c0uS/cm: Conductivity [uS/cm]
# name 6 = flECO-AFL: Fluorescence, WET Labs ECO-AFL/FL [mg/m^3]
# name 7 = ph: pH
# name 8 = orp: Oxidation Reduction Potential [mV]
# name 9 = par/sat/log: PAR/Logarithmic, Satlantic
# name 10 = turbWETntu0: Turbidity, WET Labs ECO [NTU]
# name 11 = prdM: Pressure, Strain Gauge [db]
# name 12 = prdE: Pressure, Strain Gauge [psi]
# name 13 = tv290C: Temperature [ITS-90, deg C]
# name 14 = density00: Density [density, kg/m^3]
# name 15 = flag:  0.000e+00
# span 0 =     -0.609,      2.275       
# span 1 =     -0.315,      0.261       
# span 2 =     0.7077,    10.6925       
# span 3 =      7.842,    120.167       
# span 4 =      0.430,    108.528       
# span 5 =   0.451742,  98.529699       
# span 6 =    -2.3475,     3.2577       
# span 7 =      7.173,     10.296       
# span 8 = -1240.7455,   489.4488       
# span 9 = 9.9245e+01, 2.2113e+03       
# span 10 =    -5.9692,     8.9476      
# span 11 =     -0.598,      2.231      
# span 12 =     -0.867,      3.236      
# span 13 =    20.2773,    27.5170      
# span 14 =   996.3784,   998.1975      
# span 15 = 0.0000e+00, 0.0000e+00      
# interval = seconds: 0.25
# start_time = Jun 24 2019 11:04:36 [Instrument's time stamp, header]
# bad_flag = -9.990e-29
# <Sensors count="9" >
#   <sensor Channel="1" >
#     <!-- Count, Temperature -->
#     <TemperatureSensor SensorID="58" >
#       <SerialNumber>7809</SerialNumber>
#       <CalibrationDate>24-Mar-19</CalibrationDate>
#       <A0>1.21792325e-003</A0>
#       <A1>2.81669265e-004</A1>
#       <A2>-1.60333336e-006</A2>
#       <A3>1.98414625e-007</A3>
#       <Slope>1.00000000</Slope>
#       <Offset>0.0000</Offset>
#     </TemperatureSensor>
#   </sensor>
#   <sensor Channel="2" >
#     <!-- Frequency 0, Conductivity -->
#     <ConductivitySensor SensorID="3" >
#       <SerialNumber>7809</SerialNumber>
#       <CalibrationDate>24-Mar-19</CalibrationDate>
#       <UseG_J>1</UseG_J>
#       <!-- Cell const and series R are applicable only for wide range sensors. -->
#       <SeriesR>0.0000</SeriesR>
#       <CellConst>2000.0000</CellConst>
#       <ConductivityType>0</ConductivityType>
#       <Coefficients equation="0" >
#         <A>0.00000000e+000</A>
#         <B>0.00000000e+000</B>
#         <C>0.00000000e+000</C>
#         <D>0.00000000e+000</D>
#         <M>0.0</M>
#         <CPcor>-9.57000000e-008</CPcor>
#       </Coefficients>
#       <Coefficients equation="1" >
#         <G>-1.00589325e+000</G>
#         <H>1.26816302e-001</H>
#         <I>-1.51560448e-004</I>
#         <J>2.67137274e-005</J>
#         <CPcor>-9.57000000e-008</CPcor>
#         <CTcor>3.2500e-006</CTcor>
#         <!-- WBOTC not applicable unless ConductivityType = 1. -->
#         <WBOTC>0.00000000e+000</WBOTC>
#       </Coefficients>
#       <Slope>1.00000000</Slope>
#       <Offset>0.00000</Offset>
#     </ConductivitySensor>
#   </sensor>
#   <sensor Channel="3" >
#     <!-- Count, Pressure, Strain Gauge -->
#     <PressureSensor SensorID="46" >
#       <SerialNumber>7809</SerialNumber>
#       <CalibrationDate>11-Mar-19</CalibrationDate>
#       <PA0>4.56561833e-002</PA0>
#       <PA1>4.85095118e-004</PA1>
#       <PA2>-2.88327090e-012</PA2>
#       <PTEMPA0>-5.48784562e+001</PTEMPA0>
#       <PTEMPA1>5.53756816e+001</PTEMPA1>
#       <PTEMPA2>-5.86727098e-001</PTEMPA2>
#       <PTCA0>5.25246745e+005</PTCA0>
#       <PTCA1>1.22304214e+001</PTCA1>
#       <PTCA2>-3.56745036e-001</PTCA2>
#       <PTCB0>2.51668750e+001</PTCB0>
#       <PTCB1>3.75000000e-004</PTCB1>
#       <PTCB2>0.00000000e+000</PTCB2>
#       <Offset>0.000000</Offset>
#     </PressureSensor>
#   </sensor>
#   <sensor Channel="4" >
#     <!-- A/D voltage 0, Oxygen, SBE 43 -->
#     <OxygenSensor SensorID="38" >
#       <SerialNumber>0434</SerialNumber>
#       <CalibrationDate>13-Apr-19</CalibrationDate>
#       <Use2007Equation>1</Use2007Equation>
#       <CalibrationCoefficients equation="0" >
#         <!-- Coefficients for Owens-Millard equation. -->
#         <Boc>0.0000</Boc>
#         <Soc>0.0000e+000</Soc>
#         <offset>0.0000</offset>
#         <Pcor>0.00e+000</Pcor>
#         <Tcor>0.0000</Tcor>
#         <Tau>0.0</Tau>
#       </CalibrationCoefficients>
#       <CalibrationCoefficients equation="1" >
#         <!-- Coefficients for Sea-Bird equation - SBE calibration in 2007 and later. -->
#         <Soc>4.2007e-001</Soc>
#         <offset>-0.6109</offset>
#         <A>-4.3656e-003</A>
#         <B> 1.7017e-004</B>
#         <C>-2.5341e-006</C>
#         <D0> 2.5826e+000</D0>
#         <D1> 1.92634e-004</D1>
#         <D2>-4.64803e-002</D2>
#         <E> 3.6000e-002</E>
#         <Tau20> 1.1800</Tau20>
#         <H1>-3.3000e-002</H1>
#         <H2> 5.0000e+003</H2>
#         <H3> 1.4500e+003</H3>
#       </CalibrationCoefficients>
#     </OxygenSensor>
#   </sensor>
#   <sensor Channel="5" >
#     <!-- A/D voltage 1, PAR/Logarithmic, Satlantic -->
#     <PARLog_SatlanticSensor SensorID="76" >
#       <SerialNumber>1122</SerialNumber>
#       <CalibrationDate>08-May-2019</CalibrationDate>
#       <a0>9.7456e-001</a0>
#       <a1>8.1640e-001</a1>
#       <Im>1.3589e+000</Im>
#       <Multiplier>1.0000e+000</Multiplier>
#     </PARLog_SatlanticSensor>
#   </sensor>
#   <sensor Channel="6" >
#     <!-- A/D voltage 2, pH -->
#     <pH_Sensor SensorID="43" >
#       <SerialNumber>0363</SerialNumber>
#       <CalibrationDate>15-Apr-19</CalibrationDate>
#       <Slope>4.5952</Slope>
#       <Offset>2.5370</Offset>
#     </pH_Sensor>
#   </sensor>
#   <sensor Channel="7" >
#     <!-- A/D voltage 3, Oxidation Reduction Potential -->
#     <OxidationReductionPotentialSensor SensorID="41" >
#       <SerialNumber>0363</SerialNumber>
#       <CalibrationDate>15-Apr-19</CalibrationDate>
#       <B>2.499480</B>
#       <M>-0.496195</M>
#       <Offset>0.0</Offset>
#     </OxidationReductionPotentialSensor>
#   </sensor>
#   <sensor Channel="8" >
#     <!-- A/D voltage 4, Fluorometer, WET Labs ECO-AFL/FL -->
#     <FluoroWetlabECO_AFL_FL_Sensor SensorID="20" >
#       <SerialNumber>FLNTURT-2496</SerialNumber>
#       <CalibrationDate>08-May-2019</CalibrationDate>
#       <ScaleFactor>5.00000000e+001</ScaleFactor>
#       <!-- Dark output -->
#       <Vblank>0.0550</Vblank>
#     </FluoroWetlabECO_AFL_FL_Sensor>
#   </sensor>
#   <sensor Channel="9" >
#     <!-- A/D voltage 5, Turbidity Meter, WET Labs, ECO-NTU -->
#     <TurbidityMeter SensorID="67" >
#       <SerialNumber>FLNTURT-2496</SerialNumber>
#       <CalibrationDate>08-May-2019</CalibrationDate>
#       <ScaleFactor>189.000000</ScaleFactor>
#       <!-- Dark output -->
#       <DarkVoltage>0.071000</DarkVoltage>
#     </TurbidityMeter>
#   </sensor>
# </Sensors>
# datcnv_date = Jun 24 2019 17:12:02, 7.26.7.129 [datcnv_vars = 15]
# datcnv_in = C:\DATA\062419_fcr10.hex C:\DATA\SBE19plusV2_7809.xmlcon
# datcnv_skipover = 0
# datcnv_ox_hysteresis_correction = yes
# datcnv_ox_tau_correction = yes
# filter_date = Jun 24 2019 17:12:32, 7.26.7.129
# filter_in = C:\DATA\062419_fcr10.cnv
# filter_low_pass_tc_A = 0.030
# filter_low_pass_tc_B = 0.150
# filter_low_pass_A_vars = prdM prdE tv290C density00
# filter_low_pass_B_vars = depFM dz/dtM sbeox0Mg/L sbeox0PS specc c0uS/cm flECO-AFL ph orp par/sat/log turbWETntu0
# alignctd_date = Jun 24 2019 17:13:10, 7.26.7.129
# alignctd_in = C:\DATA\062419_fcr10.cnv
# alignctd_adv = dz/dtM 1.000, sbeox0Mg/L 1.000, sbeox0PS 1.000, specc 1.000, c0uS/cm 1.000, flECO-AFL 1.000, ph 1.000, orp 1.000, turbWETntu0 1.000                                                                                 
# file_type = ascii
*END*
     -0.608 -8.630e-20     7.5439     95.547      0.493   0.518544    -0.8271      7.183 -1240.7455 2.0779e+03    -2.0238     -0.596     -0.865    27.5026   996.3824 0.0000e+00
     -0.608 -7.845e-21     7.5433     95.542      0.492   0.517506    -0.7945      7.173 -1240.7455 2.0831e+03    -2.1078     -0.596     -0.865    27.5054   996.3816 0.0000e+00
     -0.608 -7.130e-22     7.5421     95.530      0.480   0.504835    -0.8274      7.188 -1240.7455 2.0878e+03    -2.0056     -0.596     -0.865    27.5067   996.3812 0.0000e+00
     -0.608 -6.485e-23     7.5409     95.516      0.468   0.492051    -1.2331      7.204 -1240.7455 2.0878e+03    -0.6892     -0.596     -0.865    27.5079   996.3809 0.0000e+00
     -0.608 -5.895e-24     7.5393     95.496      0.466   0.489653    -1.9641      7.210 -1240.7455 2.0759e+03     1.7818     -0.596     -0.865    27.5105   996.3802 0.0000e+00
     -0.608 -5.360e-25     7.5358     95.454      0.453   0.475839    -2.3475      7.216 -1240.7455 2.0474e+03     3.1595     -0.597     -0.866    27.5125   996.3796 0.0000e+00
     -0.608 -4.870e-26     7.5342     95.435      0.430   0.451743    -2.3311      7.222 -1240.7455 1.9870e+03     3.3183     -0.596     -0.865    27.5138   996.3793 0.0000e+00
     -0.608 -4.424e-27     7.5356     95.452      0.430   0.451742    -1.8092      7.223 -1240.7455 1.5730e+03     3.2763     -0.596     -0.864    27.5139   996.3792 0.0000e+00
     -0.608 -3.639e-28     7.5375     95.473      0.452   0.475819    -0.8322      7.218 -1240.7455 1.0079e+03     3.1429     -0.596     -0.865    27.5141   996.3792 0.0000e+00
     -0.608 3.8906e-28     7.5371     95.463      0.466   0.489424    -0.2899      7.212 -1240.7455 8.5646e+02     3.0815     -0.596     -0.864    27.5153   996.3789 0.0000e+00
     -0.608 4.6788e-27     7.5366     95.452      0.466   0.489529    -0.2454      7.207 -1240.7455 6.8476e+02     3.0261     -0.596     -0.865    27.5170   996.3784 0.0000e+00
     -0.608 5.1503e-26     7.5391     95.478      0.454   0.477085    -0.3208      7.204 -1240.7455 4.2986e+02     2.1459     -0.596     -0.865    27.5168   996.3785 0.0000e+00
     -0.608 5.6654e-25     7.5414     95.502      0.443   0.465680    -0.4635      7.200 -1240.7455 3.8050e+02     0.4680     -0.596     -0.865    27.5144   996.3791 0.0000e+00
     -0.608 6.2320e-24     7.5424     95.511      0.455   0.478353    -0.5403      7.196 -1240.7455 2.9001e+02    -0.4820     -0.596     -0.865    27.5115   996.3799 0.0000e+00
     -0.608 6.8551e-23     7.5432     95.518      0.479   0.503590    -0.5473      7.197 -1240.7455 1.9181e+02    -0.4925     -0.597     -0.866    27.5086   996.3807 0.0000e+00
     -0.608 7.5407e-22     7.5441     95.526      0.493   0.517395    -0.5650      7.203 -1240.7455 1.6711e+02     0.1771     -0.596     -0.865    27.5055   996.3816 0.0000e+00
     -0.608 8.2947e-21     7.5454     95.538      0.494   0.518545    -0.5986      7.208 -1240.7455 1.5676e+02     1.3554     -0.596     -0.865    27.5029   996.3823 0.0000e+00
     -0.608 9.1242e-20     7.5476     95.562      0.493   0.517497    -0.6154      7.208 -1240.7455 1.6296e+02     2.0214     -0.597     -0.866    27.5007   996.3829 0.0000e+00
     -0.608 1.0037e-18     7.5505     95.596      0.481   0.504732    -0.6128      7.208 -1240.7455 1.8400e+02     2.0032     -0.596     -0.865    27.4985   996.3835 0.0000e+00
     -0.608 1.1040e-17     7.5501     95.587      0.468   0.490919    -0.5925      7.208 -1240.7455 2.8906e+02     1.0366     -0.596     -0.865    27.4962   996.3842 0.0000e+00
     -0.608 1.2144e-16     7.5461     95.533      0.455   0.477201    -0.3794      7.208 -1240.7455 6.7079e+02    -0.8828     -0.597     -0.866    27.4939   996.3848 0.0000e+00
     -0.608 1.3359e-15     7.5439     95.502      0.444   0.465576     0.0136      7.205 -1240.7455 1.0356e+03    -2.2288     -0.596     -0.865    27.4918   996.3855 0.0000e+00
     -0.608 1.4695e-14     7.5442     95.503      0.455   0.477077     0.2236      7.203 -1240.7455 9.7492e+02    -2.5881     -0.597     -0.866    27.4898   996.3860 0.0000e+00
     -0.608 1.6164e-13     7.5458     95.520      0.467   0.489548     0.2169      7.203 -1240.7455 9.5838e+02    -2.7355     -0.596     -0.865    27.4876   996.3866 0.0000e+00
     -0.608 1.7780e-12     7.5483     95.548      0.467   0.489642     0.0883      7.203 -1240.7455 1.2104e+03    -3.5846     -0.596     -0.865    27.4856   996.3871 0.0000e+00
     -0.608 1.9559e-11     7.5507     95.576      0.456   0.478217    -0.1259      7.198 -1240.7455 1.2218e+03    -5.1206     -0.597     -0.866    27.4837   996.3877 0.0000e+00
     -0.608 2.1514e-10     7.5512     95.580      0.456   0.478132    -0.2408      7.194 -1240.7455 9.1067e+02    -5.9692     -0.596     -0.865    27.4819   996.3882 0.0000e+00
     -0.608 2.3666e-09     7.5499     95.561      0.466   0.488606    -0.2605      7.194 -1240.7451 6.3404e+02    -5.8827     -0.596     -0.865    27.4801   996.3887 0.0000e+00
     -0.608 2.6032e-08     7.5510     95.574      0.456   0.478141    -0.2948      7.199 -1240.7414 8.0984e+02    -3.9433     -0.597     -0.866    27.4780   996.3893 0.0000e+00
     -0.608 2.8636e-07     7.5530     95.596      0.456   0.478313    -0.3338      7.202 -1240.7009 1.3810e+03    -0.3809     -0.596     -0.865    27.4763   996.3897 0.0000e+00
     -0.609      0.000     7.5522     95.583      0.468   0.490697    -0.3507      7.199 -1240.2547 1.6954e+03     1.5669     -0.597     -0.866    27.4752   996.3900 0.0000e+00
     -0.609      0.000     7.5521     95.580      0.478   0.501153    -0.3603      7.196 -1235.3466 1.7094e+03     1.7134     -0.597     -0.866    27.4742   996.3903 0.0000e+00
     -0.609      0.000     7.5530     95.588      0.698   0.731451    -0.3979      7.188 -1181.3580 1.7278e+03     1.1949     -0.597     -0.866    27.4727   996.3908 0.0000e+00
     -0.609      0.004     7.5541     95.579      3.248   3.401926    -0.4596      7.220  -587.4831 1.7613e+03     0.1800     -0.597     -0.866    27.4718   996.3910 0.0000e+00
     -0.609      0.021     7.5682     95.593     12.893  13.461477    -0.4811      7.511   306.5609 1.7758e+03    -0.3981     -0.597     -0.866    27.4694   996.3917 0.0000e+00
     -0.609      0.057     7.6148     95.655     26.115  27.130136    -0.3892      8.146   489.4488 1.4652e+03    -0.2896     -0.597     -0.866    27.4695   996.3915 0.0000e+00
     -0.608      0.105     7.6871     95.716     32.894  33.907327     0.5477      8.845   302.9233 8.4898e+02     2.0493     -0.596     -0.864    27.4665   996.3927 0.0000e+00
     -0.594      0.153     7.7593     95.751     33.920  34.640847     2.2542      9.370   276.4445 4.7441e+02     6.3827     -0.598     -0.867    27.4672   996.3920 0.0000e+00
     -0.540      0.194     7.8221     95.811     34.153  34.602337     3.1817      9.714   263.0790 5.5454e+02     8.7476     -0.549     -0.797    27.4481   996.3997 0.0000e+00
     -0.449      0.225     7.8769     95.940     34.281  34.520207     3.2577      9.943   247.8382 1.1329e+03     8.9476     -0.434     -0.630    27.1363   996.4923 0.0000e+00
     -0.363      0.247     7.9254     96.165     34.438  34.536013     3.2159     10.106   232.1554 1.8788e+03     8.8341     -0.344     -0.499    26.5410   996.6567 0.0000e+00
     -0.303      0.261     7.9751     96.545     34.655  34.666301     2.6684     10.211   228.8466 2.2113e+03     7.3749     -0.293     -0.426    26.0255   996.7949 0.0000e+00
     -0.255      0.261     8.0365     97.154     34.867  34.826060     1.6486     10.265   237.5148 2.2074e+03     4.6756     -0.250     -0.364    25.6200   996.9024 0.0000e+00
     -0.202      0.250     8.1077     97.962     35.006  34.944385     1.0819     10.289   241.9751 2.0614e+03     3.2006     -0.206     -0.299    25.3049   996.9846 0.0000e+00
     -0.132      0.240     8.1747     98.816     35.062  35.017987     1.0259     10.296   235.7982 1.7664e+03     3.0441     -0.136     -0.198    25.1078   997.0359 0.0000e+00
     -0.049      0.230     8.2313     99.595     35.089  35.081330     1.0499     10.290   224.5203 1.3007e+03     2.7171     -0.040     -0.058    24.9965   997.0650 0.0000e+00
      0.019      0.215     8.2794    100.257     35.117  35.139111     1.1129     10.276   218.1552 7.8292e+02     2.1313      0.030      0.044    24.9245   997.0839 0.0000e+00
      0.064      0.190     8.3164    100.759     35.103  35.145457     1.1534     10.263   216.9147 4.9098e+02     1.7949      0.064      0.092    24.8798   997.0954 0.0000e+00
      0.102      0.158     8.3321    100.987     34.975  35.031147     1.1587     10.253   216.1461 5.8557e+02     1.7629      0.099      0.143    24.9226   997.0846 0.0000e+00
      0.139      0.132     8.2769    100.318     34.780  34.835965     1.1690     10.242   215.4005 7.2240e+02     1.8434      0.138      0.200    24.9908   997.0673 0.0000e+00
      0.169      0.120     8.1510     98.706     34.666  34.689538     1.1913     10.226   214.6112 4.6503e+02     1.9812      0.172      0.250    25.0294   997.0576 0.0000e+00
      0.187      0.116     8.0668     97.499     34.642  34.593457     1.2111     10.207   213.8307 2.0478e+02     2.0531      0.183      0.266    25.0561   997.0509 0.0000e+00
      0.204      0.116     8.0687     97.275     34.643  34.499199     1.2263     10.192   213.2769 1.8817e+02     2.0567      0.190      0.276    25.0801   997.0447 0.0000e+00
      0.239      0.121     8.1142     97.581     34.675  34.438257     1.2539     10.180   212.9915 1.9690e+02     2.0247      0.231      0.336    25.0934   997.0414 0.0000e+00
      0.280      0.130     8.2053     98.479     34.739  34.427660     1.2930     10.165   212.7887 1.8669e+02     1.9937      0.282      0.409    25.0504   997.0527 0.0000e+00
      0.314      0.139     8.3579    100.159     34.803  34.434425     1.3172     10.149   212.8039 1.8878e+02     2.0097      0.309      0.447    24.9358   997.0821 0.0000e+00
      0.346      0.143     8.5300    102.109     34.868  34.456498     1.3303     10.133   213.0898 2.3748e+02     2.0214      0.333      0.483    24.7839   997.1209 0.0000e+00
      0.386      0.142     8.6760    103.776     34.946  34.504079     1.3383     10.114   213.4913 2.7628e+02     2.0372      0.379      0.550    24.6419   997.1571 0.0000e+00
      0.426      0.140     8.7850    105.028     35.027  34.565419     1.3372     10.090   213.9590 2.8465e+02     2.0689      0.423      0.612    24.5358   997.1841 0.0000e+00
      0.460      0.137     8.8376    105.617     35.104  34.626947     1.3337     10.063   214.3565 2.8005e+02     2.0777      0.450      0.653    24.4578   997.2038 0.0000e+00
      0.494      0.131     8.8224    105.395     35.104  34.613324     1.3306     10.039   214.5984 2.2610e+02     2.0778      0.483      0.701    24.3970   997.2192 0.0000e+00
      0.529      0.123     8.7524    104.520     35.031  34.527621     1.3334     10.020   214.8179 1.7227e+02     2.0702      0.520      0.755    24.3552   997.2299 0.0000e+00
      0.562      0.114     8.6433    103.180     34.996  34.479221     1.3769     10.005   215.1182 1.6784e+02     2.0520      0.554      0.804    24.3342   997.2353 0.0000e+00
      0.589      0.107     8.5094    101.544     35.004  34.472358     1.4579      9.990   215.3902 1.7437e+02     2.0541      0.579      0.840    24.3154   997.2402 0.0000e+00
      0.612      0.099     8.3636     99.756     34.994  34.444623     1.5056      9.976   215.6110 1.7425e+02     2.0622      0.600      0.868    24.2941   997.2456 0.0000e+00
      0.635      0.092     8.2034     97.774     34.974  34.397709     1.5206      9.963   215.8954 1.6773e+02     2.0515      0.623      0.903    24.2740   997.2506 0.0000e+00
      0.659      0.087     8.0269     95.578     34.962  34.349340     1.5874      9.953   216.1615 1.6642e+02     2.0889      0.647      0.938    24.2551   997.2554 0.0000e+00
      0.680      0.086     7.8638     93.543     34.953  34.304010     1.6981      9.940   216.2472 1.7074e+02     2.1861      0.668      0.968    24.2376   997.2599 0.0000e+00
      0.699      0.085     7.7586     92.230     34.968  34.293824     1.7578      9.925   216.0708 1.7187e+02     2.2769      0.685      0.994    24.2132   997.2661 0.0000e+00
      0.719      0.083     7.7354     91.922     34.977  34.289614     1.7715      9.909   215.6646 1.7030e+02     2.3352      0.703      1.020    24.1755   997.2755 0.0000e+00
      0.744      0.081     7.7841     92.471     34.952  34.253087     1.8285      9.897   215.2927 1.7368e+02     2.3332      0.729      1.058    24.1191   997.2896 0.0000e+00
      0.768      0.080     7.8787     93.555     34.947  34.232942     1.9270      9.887   215.1878 1.7971e+02     2.2860      0.756      1.097    24.0561   997.3053 0.0000e+00
      0.785      0.081     7.9907     94.845     34.967  34.236424     1.9742      9.878   215.2576 1.6661e+02     2.2564      0.772      1.120    24.0208   997.3141 0.0000e+00
      0.800      0.083     8.0915     96.009     34.976  34.231696     1.9830      9.869   215.4483 1.4933e+02     2.2696      0.784      1.136    24.0129   997.3162 0.0000e+00
      0.819      0.086     8.1607     96.812     34.991  34.239215     2.0423      9.860   215.6862 1.5051e+02     2.2818      0.803      1.164    23.9959   997.3204 0.0000e+00
      0.843      0.089     8.1872     97.122     35.018  34.263870     2.1368      9.849   215.8105 1.5666e+02     2.2724      0.826      1.198    23.9714   997.3265 0.0000e+00
      0.869      0.092     8.1708     96.926     35.030  34.275927     2.1884      9.839   215.9187 1.5628e+02     2.2878      0.851      1.234    23.9480   997.3324 0.0000e+00
      0.896      0.093     8.1249     96.374     35.015  34.258070     2.1899      9.828   216.0488 1.5290e+02     2.3036      0.879      1.275    23.9271   997.3377 0.0000e+00
      0.922      0.091     8.0696     95.697     35.003  34.238355     2.1980      9.816   216.1784 1.5134e+02     2.2336      0.906      1.313    23.9171   997.3403 0.0000e+00
      0.944      0.088     8.0191     95.068     35.005  34.227930     2.2258      9.805   216.2818 1.4926e+02     2.0966      0.928      1.345    23.9168   997.3405 0.0000e+00
      0.964      0.085     7.9773     94.529     34.989  34.195476     2.2397      9.794   216.3521 1.4553e+02     2.0240      0.946      1.372    23.9194   997.3400 0.0000e+00
      0.983      0.084     7.9404     94.035     34.979  34.163246     2.2452      9.784   216.5987 1.4838e+02     2.0447      0.964      1.398    23.9160   997.3408 0.0000e+00
      1.003      0.085     7.9019     93.521     35.060  34.218998     2.2492      9.774   217.0261 1.5986e+02     2.0512      0.983      1.425    23.9033   997.3440 0.0000e+00
      1.023      0.086     7.8609     93.005     35.220  34.361815     2.2091      9.759   217.3898 1.6881e+02     2.0045      1.002      1.454    23.8858   997.3484 0.0000e+00
      1.047      0.083     7.8266     92.592     35.292  34.430321     2.1249      9.743   217.5547 1.6756e+02     1.9722      1.025      1.488    23.8629   997.3541 0.0000e+00
      1.074      0.074     7.8086     92.362     35.217  34.349182     2.0728      9.731   217.5567 1.6381e+02     1.9883      1.054      1.528    23.8307   997.3622 0.0000e+00
      1.100      0.061     7.8127     92.370     35.087  34.205803     2.0731      9.723   217.6727 1.6821e+02     2.0355      1.083      1.570    23.7870   997.3729 0.0000e+00
      1.115      0.045     7.8408     92.652     34.992  34.092940     2.1201      9.715   217.9243 1.7457e+02     2.0836      1.098      1.593    23.7682   997.3777 0.0000e+00
      1.120      0.027     7.8870     93.154     35.044  34.126909     2.1976      9.710   218.0182 1.8070e+02     2.0780      1.100      1.596    23.7787   997.3752 0.0000e+00
      1.118      0.006     7.9335     93.688     35.293  34.362631     2.2304      9.712   217.7746 1.9697e+02     2.0336      1.096      1.591    23.7678   997.3777 0.0000e+00
      1.116     -0.022     7.9563     93.964     35.529  34.594813     2.2306      9.721   217.3876 2.1424e+02     2.0058      1.094      1.587    23.7397   997.3846 0.0000e+00
      1.115     -0.058     7.9390     93.810     35.499  34.585982     2.2171      9.729   217.2973 2.0800e+02     2.0035      1.095      1.588    23.7121   997.3913 0.0000e+00
      1.110     -0.100     7.8792     93.209     35.246  34.382821     2.1721      9.730   217.3714 1.9323e+02     2.0063      1.094      1.587    23.6759   997.4001 0.0000e+00
      1.089     -0.144     7.7896     92.216     34.999  34.169379     2.1370      9.725   217.3376 1.9467e+02     2.0068      1.079      1.564    23.6735   997.4007 0.0000e+00
      1.041     -0.184     7.6908     91.019     34.874  34.036212     2.1214      9.715   217.1463 2.0385e+02     2.0095      1.029      1.492    23.6763   997.3999 0.0000e+00
      0.972     -0.208     7.5995     89.886     34.837  33.978508     2.0264      9.703   216.8649 2.1591e+02     2.0069      0.955      1.384    23.6848   997.3975 0.0000e+00
      0.894     -0.205     7.5211     88.953     34.840  33.979362     1.8557      9.691   216.7748 2.3721e+02     2.0079      0.875      1.269    23.7824   997.3732 0.0000e+00
      0.823     -0.174     7.4540     88.204     34.955  34.110004     1.7659      9.678   216.8318 2.6586e+02     1.9889      0.800      1.160    23.8389   997.3589 0.0000e+00
      0.770     -0.121     7.3970     87.597     35.239  34.415749     1.7559      9.662   216.7790 2.9280e+02     1.9732      0.745      1.080    23.7956   997.3692 0.0000e+00
      0.746     -0.064     7.3460     87.069     35.489  34.693277     1.7689      9.644   216.6523 3.4021e+02     2.0150      0.720      1.045    23.7475   997.3810 0.0000e+00
      0.754     -0.014     7.3005     86.597     35.504  34.736601     1.8016      9.628   216.6763 3.7629e+02     2.0679      0.731      1.061    23.7465   997.3812 0.0000e+00
      0.782      0.021     7.2696     86.275     35.367  34.622294     1.8225      9.615   216.8983 3.7295e+02     2.0883      0.770      1.117    23.7811   997.3729 0.0000e+00
      0.807      0.039     7.2637     86.228     35.249  34.517080     1.8305      9.603   217.0987 3.8051e+02     2.0648      0.798      1.158    23.8231   997.3630 0.0000e+00
      0.816      0.039     7.2852     86.496     35.205  34.479941     1.8293      9.592   217.1211 3.7546e+02     2.0132      0.803      1.164    23.8745   997.3504 0.0000e+00
      0.818      0.028     7.3239     86.972     35.210  34.490590     1.8343      9.582   217.1696 3.5301e+02     1.9896      0.801      1.161    23.9200   997.3393 0.0000e+00
      0.820      0.016     7.3678     87.512     35.230  34.518910     1.8651      9.572   217.4263 3.8151e+02     2.0081      0.803      1.166    23.9489   997.3321 0.0000e+00
      0.822      0.009     7.4088     88.013     35.275  34.568502     1.8895      9.562   217.6441 4.4016e+02     2.0405      0.806      1.170    23.9573   997.3300 0.0000e+00
      0.823      0.008     7.4393     88.385     35.350  34.645947     1.8857      9.552   217.6513 4.4910e+02     2.0541      0.807      1.170    23.9618   997.3289 0.0000e+00
      0.824      0.007     7.4541     88.567     35.396  34.693712     1.8804      9.544   217.5998 4.1371e+02     2.0418      0.807      1.171    23.9729   997.3262 0.0000e+00
      0.827      0.004     7.4505     88.530     35.401  34.701763     1.8860      9.538   217.5373 4.1068e+02     2.0219      0.811      1.176    23.9860   997.3229 0.0000e+00
      0.831      0.001     7.4277     88.266     35.440  34.743297     1.8928      9.533   217.4983 4.7206e+02     2.0108      0.816      1.183    23.9948   997.3208 0.0000e+00
      0.831     -0.003     7.3861     87.780     35.509  34.815100     1.8925      9.527   217.5584 5.3676e+02     2.0054      0.816      1.184    23.9994   997.3197 0.0000e+00
      0.828     -0.008     7.3302     87.124     35.499  34.808329     1.8568      9.522   217.5757 5.5741e+02     1.9899      0.812      1.178    24.0032   997.3188 0.0000e+00
      0.825     -0.008     7.2687     86.401     35.346  34.661429     1.7909      9.517   217.6214 5.5052e+02     1.9865      0.809      1.173    24.0067   997.3179 0.0000e+00
      0.821     -0.002     7.2076     85.684     35.176  34.498675     1.7632      9.509   217.7669 5.3570e+02     2.0295      0.807      1.170    24.0114   997.3167 0.0000e+00
      0.815      0.009     7.1455     84.960     35.161  34.490614     1.7736      9.497   217.8715 5.2392e+02     2.0849      0.798      1.159    24.0170   997.3154 0.0000e+00
      0.811      0.017     7.0812     84.223     35.352  34.690903     1.7866      9.487   217.8543 5.6112e+02     2.0987      0.789      1.145    24.0208   997.3144 0.0000e+00
      0.820      0.010     7.0185     83.572     35.575  34.952911     1.8068      9.487   217.5585 6.2137e+02     2.0648      0.799      1.158    24.0241   997.3135 0.0000e+00
      0.841     -0.022     6.9700     83.296     35.540  35.056452     1.8184      9.488   217.1341 5.9177e+02     2.0353      0.825      1.197    24.0324   997.3116 0.0000e+00
      0.861     -0.082     6.9737     83.853     35.240  34.991014     1.8143      9.483   216.9395 5.0288e+02     2.0375      0.852      1.236    24.0371   997.3105 0.0000e+00
      0.857     -0.159     7.0674     85.467     34.892  34.860207     1.7922      9.470   217.0120 4.6698e+02     2.0263      0.857      1.243    24.0545   997.3063 0.0000e+00
      0.807     -0.236     7.2431     87.886     34.648  34.744547     1.7598      9.456   217.2367 5.0158e+02     1.9978      0.812      1.177    24.0680   997.3029 0.0000e+00
      0.707     -0.294     7.4588     90.622     34.525  34.671695     1.7517      9.441   217.5907 7.2690e+02     1.9871      0.702      1.019    24.2403   997.2595 0.0000e+00
      0.581     -0.315     7.6871     93.348     34.485  34.614098     1.7640      9.421   217.8516 9.6786e+02     1.9955      0.566      0.821    24.6633   997.1527 0.0000e+00
      0.463     -0.294     7.9141     95.894     34.508  34.555846     1.7699      9.401   217.9818 9.2705e+02     2.0016      0.442      0.641    25.0095   997.0640 0.0000e+00
      0.377     -0.234     8.1104     97.996     34.597  34.538440     1.7620      9.385   218.2182 8.8469e+02     1.9956      0.353      0.512    25.1644   997.0235 0.0000e+00
      0.333     -0.155     8.2544     99.501     34.742  34.593869     1.7548      9.368   218.4730 8.9167e+02     1.9884      0.314      0.456    25.2392   997.0041 0.0000e+00
      0.324     -0.078     8.3558    100.561     34.865  34.654716     1.7615      9.349   218.7394 8.5613e+02     2.0126      0.312      0.453    25.2201   997.0090 0.0000e+00
      0.335     -0.021     8.4341    101.404     34.950  34.702859     1.7731      9.332   219.0302 8.3708e+02     2.0587      0.327      0.473    25.0744   997.0465 0.0000e+00
      0.351      0.005     8.4977    102.103     35.068  34.795102     1.7911      9.320   219.0638 7.7392e+02     2.0881      0.346      0.501    24.8962   997.0923 0.0000e+00
      0.364      0.001     8.5378    102.552     35.167  34.881453     1.8144      9.317   218.8882 7.6158e+02     2.0723      0.361      0.523    24.7654   997.1258 0.0000e+00
      0.369     -0.022     8.5334    102.534     35.131  34.858376     1.8201      9.317   218.7995 7.8930e+02     2.0321      0.366      0.529    24.6797   997.1476 0.0000e+00
      0.364     -0.046     8.4828    102.005     35.012  34.769968     1.8168      9.308   218.9367 7.7281e+02     2.0273      0.363      0.524    24.6344   997.1590 0.0000e+00
      0.342     -0.058     8.4138    101.213     34.929  34.701096     1.8004      9.292   219.2567 1.0334e+03     2.0140      0.345      0.500    24.6033   997.1668 0.0000e+00
      0.304     -0.053     8.3458    100.361     34.901  34.660346     1.7699      9.274   219.5710 1.3047e+03     1.9702      0.297      0.431    24.5715   997.1747 0.0000e+00
      0.268     -0.032     8.2754     99.446     34.924  34.658034     1.7608      9.258   219.8982 1.0711e+03     1.9896      0.252      0.366    24.5903   997.1698 0.0000e+00
      0.258      0.001     8.1950     98.409     34.967  34.673101     1.7678      9.245   220.1154 1.0248e+03     2.0515      0.244      0.354    24.6628   997.1513 0.0000e+00
      0.273      0.037     8.1041     97.260     35.033  34.715550     1.8369      9.234   220.1319 1.4028e+03     2.0636      0.261      0.378    24.6841   997.1460 0.0000e+00
      0.304      0.067     8.0077     96.063     35.124  34.790444     1.9724      9.222   220.1834 1.4959e+03     2.0379      0.296      0.429    24.6544   997.1537 0.0000e+00
      0.340      0.080     7.9117     94.881     35.164  34.817015     2.0538      9.211   220.2222 1.2967e+03     2.0019      0.336      0.486    24.6134   997.1642 0.0000e+00
      0.371      0.077     7.8173     93.726     35.139  34.782933     2.0668      9.204   220.2572 1.1397e+03     1.9897      0.368      0.533    24.5703   997.1753 0.0000e+00
      0.390      0.067     7.7239     92.591     35.120  34.759148     2.0251      9.199   220.4351 1.0346e+03     2.0212      0.388      0.563    24.5373   997.1837 0.0000e+00
      0.395      0.055     7.6429     91.613     35.148  34.783298     1.9399      9.193   220.4798 1.3801e+03     2.0543      0.390      0.565    24.5174   997.1887 0.0000e+00
      0.395      0.044     7.5879     90.949     35.188  34.821057     1.8945      9.188   220.2818 1.8568e+03     2.0619      0.384      0.556    24.5023   997.1925 0.0000e+00
      0.403      0.035     7.5571     90.574     35.204  34.834885     1.8850      9.182   220.1054 1.6372e+03     2.0478      0.391      0.567    24.4849   997.1968 0.0000e+00
      0.420      0.030     7.5406     90.369     35.196  34.823546     1.8942      9.176   220.0683 1.1986e+03     2.0805      0.413      0.600    24.4784   997.1986 0.0000e+00
      0.435      0.030     7.5306     90.244     35.185  34.810893     1.9274      9.171   220.1768 1.0418e+03     2.1623      0.431      0.626    24.4767   997.1991 0.0000e+00
      0.440      0.030     7.5234     90.154     35.185  34.808827     1.9479      9.165   220.3849 1.1553e+03     2.2180      0.433      0.628    24.4733   997.2000 0.0000e+00
      0.440      0.028     7.5176     90.079     35.177  34.798560     1.9512      9.156   220.6065 1.2526e+03     2.2630      0.430      0.624    24.4707   997.2006 0.0000e+00
      0.442      0.025     7.5080     89.962     35.194  34.813681     1.9416      9.144   220.7046 1.0117e+03     2.3130      0.431      0.625    24.4647   997.2021 0.0000e+00
      0.449      0.021     7.4875     89.718     35.244  34.864724     1.9182      9.132   220.7104 7.2791e+02     2.2972      0.439      0.636    24.4614   997.2030 0.0000e+00
      0.461      0.014     7.4536     89.321     35.284  34.907990     1.8937      9.123   220.6764 7.1399e+02     2.2032      0.454      0.658    24.4614   997.2031 0.0000e+00
      0.472      0.003     7.4001     88.718     35.316  34.956013     1.8798      9.116   220.6387 8.7649e+02     2.1269      0.466      0.675    24.4568   997.2043 0.0000e+00
      0.475     -0.012     7.3226     87.866     35.327  35.001114     1.8798      9.109   220.5972 8.8587e+02     2.0630      0.469      0.680    24.4528   997.2052 0.0000e+00
      0.468     -0.030     7.2326     86.871     35.298  35.009091     1.9118      9.104   220.5196 7.6312e+02     2.0205      0.465      0.673    24.4575   997.2041 0.0000e+00
      0.452     -0.046     7.1421     85.841     35.252  34.989050     1.9709      9.100   220.6471 7.7507e+02     2.0386      0.444      0.643    24.4552   997.2046 0.0000e+00
      0.432     -0.054     7.0568     84.837     35.202  34.949245     2.0053      9.095   220.9333 8.4568e+02     2.0533      0.422      0.613    24.4713   997.2005 0.0000e+00
      0.413     -0.054     6.9854     83.977     35.162  34.908618     2.0067      9.088   221.1417 9.5671e+02     2.0343      0.406      0.589    24.5333   997.1849 0.0000e+00
      0.395     -0.044     6.9370     83.384     35.136  34.878631     1.9874      9.079   221.2736 1.0146e+03     2.0054      0.385      0.559    24.5931   997.1697 0.0000e+00
      0.384     -0.028     6.9150     83.102     35.106  34.840531     1.9543      9.069   221.3240 8.5120e+02     1.9992      0.372      0.540    24.6298   997.1603 0.0000e+00
      0.380     -0.012     6.9177     83.115     35.104  34.828745     1.9358      9.057   221.3206 6.8264e+02     2.0249      0.371      0.539    24.6406   997.1576 0.0000e+00
      0.382      0.001     6.9382     83.345     35.146  34.863040     1.9288      9.047   221.4046 6.6212e+02     2.0532      0.373      0.541    24.6335   997.1593 0.0000e+00
      0.387      0.009     6.9620     83.617     35.164  34.874393     1.9129      9.040   221.5647 7.2665e+02     2.0470      0.377      0.546    24.6286   997.1606 0.0000e+00
      0.396      0.010     6.9771     83.779     35.137  34.839078     1.8905      9.035   221.7081 7.8131e+02     2.0155      0.389      0.565    24.6166   997.1637 0.0000e+00
      0.403      0.007     6.9752     83.736     35.124  34.816826     1.8749      9.029   221.7624 7.9176e+02     1.9994      0.400      0.581    24.5990   997.1682 0.0000e+00
      0.403      0.001     6.9522     83.441     35.175  34.859199     1.8721      9.019   221.7043 1.0281e+03     2.0162      0.398      0.577    24.5920   997.1699 0.0000e+00
      0.397     -0.013     6.9112     82.940     35.291  34.970596     1.8562      9.009   221.6940 1.2411e+03     2.0543      0.389      0.565    24.5840   997.1719 0.0000e+00
      0.393     -0.038     6.8577     82.353     35.381  35.084763     1.8216      9.003   221.8095 9.9724e+02     2.0673      0.383      0.556    24.5705   997.1753 0.0000e+00
      0.391     -0.071     6.8018     81.866     35.307  35.097213     1.8086      8.997   221.9834 1.0514e+03     2.0424      0.384      0.557    24.5571   997.1786 0.0000e+00
      0.383     -0.107     6.7682     81.737     35.075  34.994322     1.8129      8.986   222.0745 1.3697e+03     2.0157      0.384      0.556    24.5453   997.1817 0.0000e+00
      0.355     -0.134     6.7911     82.243     34.831  34.856389     1.8038      8.971   221.9650 1.1906e+03     2.0069      0.358      0.520    24.5303   997.1854 0.0000e+00
      0.301     -0.145     6.8884     83.497     34.702  34.762444     1.7251      8.953   221.8643 1.1807e+03     2.0013      0.301      0.437    24.5379   997.1832 0.0000e+00
      0.233     -0.140     7.0500     85.370     34.724  34.747034     1.5901      8.936   221.9746 1.4844e+03     1.9812      0.227      0.329    24.6668   997.1504 0.0000e+00
      0.173     -0.121     7.2427     87.525     34.851  34.796932     1.5239      8.925   222.0947 1.4385e+03     1.9925      0.155      0.225    24.8968   997.0915 0.0000e+00
      0.148     -0.095     7.4246     89.536     34.991  34.857917     1.5225      8.917   222.1125 1.3602e+03     2.0396      0.129      0.189    25.0727   997.0463 0.0000e+00
      0.153     -0.067     7.5641     91.087     35.038  34.849605     1.5212      8.911   222.2753 1.3029e+03     1.9945      0.151      0.219    25.1219   997.0336 0.0000e+00
      0.163     -0.041     7.6462     92.025     34.905  34.696354     1.5171      8.903   222.6006 1.1072e+03     1.8398      0.167      0.243    25.0477   997.0528 0.0000e+00
      0.157     -0.020     7.6779     92.358     34.692  34.464667     1.5151      8.892   222.7758 1.0321e+03     1.7752      0.161      0.233    24.9165   997.0864 0.0000e+00
      0.137     -0.009     7.7084     92.579     34.618  34.333040     1.5234      8.879   222.7592 1.2760e+03     1.8034      0.133      0.194    24.7934   997.1176 0.0000e+00
      0.119     -0.005     7.8252     93.764     34.682  34.310621     1.5310      8.866   222.6580 1.7830e+03     1.8531      0.107      0.156    24.6995   997.1415 0.0000e+00
      0.121     -0.004     8.0822     96.654     34.766  34.320396     1.5210      8.857   222.5848 1.7672e+03     1.9504      0.112      0.162    24.6915   997.1435 0.0000e+00
      0.141     -0.000     8.4492    100.920     34.817  34.324196     1.5065      8.847   222.6479 1.2372e+03     1.9962      0.140      0.203    24.6968   997.1422 0.0000e+00
      0.156      0.003     8.8472    105.598     34.813  34.293028     1.5029      8.833   222.6474 9.2969e+02     2.0134      0.161      0.234    24.5978   997.1673 0.0000e+00
      0.154     -0.000     9.2059    109.825     34.799  34.260836     1.4946      8.819   222.4068 9.0497e+02     1.9946      0.155      0.225    24.4479   997.2050 0.0000e+00
      0.140     -0.012     9.4954    113.230     34.807  34.252271     1.4754      8.809   222.0620 9.1282e+02     1.8671      0.135      0.195    24.3375   997.2325 0.0000e+00
      0.129     -0.032     9.7078    115.725     34.821  34.252908     1.4619      8.803   221.9191 9.1281e+02     1.7829      0.121      0.176    24.2773   997.2475 0.0000e+00
      0.127     -0.054     9.8367    117.260     34.837  34.268514     1.4524      8.796   222.3141 9.9772e+02     1.8287      0.124      0.181    24.2443   997.2558 0.0000e+00
      0.124     -0.076     9.8813    117.841     34.868  34.314033     1.4380      8.787   227.0097 1.1461e+03     2.0272      0.127      0.186    24.2214   997.2615 0.0000e+00
      0.107     -0.099     9.8569    117.635     34.886  34.359040     1.4182      8.778   231.8025 1.3692e+03     2.3149      0.111      0.162    24.1962   997.2677 0.0000e+00
      0.073     -0.120     9.7971    117.017     34.863  34.368475     1.3951      8.769   228.5537 1.6008e+03     2.4569      0.078      0.113    24.1724   997.2734 0.0000e+00
      0.028     -0.137     9.7314    116.328     34.828  34.364698     1.3841      8.761   228.6827 1.7387e+03     2.4652      0.030      0.044    24.1694   997.2739 0.0000e+00
     -0.021     -0.142     9.6716    115.704     34.810  34.376886     1.3799      8.751   236.9765 1.7866e+03     2.4484     -0.024     -0.035    24.1948   997.2674 0.0000e+00
     -0.064     -0.136     9.6192    115.161     34.795  34.388952     1.3627      8.741   242.0196 1.7916e+03     2.3198     -0.068     -0.099    24.2387   997.2562 0.0000e+00
     -0.096     -0.121     9.5754    114.701     34.769  34.383701     1.3405      8.731   242.5947 1.7762e+03     2.1220     -0.096     -0.139    24.2848   997.2447 0.0000e+00
     -0.121     -0.100     9.5398    114.302     34.753  34.376882     1.3282      8.719   242.3822 1.7382e+03     2.0234     -0.119     -0.174    24.3281   997.2338 0.0000e+00
     -0.142     -0.079     9.5088    113.929     34.746  34.369982     1.3264      8.707   242.0311 1.7115e+03     2.0125     -0.140     -0.204    24.3733   997.2223 0.0000e+00
     -0.160     -0.060     9.4816    113.610     34.738  34.363740     1.3360      8.694   241.7908 1.7191e+03     2.0228     -0.159     -0.230    24.4117   997.2127 0.0000e+00
     -0.173     -0.044     9.4609    113.387     34.731  34.364883     1.3412      8.679   241.7139 1.7246e+03     2.0165     -0.173     -0.250    24.4473   997.2037 0.0000e+00
     -0.182     -0.031     9.4459    113.235     34.741  34.383816     1.3282      8.664   241.7033 1.7057e+03     2.0021     -0.179     -0.260    24.4607   997.2002 0.0000e+00
     -0.187     -0.022     9.4306    113.062     34.756  34.402273     1.3261      8.654   241.6620 1.6755e+03     2.0128     -0.185     -0.268    24.4482   997.2034 0.0000e+00
     -0.187     -0.019     9.4130    112.839     34.755  34.397657     1.3589      8.649   241.5590 1.6503e+03     1.9821     -0.184     -0.267    24.4512   997.2026 0.0000e+00
     -0.187     -0.020     9.3980    112.641     34.755  34.391464     1.4045      8.648   241.4913 1.6459e+03     1.8935     -0.182     -0.264    24.4686   997.1982 0.0000e+00
     -0.189     -0.025     9.3911    112.548     34.758  34.390849     1.4350      8.648   241.5323 1.6563e+03     1.8257     -0.184     -0.266    24.4840   997.1944 0.0000e+00
     -0.196     -0.029     9.3931    112.560     34.761  34.390217     1.4497      8.646   241.4508 1.6600e+03     1.8173     -0.190     -0.275    24.4903   997.1928 0.0000e+00
     -0.210     -0.029     9.3989    112.612     34.761  34.383814     1.4354      8.641   241.1084 1.6593e+03     1.8911     -0.205     -0.298    24.4810   997.1951 0.0000e+00
     -0.225     -0.025     9.4072    112.690     34.761  34.376890     1.4008      8.631   240.5763 1.6640e+03     1.9966     -0.224     -0.325    24.4689   997.1980 0.0000e+00
     -0.235     -0.015     9.4185    112.801     34.762  34.369958     1.3958      8.621   240.0937 1.6770e+03     2.0438     -0.234     -0.341    24.4659   997.1986 0.0000e+00
     -0.237     -0.003     9.4300    112.915     34.763  34.363452     1.4092      8.611   239.8335 1.7002e+03     2.0683     -0.235     -0.339    24.4623   997.1996 0.0000e+00
     -0.232      0.011     9.4410    113.032     34.766  34.361676     1.4067      8.604   239.5807 1.7252e+03     2.0647     -0.229     -0.331    24.4520   997.2022 0.0000e+00
     -0.223      0.022     9.4492    113.127     34.754  34.348474     1.4003      8.598   239.1879 1.7316e+03     2.0324     -0.219     -0.319    24.4417   997.2048 0.0000e+00
     -0.214      0.028     9.4507    113.148     34.736  34.330749     1.3924      8.592   238.8703 1.7217e+03     2.0388     -0.209     -0.303    24.4314   997.2076 0.0000e+00
     -0.205      0.029     9.4498    113.140     34.742  34.337766     1.3895      8.587   238.7513 1.7205e+03     2.0434     -0.201     -0.291    24.4183   997.2108 0.0000e+00
     -0.198      0.026     9.4508    113.150     34.775  34.369856     1.3913      8.585   238.6955 1.7249e+03     2.0224     -0.195     -0.282    24.4093   997.2131 0.0000e+00
     -0.191      0.020     9.4501    113.141     34.807  34.401417     1.3711      8.584   238.6264 1.7264e+03     2.0141     -0.188     -0.272    24.4097   997.2131 0.0000e+00
     -0.185      0.014     9.4456    113.087     34.808  34.402051     1.3437      8.583   238.5179 1.7289e+03     2.0409     -0.180     -0.262    24.4124   997.2123 0.0000e+00
     -0.182      0.009     9.4393    113.012     34.782  34.377517     1.3287      8.582   238.3314 1.7287e+03     2.0851     -0.178     -0.258    24.4132   997.2121 0.0000e+00
     -0.182      0.005     9.4351    112.966     34.762  34.358641     1.3206      8.581   238.2639 1.7261e+03     2.0897     -0.177     -0.257    24.4128   997.2123 0.0000e+00
     -0.184      0.001     9.4345    112.969     34.764  34.364221     1.3320      8.577   238.3037 1.7268e+03     1.9972     -0.180     -0.261    24.4114   997.2126 0.0000e+00
     -0.185     -0.001     9.4347    112.987     34.776  34.381531     1.3626      8.573   238.2097 1.7290e+03     1.8525     -0.183     -0.265    24.4112   997.2127 0.0000e+00
     -0.184     -0.001     9.4325    112.981     34.765  34.377537     1.3866      8.571   238.0737 1.7235e+03     1.8153     -0.181     -0.262    24.4116   997.2125 0.0000e+00
     -0.184      0.000     9.4306    112.980     34.760  34.379407     1.3967      8.568   238.0365 1.7094e+03     1.8425     -0.179     -0.260    24.4134   997.2121 0.0000e+00
     -0.185      0.002     9.4326    113.019     34.779  34.404149     1.3992      8.563   238.1900 1.6998e+03     1.8536     -0.181     -0.263    24.4187   997.2108 0.0000e+00
     -0.186      0.003     9.4353    113.069     34.792  34.422836     1.3901      8.559   238.3810 1.7043e+03     1.9165     -0.183     -0.265    24.4255   997.2090 0.0000e+00
     -0.184      0.003     9.4365    113.109     34.776  34.414966     1.3731      8.556   238.0220 1.7122e+03     1.9809     -0.181     -0.262    24.4354   997.2066 0.0000e+00
     -0.179      0.003     9.4328    113.079     34.728  34.372470     1.3677      8.549   237.2056 1.7121e+03     2.0091     -0.175     -0.253    24.4484   997.2033 0.0000e+00
     -0.178      0.007     9.4230    112.949     34.713  34.353290     1.3329      8.537   236.5977 1.7198e+03     1.9620     -0.172     -0.250    24.4539   997.2020 0.0000e+00
     -0.181      0.012     9.4131    112.799     34.744  34.373445     1.2564      8.524   236.1791 1.7477e+03     1.8376     -0.177     -0.257    24.4595   997.2006 0.0000e+00
     -0.182      0.018     9.4037    112.641     34.748  34.362295     1.2139      8.517   235.6710 1.7793e+03     1.7831     -0.182     -0.263    24.4768   997.1962 0.0000e+00
     -0.176      0.026     9.3917    112.441     34.750  34.345375     1.2094      8.514   233.2080 1.7943e+03     1.7944     -0.175     -0.255    24.4873   997.1935 0.0000e+00
     -0.165      0.033     9.3795    112.239     34.783  34.359242     1.2274      8.514   230.9203 1.7925e+03     1.8429     -0.161     -0.235    24.4788   997.1958 0.0000e+00
     -0.153      0.038     9.3726    112.115     34.777  34.339527     1.2590      8.516   232.8755 1.7811e+03     1.9438     -0.150     -0.217    24.4611   997.2003 0.0000e+00
     -0.140      0.039     9.3746    112.105     34.746  34.297384     1.2705      8.518   235.2535 1.7545e+03     1.9986     -0.137     -0.199    24.4409   997.2054 0.0000e+00
     -0.128      0.036     9.3828    112.163     34.756  34.293933     1.2705      8.518   235.6665 1.7197e+03     2.0141     -0.124     -0.180    24.4126   997.2126 0.0000e+00
     -0.118      0.030     9.3914    112.228     34.773  34.297774     1.2597      8.515   235.7189 1.6991e+03     2.0646     -0.115     -0.166    24.3811   997.2205 0.0000e+00
     -0.113      0.024     9.3991    112.293     34.764  34.280350     1.2357      8.512   235.5425 1.7079e+03     2.1185     -0.110     -0.159    24.3632   997.2250 0.0000e+00
     -0.109      0.019     9.4081    112.383     34.763  34.273645     1.2224      8.510   235.2546 1.7459e+03     2.1093     -0.108     -0.157    24.3520   997.2278 0.0000e+00
     -0.106      0.015     9.4192    112.503     34.773  34.280153     1.2200      8.510   235.0776 1.7893e+03     2.0503     -0.104     -0.151    24.3298   997.2334 0.0000e+00
     -0.102      0.012     9.4300    112.633     34.789  34.295569     1.2157      8.508   235.0366 1.8108e+03     2.0280     -0.100     -0.145    24.3073   997.2391 0.0000e+00
     -0.100      0.011     9.4386    112.760     34.819  34.333106     1.2397      8.504   234.9306 1.8058e+03     2.0031     -0.098     -0.143    24.2978   997.2414 0.0000e+00
     -0.097      0.010     9.4456    112.890     34.824  34.353239     1.3029      8.500   234.8294 1.7832e+03     1.9132     -0.095     -0.140    24.2906   997.2432 0.0000e+00
     -0.094      0.009     9.4519    113.013     34.804  34.348622     1.3380      8.497   234.7593 1.7519e+03     1.8258     -0.092     -0.134    24.2826   997.2453 0.0000e+00
     -0.092      0.008     9.4548    113.081     34.785  34.340762     1.3260      8.495   234.6845 1.7205e+03     1.7993     -0.090     -0.131    24.2804   997.2458 0.0000e+00
     -0.090      0.009     9.4521    113.061     34.761  34.321695     1.3047      8.494   234.7005 1.6930e+03     1.8880     -0.087     -0.127    24.2913   997.2431 0.0000e+00
     -0.090      0.012     9.4463    112.980     34.751  34.308485     1.2882      8.492   234.6940 1.6744e+03     2.0127     -0.086     -0.125    24.3184   997.2363 0.0000e+00
     -0.090      0.017     9.4393    112.867     34.760  34.307967     1.2743      8.489   234.6054 1.6646e+03     2.0294     -0.091     -0.131    24.3441   997.2298 0.0000e+00
     -0.086      0.022     9.4335    112.772     34.776  34.315411     1.2666      8.484   234.6620 1.6625e+03     1.9917     -0.086     -0.126    24.3586   997.2263 0.0000e+00
     -0.077      0.026     9.4288    112.706     34.799  34.335007     1.2988      8.481   234.8625 1.6709e+03     1.9822     -0.075     -0.109    24.3677   997.2240 0.0000e+00
     -0.067      0.030     9.4221    112.635     34.816  34.354508     1.3602      8.479   235.0502 1.6813e+03     2.0133     -0.066     -0.095    24.3609   997.2257 0.0000e+00
     -0.057      0.031     9.4149    112.569     34.816  34.360807     1.3941      8.478   235.1249 1.6837e+03     2.0393     -0.056     -0.083    24.3419   997.2306 0.0000e+00
     -0.048      0.029     9.4101    112.534     34.795  34.347706     1.3956      8.477   235.0768 1.6768e+03     2.0020     -0.047     -0.069    24.3278   997.2341 0.0000e+00
     -0.042      0.026     9.4084    112.534     34.763  34.323048     1.4050      8.477   235.1564 1.6689e+03     1.9235     -0.040     -0.058    24.3231   997.2353 0.0000e+00
     -0.037      0.024     9.4088    112.554     34.752  34.316541     1.4377      8.476   235.3139 1.6685e+03     1.8440     -0.036     -0.052    24.3288   997.2340 0.0000e+00
     -0.033      0.023     9.4088    112.559     34.766  34.332496     1.4617      8.474   235.3467 1.6705e+03     1.7945     -0.033     -0.047    24.3403   997.2311 0.0000e+00
     -0.028      0.023     9.4053    112.514     34.760  34.325575     1.4615      8.473   235.2945 1.6705e+03     1.7836     -0.028     -0.041    24.3512   997.2284 0.0000e+00
     -0.022      0.027     9.3989    112.427     34.735  34.296312     1.4535      8.473   235.1125 1.6704e+03     1.7782     -0.022     -0.032    24.3613   997.2259 0.0000e+00
     -0.016      0.035     9.3929    112.336     34.740  34.296003     1.4428      8.471   234.8666 1.6682e+03     1.8277     -0.015     -0.021    24.3697   997.2238 0.0000e+00
     -0.008      0.047     9.3908    112.296     34.772  34.321823     1.4265      8.467   234.5593 1.6060e+03     1.9556     -0.009     -0.013    24.3719   997.2234 0.0000e+00
      0.002      0.062     9.3951    112.341     34.807  34.354632     1.4130      8.458   234.2364 1.5333e+03     2.0461      0.001      0.001    24.3696   997.2239 0.0000e+00
      0.017      0.078     9.4056    112.464     34.829  34.375371     1.4091      8.447   232.2528 1.5513e+03     2.0701      0.015      0.021    24.3652   997.2250 0.0000e+00
      0.040      0.090     9.4199    112.634     34.836  34.382173     1.4222      8.439   228.1283 1.8803e+03     2.0491      0.035      0.051    24.3545   997.2279 0.0000e+00
      0.072      0.101     9.4314    112.780     34.824  34.373407     1.4504      8.437   225.4078 1.9955e+03     2.0220      0.069      0.100    24.3444   997.2305 0.0000e+00
      0.107      0.114     9.4339    112.829     34.777  34.332849     1.4649      8.436   224.8268 1.2989e+03     2.0371      0.108      0.156    24.3446   997.2307 0.0000e+00
      0.136      0.128     9.4314    112.790     34.719  34.272594     1.4677      8.435   224.6307 7.7184e+02     2.0351      0.138      0.199    24.3432   997.2312 0.0000e+00
      0.157      0.138     9.4300    112.680     34.693  34.216054     1.5270      8.434   224.4999 8.8723e+02     2.0627      0.150      0.218    24.3396   997.2321 0.0000e+00
      0.188      0.137     9.4265    112.484     34.749  34.220364     1.6361      8.436   224.3638 1.0277e+03     2.1742      0.173      0.252    24.3443   997.2310 0.0000e+00
      0.238      0.127     9.4165    112.257     34.827  34.261169     1.7028      8.440   224.1901 9.7583e+02     2.2372      0.232      0.337    24.3577   997.2279 0.0000e+00
      0.291      0.109     9.4022    112.085     34.832  34.265107     1.7172      8.442   223.9479 9.8844e+02     2.2347      0.294      0.427    24.3681   997.2256 0.0000e+00
      0.325      0.086     9.3882    111.984     34.812  34.267983     1.6801      8.442   223.8443 1.0461e+03     2.1433      0.328      0.476    24.3238   997.2367 0.0000e+00
      0.336      0.064     9.3775    111.933     34.815  34.295982     1.6101      8.439   224.2281 9.4355e+02     1.9188      0.333      0.484    24.2220   997.2622 0.0000e+00
      0.333      0.053     9.3727    111.920     34.790  34.286356     1.5736      8.432   224.8031 8.8516e+02     1.7814      0.327      0.475    24.1584   997.2780 0.0000e+00
      0.326      0.059     9.3762    111.940     34.725  34.215080     1.5685      8.426   225.0311 9.4059e+02     1.7934      0.318      0.461    24.1697   997.2752 0.0000e+00
      0.326      0.080     9.3831    111.921     34.675  34.132281     1.5731      8.424   225.0927 9.4199e+02     1.8674      0.312      0.452    24.2120   997.2646 0.0000e+00
      0.348      0.111     9.3851    111.800     34.637  34.046768     1.5781      8.423   225.2038 9.9402e+02     1.9879      0.329      0.478    24.2542   997.2541 0.0000e+00
      0.397      0.151     9.3832    111.622     34.584  33.942645     1.5762      8.420   225.1697 1.2669e+03     2.0364      0.385      0.559    24.2823   997.2475 0.0000e+00
      0.455      0.191     9.3809    111.418     34.524  33.825221     1.5852      8.418   225.0241 1.3275e+03     2.0288      0.454      0.660    24.2775   997.2490 0.0000e+00
      0.503      0.220     9.3805    111.193     34.476  33.705807     1.6957      8.419   224.9056 9.5333e+02     2.1251      0.495      0.719    24.2181   997.2639 0.0000e+00
      0.552      0.228     9.3854    111.000     34.494  33.641062     1.8896      8.422   224.7705 6.8563e+02     2.2499      0.529      0.767    24.1413   997.2831 0.0000e+00
      0.622      0.214     9.3949    110.902     34.603  33.676892     1.9872      8.425   224.6806 6.1431e+02     2.2599      0.604      0.876    24.0708   997.3009 0.0000e+00
      0.705      0.188     9.4056    110.931     34.721  33.758146     1.9922      8.427   224.7647 6.0367e+02     2.2456      0.702      1.018    23.9908   997.3211 0.0000e+00
      0.765      0.155     9.4148    111.058     34.756  33.798426     2.0012      8.428   224.9279 6.4768e+02     2.2414      0.764      1.107    23.8860   997.3471 0.0000e+00
      0.792      0.120     9.4223    111.215     34.716  33.783141     2.0445      8.429   224.9334 6.0702e+02     2.1764      0.784      1.135    23.7513   997.3802 0.0000e+00
      0.797      0.085     9.4323    111.391     34.676  33.763763     2.1081      8.429   224.8308 5.4148e+02     2.0827      0.783      1.136    23.6348   997.4086 0.0000e+00
      0.797      0.060     9.4495    111.616     34.659  33.754552     2.1378      8.430   224.8927 5.4601e+02     2.0264      0.778      1.129    23.5855   997.4206 0.0000e+00
      0.804      0.051     9.4731    111.869     34.649  33.735252     2.1339      8.430   224.9926 5.7536e+02     2.0190      0.785      1.139    23.6110   997.4145 0.0000e+00
      0.820      0.054     9.4970    112.103     34.650  33.720773     2.1223      8.430   225.0920 5.7357e+02     2.0262      0.803      1.164    23.6538   997.4041 0.0000e+00
      0.841      0.060     9.5138    112.247     34.653  33.706399     2.1178      8.430   225.3205 5.2559e+02     2.0159      0.825      1.196    23.6841   997.3967 0.0000e+00
      0.862      0.063     9.5198    112.261     34.654  33.688356     2.1228      8.431   225.5184 4.4734e+02     1.9928      0.846      1.227    23.7004   997.3929 0.0000e+00
      0.879      0.060     9.5187    112.195     34.677  33.692985     2.1228      8.431   225.6778 4.1623e+02     1.9760      0.864      1.253    23.6797   997.3981 0.0000e+00
      0.894      0.055     9.5126    112.089     34.695  33.698871     2.1083      8.431   225.8710 4.4976e+02     1.9767      0.879      1.274    23.6518   997.4050 0.0000e+00
      0.906      0.048     9.5001    111.925     34.697  33.696044     2.0869      8.432   226.0480 5.0851e+02     2.0004      0.889      1.290    23.6316   997.4098 0.0000e+00
      0.915      0.043     9.4826    111.732     34.720  33.722261     2.0724      8.433   226.1832 5.2712e+02     2.0007      0.897      1.301    23.5995   997.4177 0.0000e+00
      0.923      0.040     9.4644    111.575     34.741  33.762010     2.0624      8.433   226.3009 4.7327e+02     1.9801      0.905      1.313    23.5718   997.4245 0.0000e+00
      0.933      0.039     9.4499    111.494     34.745  33.795882     2.0537      8.432   226.4379 4.3987e+02     2.0146      0.915      1.327    23.5580   997.4279 0.0000e+00
      0.943      0.041     9.4446    111.512     34.736  33.814539     2.0536      8.430   226.5494 4.4089e+02     2.0571      0.925      1.341    23.5474   997.4305 0.0000e+00
      0.953      0.044     9.4509    111.624     34.706  33.797239     2.0617      8.430   226.5313 4.1030e+02     2.0342      0.934      1.355    23.5497   997.4299 0.0000e+00
      0.964      0.046     9.4659    111.804     34.684  33.777114     2.0645      8.430   226.4773 3.7497e+02     2.0012      0.945      1.370    23.5782   997.4231 0.0000e+00
      0.976      0.048     9.4854    112.020     34.673  33.761594     2.0357      8.429   226.4987 3.7098e+02     2.0187      0.958      1.388    23.6303   997.4105 0.0000e+00
      0.991      0.051     9.5054    112.225     34.658  33.736513     1.9820      8.428   226.5311 3.5414e+02     2.0483      0.972      1.409    23.6768   997.3993 0.0000e+00
      1.005      0.053     9.5236    112.390     34.666  33.727699     1.9521      8.428   226.6110 3.1343e+02     2.0314      0.985      1.429    23.6913   997.3958 0.0000e+00
      1.017      0.056     9.5391    112.525     34.673  33.718470     1.9427      8.427   226.9487 2.7606e+02     2.0114      0.998      1.447    23.6869   997.3969 0.0000e+00
      1.031      0.058     9.5499    112.618     34.653  33.688355     1.9387      8.426   227.4307 2.5296e+02     2.0030      1.010      1.464    23.6827   997.3980 0.0000e+00
      1.046      0.058     9.5536    112.640     34.653  33.680881     1.9899      8.424   227.7928 2.4580e+02     1.9953      1.025      1.486    23.6694   997.4013 0.0000e+00
      1.062      0.057     9.5517    112.609     34.667  33.691561     2.0845      8.424   228.1428 2.5768e+02     2.0163      1.042      1.511    23.6402   997.4085 0.0000e+00
      1.078      0.056     9.5464    112.545     34.666  33.690557     2.1375      8.423   228.3938 2.6349e+02     2.0276      1.059      1.536    23.6151   997.4147 0.0000e+00
      1.093      0.053     9.5374    112.432     34.646  33.668739     2.1459      8.421   228.5041 2.4972e+02     2.0331      1.073      1.556    23.6011   997.4181 0.0000e+00
      1.105      0.050     9.5256    112.258     34.606  33.618151     2.1508      8.421   228.6171 2.4576e+02     2.0507      1.083      1.571    23.5898   997.4209 0.0000e+00
      1.116      0.047     9.5118    112.035     34.594  33.586582     2.1624      8.421   228.6408 2.4852e+02     2.0439      1.095      1.587    23.5850   997.4222 0.0000e+00
      1.128      0.045     9.4969    111.796     34.634  33.604327     2.1744      8.421   228.7042 2.4369e+02     2.0161      1.106      1.604    23.5888   997.4212 0.0000e+00
      1.139      0.043     9.4815    111.580     34.684  33.642287     2.1826      8.420   228.9530 2.2946e+02     2.0091      1.117      1.620    23.5889   997.4213 0.0000e+00
      1.150      0.043     9.4634    111.379     34.703  33.664758     2.2092      8.419   229.1541 2.1122e+02     2.0254      1.128      1.636    23.5728   997.4253 0.0000e+00
      1.160      0.042     9.4395    111.147     34.708  33.685637     2.2615      8.418   229.1573 1.9981e+02     2.0164      1.138      1.650    23.5395   997.4333 0.0000e+00
      1.171      0.041     9.4144    110.908     34.708  33.704372     2.3040      8.417   229.1633 2.0108e+02     1.9982      1.148      1.665    23.5030   997.4422 0.0000e+00
      1.181      0.040     9.3981    110.760     34.690  33.700920     2.3242      8.416   229.3123 2.0520e+02     2.0356      1.159      1.680    23.4830   997.4471 0.0000e+00
      1.192      0.039     9.3950    110.738     34.691  33.707382     2.3409      8.415   229.5826 2.0544e+02     2.1409      1.169      1.695    23.4905   997.4454 0.0000e+00
      1.202      0.038     9.3978    110.750     34.710  33.719056     2.3582      8.415   229.7642 1.9947e+02     2.2546      1.179      1.709    23.5202   997.4382 0.0000e+00
      1.211      0.037     9.3946    110.663     34.723  33.715127     2.3690      8.415   229.7872 1.8873e+02     2.2956      1.188      1.724    23.5520   997.4305 0.0000e+00
      1.220      0.036     9.3825    110.469     34.749  33.723317     2.3757      8.416   229.9468 1.8268e+02     2.2764      1.196      1.735    23.5736   997.4254 0.0000e+00
      1.229      0.035     9.3686    110.259     34.797  33.754589     2.3699      8.416   230.1455 1.7830e+02     2.2527      1.205      1.747    23.5839   997.4230 0.0000e+00
      1.239      0.033     9.3568    110.050     34.844  33.775894     2.3337      8.415   230.2106 1.7214e+02     2.2387      1.215      1.762    23.5726   997.4257 0.0000e+00
      1.247      0.032     9.3453    109.810     34.895  33.790485     2.3023      8.413   230.3903 1.6855e+02     2.2380      1.223      1.774    23.5415   997.4332 0.0000e+00
      1.254      0.030     9.3292    109.521     34.944  33.804025     2.3025      8.411   230.6832 1.7053e+02     2.2443      1.230      1.784    23.5155   997.4396 0.0000e+00
      1.262      0.029     9.3087    109.219     34.975  33.812636     2.3109      8.411   230.8267 1.7427e+02     2.2488      1.237      1.795    23.5004   997.4433 0.0000e+00
      1.269      0.029     9.2901    108.983     35.000  33.831101     2.3251      8.411   230.9204 1.7422e+02     2.2272      1.244      1.805    23.4709   997.4504 0.0000e+00
      1.275      0.029     9.2771    108.863     34.995  33.836889     2.3438      8.411   231.1287 1.7060e+02     2.2122      1.250      1.813    23.4087   997.4655 0.0000e+00
      1.281      0.030     9.2683    108.818     34.956  33.819168     2.3550      8.410   231.3657 1.6709e+02     2.2642      1.256      1.822    23.3540   997.4787 0.0000e+00
      1.289      0.031     9.2588    108.734     34.934  33.807267     2.3660      8.409   231.5490 1.6707e+02     2.2991      1.264      1.834    23.3287   997.4849 0.0000e+00
      1.298      0.033     9.2510    108.621     34.954  33.819933     2.4326      8.408   231.6249 1.6979e+02     2.2405      1.273      1.846    23.3128   997.4887 0.0000e+00
      1.307      0.034     9.2530    108.590     34.999  33.845373     2.5533      8.407   231.6807 1.7341e+02     2.1782      1.281      1.859    23.3338   997.4837 0.0000e+00
      1.316      0.036     9.2630    108.625     34.979  33.797508     2.6204      8.405   231.8796 1.7500e+02     2.1690      1.291      1.873    23.3777   997.4732 0.0000e+00
      1.325      0.037     9.2819    108.687     34.853  33.621952     2.6195      8.403   232.1364 1.7496e+02     2.1942      1.300      1.885    23.3907   997.4701 0.0000e+00
      1.334      0.038     9.3048    108.705     34.748  33.436165     2.5428      8.403   232.2906 1.8100e+02     2.2210      1.308      1.897    23.3779   997.4732 0.0000e+00
      1.344      0.040     9.3221    108.638     34.730  33.328013     2.4043      8.402   232.3681 1.8850e+02     2.2314      1.318      1.911    23.3462   997.4808 0.0000e+00
      1.355      0.042     9.3411    108.620     34.816  33.329564     2.3228      8.402   232.3851 1.8684e+02     2.2543      1.328      1.927    23.3188   997.4875 0.0000e+00
      1.366      0.043     9.3667    108.718     35.018  33.454801     2.3035      8.401   232.4097 1.8414e+02     2.2679      1.339      1.943    23.2505   997.5039 0.0000e+00
      1.377      0.043     9.3937    108.903     35.188  33.572897     2.3182      8.399   232.5800 1.8434e+02     2.2976      1.350      1.958    23.1049   997.5386 0.0000e+00
      1.390      0.042     9.4250    109.249     35.238  33.615061     2.3619      8.398   232.7227 1.8308e+02     2.3838      1.363      1.977    22.9687   997.5710 0.0000e+00
      1.402      0.040     9.4682    109.801     35.253  33.647283     2.3810      8.396   232.6722 1.8637e+02     2.4578      1.376      1.996    22.8551   997.5978 0.0000e+00
      1.412      0.038     9.5231    110.441     35.316  33.708664     2.3665      8.396   232.4853 1.9256e+02     2.4721      1.385      2.009    22.7519   997.6222 0.0000e+00
      1.420      0.035     9.5837    111.061     35.426  33.786046     2.3341      8.396   232.3561 1.9122e+02     2.4253      1.392      2.019    22.6783   997.6395 0.0000e+00
      1.428      0.033     9.6338    111.524     35.504  33.821304     2.2923      8.396   232.4007 1.8798e+02     2.3510      1.400      2.030    22.6765   997.6400 0.0000e+00
      1.436      0.032     9.6593    111.723     35.534  33.817585     2.2698      8.396   232.4229 1.8744e+02     2.2946      1.408      2.042    22.7292   997.6277 0.0000e+00
      1.444      0.032     9.6633    111.698     35.545  33.804490     2.2608      8.395   232.5386 1.8366e+02     2.2676      1.416      2.053    22.7397   997.6252 0.0000e+00
      1.452      0.031     9.6505    111.500     35.480  33.726403     2.2528      8.394   232.8530 1.8102e+02     2.2546      1.424      2.065    22.6850   997.6382 0.0000e+00
      1.460      0.030     9.6227    111.163     35.390  33.634976     2.2508      8.393   233.1273 1.8590e+02     2.2355      1.432      2.078    22.6186   997.6537 0.0000e+00
      1.469      0.029     9.5859    110.741     35.406  33.651001     2.2456      8.392   233.2731 1.9270e+02     2.2327      1.440      2.089    22.5762   997.6636 0.0000e+00
      1.476      0.027     9.5477    110.299     35.489  33.729778     2.2423      8.391   233.3253 2.0118e+02     2.2542      1.447      2.099    22.5440   997.6712 0.0000e+00
      1.482      0.026     9.5153    109.901     35.598  33.825898     2.2460      8.389   233.4150 2.1113e+02     2.2650      1.454      2.108    22.5159   997.6777 0.0000e+00
      1.488      0.025     9.4941    109.586     35.794  33.988143     2.2468      8.387   233.5833 2.2223e+02     2.2005      1.459      2.116    22.5107   997.6788 0.0000e+00
      1.494      0.025     9.4812    109.331     36.022  34.168298     2.2431      8.386   233.7251 2.3258e+02     2.0962      1.464      2.124    22.5186   997.6771 0.0000e+00
      1.500      0.026     9.4668    109.070     36.186  34.290530     2.2444      8.386   233.9247 2.3478e+02     2.0527      1.471      2.133    22.5178   997.6773 0.0000e+00
      1.506      0.029     9.4422    108.722     36.311  34.387100     2.2543      8.385   234.4485 2.3868e+02     2.0348      1.477      2.141    22.5154   997.6778 0.0000e+00
      1.513      0.033     9.4014    108.215     36.389  34.447364     2.2837      8.383   235.1537 2.4488e+02     2.0765      1.484      2.152    22.4809   997.6860 0.0000e+00
      1.522      0.035     9.3462    107.558     36.398  34.447965     2.3311      8.382   235.5691 2.4662e+02     2.1974      1.491      2.163    22.4168   997.7010 0.0000e+00
      1.532      0.037     9.2867    106.866     36.411  34.457826     2.3678      8.380   235.5986 2.4714e+02     2.2512      1.500      2.176    22.3689   997.7121 0.0000e+00
      1.544      0.037     9.2306    106.218     36.460  34.503115     2.3897      8.378   235.5101 2.4726e+02     2.2356      1.514      2.196    22.3407   997.7187 0.0000e+00
      1.555      0.036     9.1757    105.583     36.512  34.551293     2.4660      8.377   235.6175 2.4642e+02     2.2380      1.526      2.212    22.3234   997.7228 0.0000e+00
      1.563      0.035     9.1211    104.934     36.568  34.596068     2.6050      8.376   236.0366 2.4428e+02     2.2465      1.532      2.223    22.3129   997.7252 0.0000e+00
      1.570      0.033     9.0769    104.377     36.658  34.663678     2.6834      8.375   236.5337 2.3965e+02     2.2405      1.539      2.233    22.3111   997.7256 0.0000e+00
      1.578      0.031     9.0495    104.001     36.823  34.797543     2.6864      8.373   236.8962 2.4170e+02     2.2306      1.547      2.244    22.3114   997.7256 0.0000e+00
      1.585      0.029     9.0327    103.746     37.004  34.945246     2.6496      8.371   237.4085 2.4656e+02     2.2256      1.554      2.254    22.3126   997.7255 0.0000e+00
      1.592      0.029     9.0194    103.536     37.141  35.053231     2.5860      8.369   238.2530 2.4237e+02     2.2451      1.562      2.265    22.3053   997.7272 0.0000e+00
      1.600      0.030     9.0050    103.324     37.263  35.151140     2.5579      8.368   239.1057 2.3980e+02     2.2704      1.569      2.275    22.2765   997.7337 0.0000e+00
      1.607      0.032     8.9845    103.057     37.370  35.240475     2.5613      8.366   239.8025 2.4027e+02     2.2365      1.576      2.287    22.2447   997.7412 0.0000e+00
      1.615      0.033     8.9540    102.688     37.450  35.308271     2.5580      8.364   240.3111 2.4111e+02     2.1958      1.584      2.298    22.2131   997.7485 0.0000e+00
      1.623      0.034     8.9115    102.195     37.482  35.336161     2.5264      8.363   240.5234 2.4004e+02     2.2039      1.591      2.308    22.1815   997.7559 0.0000e+00
      1.633      0.034     8.8550    101.559     37.464  35.323816     2.4740      8.362   240.6479 2.3157e+02     2.2364      1.602      2.322    22.1579   997.7614 0.0000e+00
      1.643      0.035     8.7851    100.782     37.414  35.285954     2.4453      8.360   240.9562 2.2879e+02     2.2605      1.612      2.338    22.1421   997.7650 0.0000e+00
      1.652      0.035     8.7100     99.922     37.384  35.259195     2.4483      8.359   241.3262 2.2849e+02     2.2336      1.620      2.350    22.1344   997.7668 0.0000e+00
      1.660      0.036     8.6350     99.021     37.396  35.254152     2.5180      8.357   241.6798 2.2255e+02     2.2061      1.628      2.361    22.1295   997.7680 0.0000e+00
      1.668      0.037     8.5665     98.167     37.394  35.224954     2.6470      8.354   242.2200 2.2037e+02     2.2235      1.635      2.372    22.1334   997.7671 0.0000e+00
      1.678      0.039     8.5166     97.518     37.358  35.160008     2.7246      8.351   242.9534 2.1945e+02     2.2471      1.644      2.386    22.1563   997.7619 0.0000e+00
      1.688      0.042     8.4917     97.153     37.332  35.103525     2.7366      8.348   243.7503 2.1439e+02     2.2618      1.655      2.400    22.1629   997.7605 0.0000e+00
      1.699      0.046     8.4891     97.054     37.304  35.049730     2.6795      8.344   244.5410 2.0930e+02     2.3027      1.665      2.416    22.1336   997.7672 0.0000e+00
      1.712      0.050     8.5038     97.166     37.225  34.953814     2.5633      8.340   245.1141 2.0708e+02     2.3810      1.679      2.435    22.0959   997.7759 0.0000e+00
      1.725      0.053     8.5326     97.447     37.116  34.832320     2.5015      8.337   245.5180 2.0332e+02     2.4553      1.691      2.453    22.0537   997.7856 0.0000e+00
      1.739      0.055     8.5731     97.859     36.953  34.659684     2.5044      8.335   245.9839 1.9723e+02     2.4794      1.704      2.472    22.0085   997.7959 0.0000e+00
      1.754      0.057     8.6194     98.334     36.755  34.453124     2.5032      8.334   246.4449 1.9449e+02     2.5092      1.720      2.495    21.9701   997.8047 0.0000e+00
      1.769      0.057     8.6679     98.835     36.684  34.365705     2.4870      8.331   246.8756 1.9235e+02     2.5856      1.736      2.518    21.9422   997.8110 0.0000e+00
      1.784      0.058     8.7261     99.449     36.770  34.427741     2.4739      8.328   247.3196 1.8545e+02     2.6169      1.750      2.538    21.9197   997.8161 0.0000e+00
      1.798      0.059     8.8113    100.378     36.937  34.568512     2.4749      8.324   247.7695 1.8054e+02     2.6258      1.764      2.558    21.8916   997.8225 0.0000e+00
      1.813      0.060     8.9348    101.749     36.994  34.608007     2.5154      8.319   248.2710 1.8054e+02     2.7584      1.778      2.579    21.8623   997.8290 0.0000e+00
      1.828      0.063     9.0860    103.432     36.853  34.460988     2.5824      8.315   248.8230 1.7770e+02     2.9743      1.791      2.598    21.8352   997.8352 0.0000e+00
      1.843      0.066     9.2356    105.080     36.648  34.250621     2.6175      8.311   249.2830 1.7108e+02     3.0735      1.806      2.620    21.8089   997.8411 0.0000e+00
      1.861      0.070     9.3536    106.347     36.375  33.968427     2.6195      8.307   249.7022 1.6754e+02     3.0740      1.825      2.647    21.7869   997.8463 0.0000e+00
      1.881      0.074     9.4241    107.048     36.140  33.714482     2.6152      8.303   250.1913 1.6438e+02     3.0780      1.845      2.675    21.7701   997.8503 0.0000e+00
      1.901      0.075     9.4432    107.153     36.051  33.591798     2.6002      8.299   250.6364 1.5809e+02     3.1879      1.863      2.702    21.7529   997.8540 0.0000e+00
      1.921      0.075     9.4262    106.852     35.993  33.500421     2.5766      8.296   251.0407 1.5225e+02     3.4199      1.883      2.731    21.7276   997.8597 0.0000e+00
      1.941      0.073     9.4060    106.532     35.956  33.434623     2.5637      8.295   251.3787 1.4799e+02     3.5228      1.906      2.764    21.6914   997.8679 0.0000e+00
      1.961      0.068     9.4125    106.537     35.978  33.430828     2.5652      8.294   251.6261 1.4490e+02     3.4810      1.924      2.790    21.6415   997.8791 0.0000e+00
      1.977      0.064     9.4650    107.090     36.019  33.454507     2.5871      8.294   251.8816 1.4262e+02     3.4725      1.940      2.813    21.5833   997.8921 0.0000e+00
      1.992      0.059     9.5750    108.310     36.041  33.467057     2.6107      8.295   252.2315 1.4014e+02     3.4849      1.954      2.834    21.5286   997.9042 0.0000e+00
      2.006      0.055     9.7437    110.190     36.039  33.455632     2.6175      8.296   252.5010 1.3702e+02     3.4677      1.967      2.853    21.4856   997.9139 0.0000e+00
      2.019      0.052     9.9427    112.403     36.039  33.443276     2.6256      8.296   252.4723 1.3422e+02     3.4602      1.980      2.871    21.4496   997.9219 0.0000e+00
      2.032      0.051    10.1289    114.468     36.054  33.444557     2.6738      8.297   252.4010 1.3159e+02     3.4927      1.993      2.890    21.4297   997.9263 0.0000e+00
      2.044      0.051    10.2836    116.160     36.102  33.471110     2.7587      8.297   252.5855 1.2838e+02     3.5341      2.005      2.908    21.4264   997.9272 0.0000e+00
      2.056      0.052    10.4050    117.452     36.172  33.510455     2.8017      8.298   252.9825 1.2513e+02     3.5346      2.016      2.923    21.4122   997.9303 0.0000e+00
      2.070      0.052    10.4941    118.360     36.236  33.539462     2.7871      8.299   253.3292 1.2299e+02     3.4987      2.029      2.943    21.3929   997.9347 0.0000e+00
      2.084      0.052    10.5577    118.978     36.301  33.567932     2.7204      8.299   253.5075 1.2025e+02     3.4930      2.044      2.965    21.3787   997.9379 0.0000e+00
      2.098      0.052    10.6037    119.410     36.366  33.600788     2.6193      8.300   253.6752 1.1717e+02     3.4986      2.058      2.984    21.3551   997.9431 0.0000e+00
      2.111      0.051    10.6364    119.703     36.411  33.619370     2.5713      8.300   253.8942 1.1509e+02     3.5003      2.070      3.002    21.3194   997.9511 0.0000e+00
      2.125      0.048    10.6614    119.922     36.414  33.602184     2.5729      8.301   254.0908 1.1346e+02     3.5136      2.084      3.023    21.2747   997.9610 0.0000e+00
      2.137      0.044    10.6822    120.105     36.411  33.583346     2.5699      8.301   254.2454 1.1201e+02     3.5288      2.097      3.041    21.2266   997.9716 0.0000e+00
      2.148      0.040    10.6925    120.167     36.427  33.581968     2.5691      8.302   254.3866 1.1071e+02     3.5524      2.107      3.057    21.1919   997.9792 0.0000e+00
      2.157      0.037    10.6897    120.082     36.449  33.585509     2.5715      8.302   254.5940 1.0986e+02     3.5369      2.116      3.070    21.1603   997.9863 0.0000e+00
      2.164      0.035    10.6798    119.932     36.506  33.626134     2.5640      8.302   254.8603 1.0843e+02     3.5061      2.122      3.077    21.1315   997.9926 0.0000e+00
      2.172      0.034    10.6679    119.753     36.662  33.755829     2.5486      8.301   255.1106 1.0690e+02     3.5075      2.129      3.089    21.1138   997.9963 0.0000e+00
      2.181      0.035    10.6551    119.517     36.972  34.011272     2.4983      8.301   255.2976 1.0566e+02     3.5525      2.139      3.102    21.0909   998.0015 0.0000e+00
      2.190      0.037    10.6366    119.162     37.617  34.556835     2.4235      8.302   255.4002 1.0408e+02     3.6577      2.147      3.113    21.0620   998.0078 0.0000e+00
      2.200      0.038    10.5953    118.519     39.019  35.782546     2.3818      8.302   255.4049 1.0253e+02     3.7309      2.157      3.128    21.0506   998.0102 0.0000e+00
      2.211      0.037    10.4869    117.128     41.972  38.422163     2.3747      8.301   255.3552 1.0159e+02     3.7167      2.168      3.145    21.0409   998.0125 0.0000e+00
      2.221      0.035    10.2592    114.453     46.182  42.223571     2.4067      8.300   255.4016 1.0083e+02     3.6824      2.178      3.160    20.9998   998.0216 0.0000e+00
      2.231      0.032     9.8790    110.149     50.555  46.193443     2.4658      8.298   255.5355 9.9891e+01     3.7096      2.189      3.175    20.9336   998.0362 0.0000e+00
      2.239      0.027     9.3319    103.997     56.120  51.244719     2.4988      8.296   255.6827 9.9347e+01     3.7504      2.197      3.186    20.8512   998.0542 0.0000e+00
      2.244      0.022     8.6133     95.877     63.834  58.202571     2.4938      8.295   255.8051 9.9245e+01     3.7501      2.201      3.192    20.7643   998.0738 0.0000e+00
      2.248      0.017     7.7457     86.067     71.023  64.627251     2.3713      8.294   255.8114 9.9390e+01     3.8042      2.204      3.197    20.6967   998.0899 0.0000e+00
      2.252      0.013     6.7987     75.416     75.967  68.999758     2.1449      8.294   255.3286 1.0017e+02     3.9126      2.209      3.203    20.6805   998.0946 0.0000e+00
      2.255      0.011     5.8401     64.709     81.373  73.821095     2.0193      8.294   254.5273 1.0162e+02     3.9789      2.212      3.208    20.6746   998.0973 0.0000e+00
      2.257      0.009     4.8961     54.217     89.152  80.827315     2.0048      8.293   254.2969 1.0306e+02     3.9838      2.214      3.211    20.6052   998.1154 0.0000e+00
      2.259      0.008     3.9972     44.249     95.207  86.289500     1.9883      8.291   254.5212 1.0415e+02     3.9718      2.215      3.213    20.4932   998.1417 0.0000e+00
      2.260      0.008     3.1907     35.318    101.258  91.770555     1.9580      8.290   254.6584 1.0488e+02     3.9645      2.217      3.215    20.3998   998.1629 0.0000e+00
      2.262      0.008     2.5024     27.699    107.516  97.441505     1.9420      8.289   254.6661 1.0548e+02     3.9612      2.218      3.217    20.3470   998.1748 0.0000e+00
      2.264      0.008     1.9409     21.480    106.484  96.479795     1.9421      8.287   254.6998 1.0688e+02     3.9651      2.220      3.219    20.3248   998.1836 0.0000e+00
      2.267      0.008     1.4814     16.390    104.864  94.991732     1.9853      8.285   254.8080 1.0891e+02     3.9462      2.223      3.224    20.3070   998.1891 0.0000e+00
      2.270      0.008     1.1073     12.252    106.811  96.775416     2.0740      8.283   254.7690 1.1044e+02     3.9287      2.226      3.229    20.3060   998.1899 0.0000e+00
      2.272      0.007     0.8519      9.430    107.201  97.166845     2.1303      8.282   254.6593 1.1172e+02     3.9502      2.228      3.232    20.3186   998.1931 0.0000e+00
      2.273      0.005     0.7260      8.041    105.616  95.777594     2.1363      8.281   254.5993 1.1299e+02     4.0093      2.229      3.234    20.2947   998.1948 0.0000e+00
      2.274      0.003     0.7077      7.842    103.021  93.473850     2.1128      8.280   254.5606 1.1442e+02     4.4467      2.230      3.235    20.2773   998.1975 0.0000e+00
      2.274      0.002     0.7737      8.577    102.512  93.055789     2.0891      8.278   254.6206 1.1582e+02     5.2740      2.230      3.235    20.2962   998.1959 0.0000e+00
      2.274      0.001     0.8978      9.954    105.317  95.623642     2.0826      8.276   254.7228 1.1640e+02     5.7531      2.230      3.235    20.3132   998.1915 0.0000e+00
      2.275      0.001     1.0545     11.691    107.913  97.977007     2.0778      8.274   254.7633 1.1675e+02     5.7827      2.231      3.235    20.3367   998.1866 0.0000e+00
      2.275      0.001     1.1380     12.616    108.528  98.529699     2.0745      8.273   254.7667 1.1754e+02     5.7635      2.231      3.235    20.3625   998.1794 0.0000e+00
      2.275 -9.990e-29 -9.990e-29 -9.990e-29 -9.990e-29 -9.990e-29 -9.990e-29 -9.990e-29 -9.990e-29 1.1868e+02 -9.990e-29      2.231      3.235    20.3868   998.1739 0.0000e+00
      2.275 -9.990e-29 -9.990e-29 -9.990e-29 -9.990e-29 -9.990e-29 -9.990e-29 -9.990e-29 -9.990e-29 1.1994e+02 -9.990e-29      2.231      3.236    20.3988   998.1732 0.0000e+00
      2.275 -9.990e-29 -9.990e-29 -9.990e-29 -9.990e-29 -9.990e-29 -9.990e-29 -9.990e-29 -9.990e-29 1.2087e+02 -9.990e-29      2.231      3.235    20.3904   998.1761 0.0000e+00
      2.275 -9.990e-29 -9.990e-29 -9.990e-29 -9.990e-29 -9.990e-29 -9.990e-29 -9.990e-29 -9.990e-29 1.2120e+02 -9.990e-29      2.231      3.236    20.3864   998.1766 0.0000e+00
