* Sea-Bird SBE19plus  Data File:
* FileName = C:\R\Reservoirs\Data\DataNotYetUploadedToEDI\Raw_CTD\RawDownloads\062623_fcr50_S8188_0008.hex
* Software version 2.8.0.119
* Temperature SN = 8188
* Conductivity SN = 8188
* System UpLoad Time = Jul 03 2023 16:32:47
* <ApplicationData>
* <Seaterm232>
* <SoftwareVersion>2.8.0.119</SoftwareVersion>
* <BuildDate>07-Nov-2018</BuildDate>
* </Seaterm232>
* </ApplicationData>
* <InstrumentState>
* <HardwareData DeviceType='SBE19plus' SerialNumber='01908188'>
*
*    <Manufacturer>Sea-Bird Electronics, Inc.</Manufacturer>
*
*    <FirmwareVersion>3.1.8</FirmwareVersion>
*
*    <FirmwareDate>Mar  9 2016 16:22:29</FirmwareDate>
*
*    <CommandSetVersion>1.4</CommandSetVersion>
*
*    <PCBAssembly PCBSerialNum='260079' AssemblyNum='41054K'/>
*
*    <PCBAssembly PCBSerialNum='260083' AssemblyNum='41059E'/>
*
*    <PCBAssembly PCBSerialNum='260085' AssemblyNum='41606B'/>
*
*    <PCBAssembly PCBSerialNum='260081' AssemblyNum='41967C'/>
*
*    <MfgDate>30 Mar 2022</MfgDate>
*
*    <InternalSensors>
*
*       <Sensor id='Main Temperature'>
*
*          <type>temperature0</type>
*
*          <SerialNumber>01908188</SerialNumber>
*
*       </Sensor>
*
*       <Sensor id='Main Conductivity'>
*
*          <type>conductivity-0</type>
*
*          <SerialNumber>01908188</SerialNumber>
*
*       </Sensor>
*
*       <Sensor id='Main Pressure'>
*
*          <type>strain-0</type>
*
*          <SerialNumber>12220741</SerialNumber>
*
*       </Sensor>
*
*    </InternalSensors>
*
*    <ExternalSensors>
*
*       <Sensor id='volt 0'>
*
*          <type>CHL</type>
*
*          <SerialNumber>FLNTURT-7096</SerialNumber>
*
*       </Sensor>
*
*       <Sensor id='volt 1'>
*
*          <type>NTU</type>
*
*          <SerialNumber>FLNTURT-7096</SerialNumber>
*
*       </Sensor>
*
*       <Sensor id='volt 2'>
*
*          <type>OXY</type>
*
*          <SerialNumber>43-4269</SerialNumber>
*
*       </Sensor>
*
*       <Sensor id='volt 3'>
*
*          <type>not assigned</type>
*
*          <SerialNumber>not assigned</SerialNumber>
*
*       </Sensor>
*
*       <Sensor id='volt 4'>
*
*          <type>PAR</type>
*
*          <SerialNumber>PARLOGICSW-2209</SerialNumber>
*
*       </Sensor>
*
*       <Sensor id='volt 5'>
*
*          <type>not assigned</type>
*
*          <SerialNumber>not assigned</SerialNumber>
*
*       </Sensor>
*
*       <Sensor id='serial'>
*
*          <type>WETLABS</type>
*
*          <SerialNumber>FL3-7350</SerialNumber>
*
*       </Sensor>
*
*    </ExternalSensors>
*
* </HardwareData>
* <StatusData DeviceType='SBE19plus' SerialNumber='01908188'>
*
*    <DateTime>2023-07-03T16:29:20</DateTime>
*
*    <LoggingState>not logging</LoggingState>
*
*    <EventSummary numEvents='0'/>
*
*    <Power>
*
*       <vMain>12.2</vMain>
*
*       <vLith>8.8</vLith>
*
*       <iMain>61.8</iMain>
*
*       <iPump>48.2</iPump>
*
*       <iExt01>22.4</iExt01>
*
*       <iExt2345>20.3</iExt2345>
*
*       <iSerial>45.4</iSerial>
*
*    </Power>
*
*    <MemorySummary>
*
*       <Bytes>665325</Bytes>
*
*       <Samples>26613</Samples>
*
*       <SamplesFree>2605312</SamplesFree>
*
*       <SampleLength>25</SampleLength>
*
*       <Profiles>25</Profiles>
*
*    </MemorySummary>
*
* </StatusData>
* <ConfigurationData DeviceType='SBE19plus' SerialNumber='01908188'>
*
*    <ProfileMode>
*
*       <ScansToAverage>1</ScansToAverage>
*
*       <MinimumCondFreq>5</MinimumCondFreq>
*
*       <PumpDelay>40</PumpDelay>
*
*       <AutoRun>no</AutoRun>
*
*       <IgnoreSwitch>no</IgnoreSwitch>
*
*    </ProfileMode>
*
*    <Battery>
*
*       <Type>alkaline</Type>
*
*       <CutOff>7.5</CutOff>
*
*    </Battery>
*
*    <DataChannels>
*
*       <ExtVolt0>yes</ExtVolt0>
*
*       <ExtVolt1>yes</ExtVolt1>
*
*       <ExtVolt2>yes</ExtVolt2>
*
*       <ExtVolt3>no</ExtVolt3>
*
*       <ExtVolt4>yes</ExtVolt4>
*
*       <ExtVolt5>no</ExtVolt5>
*
*       <SBE38>no</SBE38>
*
*       <WETLABS>yes</WETLABS>
*
*       <OPTODE>no</OPTODE>
*
*       <SBE63>no</SBE63>
*
*       <SeaFET>no</SeaFET>
*
*       <GTD>no</GTD>
*
*    </DataChannels>
*
*    <EchoCharacters>yes</EchoCharacters>
*
*    <OutputExecutedTag>yes</OutputExecutedTag>
*
*    <OutputFormat>raw HEX</OutputFormat>
*
* </ConfigurationData>
* <CalibrationCoefficients DeviceType='SBE19plus' SerialNumber='01908188'>
*
*    <Calibration format='TEMP1' id='Main Temperature'>
*
*       <SerialNum>01908188</SerialNum>
*
*       <CalDate>21-Aug-22</CalDate>
*
*       <TA0>1.265284e-03</TA0>
*
*       <TA1>2.691806e-04</TA1>
*
*       <TA2>-5.655711e-07</TA2>
*
*       <TA3>1.602369e-07</TA3>
*
*       <TOFFSET>0.000000e+00</TOFFSET>
*
*    </Calibration>
*
*    <Calibration format='WBCOND0' id='Main Conductivity'>
*
*       <SerialNum>01908188</SerialNum>
*
*       <CalDate>21-Aug-22</CalDate>
*
*       <G>-1.009562e+00</G>
*
*       <H>1.439229e-01</H>
*
*       <I>-4.343583e-04</I>
*
*       <J>5.328694e-05</J>
*
*       <CPCOR>-9.570000e-08</CPCOR>
*
*       <CTCOR>3.250000e-06</CTCOR>
*
*       <CSLOPE>1.000000e+00</CSLOPE>
*
*    </Calibration>
*
*    <Calibration format='STRAIN0' id='Main Pressure'>
*
*       <SerialNum>12220741</SerialNum>
*
*       <CalDate>11-Aug-22</CalDate>
*
*       <PA0>1.627942e-01</PA0>
*
*       <PA1>4.835849e-04</PA1>
*
*       <PA2>-3.975488e-12</PA2>
*
*       <PTCA0>5.244803e+05</PTCA0>
*
*       <PTCA1>2.817194e+01</PTCA1>
*
*       <PTCA2>-5.842684e-01</PTCA2>
*
*       <PTCB0>2.522087e+01</PTCB0>
*
*       <PTCB1>5.750000e-04</PTCB1>
*
*       <PTCB2>0.000000e+00</PTCB2>
*
*       <PTEMPA0>-5.709556e+01</PTEMPA0>
*
*       <PTEMPA1>5.248567e+01</PTEMPA1>
*
*       <PTEMPA2>-2.281498e-01</PTEMPA2>
*
*       <POFFSET>-4.700000e-02</POFFSET>
*
*       <PRANGE>1.600000e+02</PRANGE>
*
*    </Calibration>
*
*    <Calibration format='VOLT0' id='Volt 0'>
*
*       <OFFSET>-4.657200e-02</OFFSET>
*
*       <SLOPE>1.248989e+00</SLOPE>
*
*    </Calibration>
*
*    <Calibration format='VOLT0' id='Volt 1'>
*
*       <OFFSET>-4.600800e-02</OFFSET>
*
*       <SLOPE>1.249849e+00</SLOPE>
*
*    </Calibration>
*
*    <Calibration format='VOLT0' id='Volt 2'>
*
*       <OFFSET>-4.668000e-02</OFFSET>
*
*       <SLOPE>1.250379e+00</SLOPE>
*
*    </Calibration>
*
*    <Calibration format='VOLT0' id='Volt 3'>
*
*       <OFFSET>-4.643200e-02</OFFSET>
*
*       <SLOPE>1.251002e+00</SLOPE>
*
*    </Calibration>
*
*    <Calibration format='VOLT0' id='Volt 4'>
*
*       <OFFSET>-4.606100e-02</OFFSET>
*
*       <SLOPE>1.249962e+00</SLOPE>
*
*    </Calibration>
*
*    <Calibration format='VOLT0' id='Volt 5'>
*
*       <OFFSET>-4.642700e-02</OFFSET>
*
*       <SLOPE>1.248530e+00</SLOPE>
*
*    </Calibration>
*
*    <Calibration format='FREQ0' id='external frequency channel'>
*
*       <EXTFREQSF>1.000018e+00</EXTFREQSF>
*
*    </Calibration>
*
* </CalibrationCoefficients>
* <EventCounters DeviceType='SBE19plus' SerialNumber='01908188'>
*
*    <EventSummary numEvents='0'/>
*
* </EventCounters></InstrumentState>
* <Headers>
*
* cast   8 27 Jun 2023 13:39:26 samples 9754 to 10435, avg = 1, stop = mag switch
*
# nquan = 16
# nvalues = 682                         
# units = specified
# name 0 = depFM: Depth [fresh water, m]
# name 1 = dz/dtM: Descent Rate [m/s]
# name 2 = sbeox0Mg/L: Oxygen, SBE 43 [mg/l]
# name 3 = sbeox0PS: Oxygen, SBE 43 [% saturation]
# name 4 = specc: Specific Conductance [uS/cm]
# name 5 = c0uS/cm: Conductivity [uS/cm]
# name 6 = wetCDOM: Fluorescence, WET Labs CDOM [mg/m^3]
# name 7 = flECO-AFL: Fluorescence, WET Labs ECO-AFL/FL [mg/m^3]
# name 8 = flECO-AFL1: Fluorescence, WET Labs ECO-AFL/FL, 2 [mg/m^3]
# name 9 = flECO-AFL2: Fluorescence, WET Labs ECO-AFL/FL, 3 [mg/m^3]
# name 10 = par/sat/log: PAR/Logarithmic, Satlantic
# name 11 = turbWETntu0: Turbidity, WET Labs ECO [NTU]
# name 12 = prdM: Pressure, Strain Gauge [db]
# name 13 = prdE: Pressure, Strain Gauge [psi]
# name 14 = tv290C: Temperature [ITS-90, deg C]
# name 15 = flag:  0.000e+00
# span 0 =     -0.717,      5.884       
# span 1 =     -0.378,      0.128       
# span 2 =    -0.2188,    15.5070       
# span 3 =     -2.222,    176.202       
# span 4 =      0.330,     47.029       
# span 5 =   0.286637,  46.995059       
# span 6 =    -4.5000,     6.7500       
# span 7 =    -0.1498,     5.8126       
# span 8 =    -2.1300,     6.1344       
# span 9 =    -2.0304,    19.5426       
# span 10 = 1.1595e-01, 2.4345e+03      
# span 11 =    -0.5136,    54.9176      
# span 12 =     -0.703,      5.770      
# span 13 =     -1.020,      8.369      
# span 14 =    10.5987,    24.9742      
# span 15 = 0.0000e+00, 0.0000e+00      
# interval = seconds: 0.25
# start_time = Jun 27 2023 13:39:26 [Instrument's time stamp, header]
# bad_flag = -9.990e-29
# <Sensors count="10" >
#   <sensor Channel="1" >
#     <!-- Count, Temperature -->
#     <TemperatureSensor SensorID="58" >
#       <SerialNumber>8188</SerialNumber>
#       <CalibrationDate>21-Aug-22</CalibrationDate>
#       <A0>1.26528397e-003</A0>
#       <A1>2.69180636e-004</A1>
#       <A2>-5.65571102e-007</A2>
#       <A3>1.60236871e-007</A3>
#       <Slope>1.00000000</Slope>
#       <Offset>0.0000</Offset>
#     </TemperatureSensor>
#   </sensor>
#   <sensor Channel="2" >
#     <!-- Frequency 0, Conductivity -->
#     <ConductivitySensor SensorID="3" >
#       <SerialNumber>8188</SerialNumber>
#       <CalibrationDate>21-Aug-22</CalibrationDate>
#       <UseG_J>1</UseG_J>
#       <!-- Cell const and series R are applicable only for wide range sensors. -->
#       <SeriesR>0.0000</SeriesR>
#       <CellConst>2000.0000</CellConst>
#       <ConductivityType>0</ConductivityType>
#       <Coefficients equation="0" >
#         <A>0.00000000e+000</A>
#         <B>0.00000000e+000</B>
#         <C>0.00000000e+000</C>
#         <D>0.00000000e+000</D>
#         <M>0.0</M>
#         <CPcor>-9.57000000e-008</CPcor>
#       </Coefficients>
#       <Coefficients equation="1" >
#         <G>-1.00956200e+000</G>
#         <H>1.43922862e-001</H>
#         <I>-4.34358337e-004</I>
#         <J>5.32869425e-005</J>
#         <CPcor>-9.57000000e-008</CPcor>
#         <CTcor>3.2500e-006</CTcor>
#         <!-- WBOTC not applicable unless ConductivityType = 1. -->
#         <WBOTC>0.00000000e+000</WBOTC>
#       </Coefficients>
#       <Slope>1.00000000</Slope>
#       <Offset>0.00000</Offset>
#     </ConductivitySensor>
#   </sensor>
#   <sensor Channel="3" >
#     <!-- Count, Pressure, Strain Gauge -->
#     <PressureSensor SensorID="46" >
#       <SerialNumber>8188</SerialNumber>
#       <CalibrationDate>11-Aug-22</CalibrationDate>
#       <PA0>1.62794185e-001</PA0>
#       <PA1>4.83584930e-004</PA1>
#       <PA2>-3.97548787e-012</PA2>
#       <PTEMPA0>-5.70955636e+001</PTEMPA0>
#       <PTEMPA1>5.24856726e+001</PTEMPA1>
#       <PTEMPA2>-2.28149804e-001</PTEMPA2>
#       <PTCA0>5.24480263e+005</PTCA0>
#       <PTCA1>2.81719406e+001</PTCA1>
#       <PTCA2>-5.84268386e-001</PTCA2>
#       <PTCB0>2.52208750e+001</PTCB0>
#       <PTCB1>5.75000000e-004</PTCB1>
#       <PTCB2>0.00000000e+000</PTCB2>
#       <Offset>0.000000</Offset>
#     </PressureSensor>
#   </sensor>
#   <sensor Channel="4" >
#     <!-- A/D voltage 0, Fluorometer, WET Labs ECO-AFL/FL -->
#     <FluoroWetlabECO_AFL_FL_Sensor SensorID="20" >
#       <SerialNumber>FLNTURT-7096</SerialNumber>
#       <CalibrationDate>01-Sep-2022</CalibrationDate>
#       <ScaleFactor>5.00000000e+001</ScaleFactor>
#       <!-- Dark output -->
#       <Vblank>0.0680</Vblank>
#     </FluoroWetlabECO_AFL_FL_Sensor>
#   </sensor>
#   <sensor Channel="5" >
#     <!-- A/D voltage 1, Turbidity Meter, WET Labs, ECO-NTU -->
#     <TurbidityMeter SensorID="67" >
#       <SerialNumber>FLNTURT-7096</SerialNumber>
#       <CalibrationDate>01-Sep-2022</CalibrationDate>
#       <ScaleFactor>197.000000</ScaleFactor>
#       <!-- Dark output -->
#       <DarkVoltage>0.067000</DarkVoltage>
#     </TurbidityMeter>
#   </sensor>
#   <sensor Channel="6" >
#     <!-- A/D voltage 2, Oxygen, SBE 43 -->
#     <OxygenSensor SensorID="38" >
#       <SerialNumber>4269</SerialNumber>
#       <CalibrationDate>16-Aug-22</CalibrationDate>
#       <Use2007Equation>1</Use2007Equation>
#       <CalibrationCoefficients equation="0" >
#         <!-- Coefficients for Owens-Millard equation. -->
#         <Boc>0.0000</Boc>
#         <Soc>0.0000e+000</Soc>
#         <offset>0.0000</offset>
#         <Pcor>0.00e+000</Pcor>
#         <Tcor>0.0000</Tcor>
#         <Tau>0.0</Tau>
#       </CalibrationCoefficients>
#       <CalibrationCoefficients equation="1" >
#         <!-- Coefficients for Sea-Bird equation - SBE calibration in 2007 and later. -->
#         <Soc>4.2506e-001</Soc>
#         <offset>-0.4922</offset>
#         <A>-4.5893e-003</A>
#         <B> 1.8653e-004</B>
#         <C>-2.0781e-006</C>
#         <D0> 2.5826e+000</D0>
#         <D1> 1.92634e-004</D1>
#         <D2>-4.64803e-002</D2>
#         <E> 3.6000e-002</E>
#         <Tau20> 2.3100</Tau20>
#         <H1>-3.3000e-002</H1>
#         <H2> 5.0000e+003</H2>
#         <H3> 1.4500e+003</H3>
#       </CalibrationCoefficients>
#     </OxygenSensor>
#   </sensor>
#   <sensor Channel="7" >
#     <!-- A/D voltage 3, PAR/Logarithmic, Satlantic -->
#     <PARLog_SatlanticSensor SensorID="76" >
#       <SerialNumber>2209</SerialNumber>
#       <CalibrationDate>14-Jan-2022</CalibrationDate>
#       <a0>9.8861e-001</a0>
#       <a1>8.0845e-001</a1>
#       <Im>1.3589e+000</Im>
#       <Multiplier>1.0000e+000</Multiplier>
#     </PARLog_SatlanticSensor>
#   </sensor>
#   <sensor Channel="8" >
#     <!-- Serial RS-232, Fluorometer, WET Labs ECO-AFL/FL, 2 -->
#     <FluoroWetlabECO_AFL_FL_Sensor SensorID="20" >
#       <SerialNumber>FL3-7350</SerialNumber>
#       <CalibrationDate>10-Mar-2022</CalibrationDate>
#       <ScaleFactor>4.26000000e-002</ScaleFactor>
#       <!-- Dark output -->
#       <Vblank>50.0000</Vblank>
#     </FluoroWetlabECO_AFL_FL_Sensor>
#   </sensor>
#   <sensor Channel="9" >
#     <!-- Serial RS-232, Fluorometer, WET Labs ECO-AFL/FL, 3 -->
#     <FluoroWetlabECO_AFL_FL_Sensor SensorID="20" >
#       <SerialNumber>FL3-7350</SerialNumber>
#       <CalibrationDate>10-Mar-2022</CalibrationDate>
#       <ScaleFactor>4.23000000e-002</ScaleFactor>
#       <!-- Dark output -->
#       <Vblank>48.0000</Vblank>
#     </FluoroWetlabECO_AFL_FL_Sensor>
#   </sensor>
#   <sensor Channel="10" >
#     <!-- Serial RS-232, Fluorometer, WET Labs ECO CDOM -->
#     <FluoroWetlabCDOM_Sensor SensorID="19" >
#       <SerialNumber>FL3-7350</SerialNumber>
#       <CalibrationDate>10-Mar-2022</CalibrationDate>
#       <ScaleFactor>0.090</ScaleFactor>
#       <!-- Dark output -->
#       <Vblank>50.000</Vblank>
#     </FluoroWetlabCDOM_Sensor>
#   </sensor>
# </Sensors>
# datcnv_date = Jul 03 2023 16:59:39, 7.26.7.129 [datcnv_vars = 15]
# datcnv_in = C:\R\Reservoirs\Data\DataNotYetUploadedToEDI\Raw_CTD\RawDownloads\062723_fcrXX_S8188008.hex C:\R\Reservoirs\Data\DataNotYetUploadedToEDI\Raw_CTD\RawDownloads\SBE19plusV2_8188_start20221003.xmlcon
# datcnv_skipover = 0
# datcnv_ox_hysteresis_correction = yes
# datcnv_ox_tau_correction = yes
# filter_date = Jul 03 2023 17:00:14, 7.26.7.129
# filter_in = C:\R\Reservoirs\Data\DataNotYetUploadedToEDI\Raw_CTD\RawDownloads\062723_fcrXX_S8188008.cnv
# filter_low_pass_tc_A = 0.500
# filter_low_pass_tc_B = 1.000
# filter_low_pass_A_vars = sbeox0Mg/L sbeox0PS specc c0uS/cm tv290C
# filter_low_pass_B_vars = depFM dz/dtM prdM prdE
# alignctd_date = Jul 03 2023 17:00:42, 7.26.7.129
# alignctd_in = C:\R\Reservoirs\Data\DataNotYetUploadedToEDI\Raw_CTD\RawDownloads\062723_fcrXX_S8188008.cnv
# alignctd_adv = dz/dtM 1.000, sbeox0PS 1.000, specc 1.000, c0uS/cm 1.000, flECO-AFL 1.000, turbWETntu0 1.000                                                                                                                        
# file_type = ascii
*END*
     -0.716 5.3120e-11     8.6161     91.687      0.436   0.378125    -4.5000    -0.1079    -2.1300    -2.0304 4.3920e+02    -0.3933     -0.702     -1.018    18.3764 0.0000e+00
     -0.716 6.8297e-11     8.6150     91.686      0.434   0.376775    -4.5000    -0.1155    -2.1300    -2.0304 6.0030e+02    -0.3633     -0.702     -1.018    18.3774 0.0000e+00
     -0.716 8.7810e-11     8.6136     91.684      0.433   0.376079    -4.5000    -0.1155    -2.1300    -2.0304 6.0200e+02    -0.4084     -0.702     -1.018    18.3787 0.0000e+00
     -0.716 1.1290e-10     8.6126     91.687      0.428   0.371896     0.0000    -0.1308     0.0000    -0.0846 6.0069e+02    -0.4835     -0.702     -1.018    18.3801 0.0000e+00
     -0.716 1.4515e-10     8.6121     91.694      0.423   0.367066     0.0000    -0.1117     0.0000    -0.0846 7.8765e+02    -0.3182     -0.702     -1.018    18.3816 0.0000e+00
     -0.716 1.8663e-10     8.6118     91.702      0.419   0.364253     0.0000    -0.1002     0.0000    -0.0846 5.4320e+02    -0.3482     -0.702     -1.018    18.3831 0.0000e+00
     -0.716 2.3995e-10     8.6114     91.711      0.418   0.362709     0.0000    -0.1002     0.0000    -0.0846 5.7415e+02    -0.3933     -0.702     -1.019    18.3845 0.0000e+00
     -0.716 3.0851e-10     8.6113     91.717      0.417   0.362021     0.0000    -0.1193     0.0000    -0.0846 6.0187e+02    -0.4384     -0.702     -1.019    18.3859 0.0000e+00
     -0.716 3.9665e-10     8.6118     91.718      0.417   0.362006     0.0000    -0.1231     0.0000     0.1692 5.7715e+02    -0.4234     -0.703     -1.019    18.3873 0.0000e+00
     -0.716 5.0998e-10     8.6123     91.715      0.418   0.362659     0.0000    -0.1346     0.0000     0.1692 6.2343e+02    -0.3332     -0.703     -1.019    18.3887 0.0000e+00
     -0.716 6.5569e-10     8.6128     91.710      0.415   0.360201     0.0000    -0.1193     0.0000     0.1692 6.1563e+02    -0.4534     -0.703     -1.019    18.3902 0.0000e+00
     -0.716 8.4303e-10     8.6131     91.702      0.408   0.353977     0.0000    -0.1079     0.0000     0.1692 5.8804e+02    -0.4534     -0.703     -1.019    18.3918 0.0000e+00
     -0.716 1.0839e-09     8.6130     91.698      0.404   0.350234     0.0000    -0.0964    -0.0426    -0.0846 7.4958e+02    -0.3182     -0.703     -1.019    18.3933 0.0000e+00
     -0.716 1.3936e-09     8.6124     91.698      0.401   0.347976     0.0000    -0.0964    -0.0426    -0.0846 8.2586e+02    -0.4534     -0.703     -1.019    18.3949 0.0000e+00
     -0.717 1.7917e-09     8.6116     91.699      0.395   0.342645     0.0000    -0.1193    -0.0426    -0.0846 8.0269e+02    -0.4835     -0.703     -1.019    18.3965 0.0000e+00
     -0.717 2.3037e-09     8.6106     91.697      0.388   0.336774     0.0000    -0.1079    -0.0426    -0.0846 7.9608e+02    -0.3482     -0.703     -1.019    18.3981 0.0000e+00
     -0.717 2.9619e-09     8.6099     91.694      0.388   0.336707     0.0000    -0.1079     0.0426     0.1269 6.9318e+02    -0.3482     -0.703     -1.019    18.3998 0.0000e+00
     -0.717 3.8081e-09     8.6096     91.693      0.395   0.342424     0.0000    -0.1231     0.0426     0.1269 6.6471e+02    -0.4534     -0.703     -1.019    18.4016 0.0000e+00
     -0.717 4.8961e-09     8.6095     91.693      0.400   0.347542     0.0000    -0.1269     0.0426     0.1269 6.3796e+02    -0.3482     -0.703     -1.020    18.4033 0.0000e+00
     -0.717 6.2950e-09     8.6089     91.689      0.402   0.349472     0.0000    -0.0964     0.0426     0.1269 6.1096e+02    -0.3783     -0.703     -1.020    18.4050 0.0000e+00
     -0.717 8.0936e-09     8.6083     91.683      0.401   0.348728     0.0000    -0.0964     0.0426    -0.1269 6.2970e+02    -0.4534     -0.703     -1.020    18.4067 0.0000e+00
     -0.717 1.0406e-08     8.6080     91.682      0.397   0.345113     0.0000    -0.1269     0.0426    -0.1269 8.7939e+02    -0.4384     -0.703     -1.020    18.4084 0.0000e+00
     -0.717 1.3379e-08     8.6077     91.690      0.389   0.337661     0.0000    -0.1041     0.0426    -0.1269 9.1546e+02    -0.4384     -0.703     -1.020    18.4099 0.0000e+00
     -0.717 1.7202e-08     8.6071     91.702      0.378   0.328340     0.0000    -0.0964     0.0426    -0.1269 9.3456e+02    -0.3783     -0.703     -1.020    18.4113 0.0000e+00
     -0.717 2.2117e-08     8.6063     91.715      0.372   0.322573     0.0000    -0.1117     0.0426    -0.1269 9.2707e+02    -0.3783     -0.703     -1.020    18.4126 0.0000e+00
     -0.717 2.8436e-08     8.6061     91.722      0.367   0.318822     0.0000    -0.1384     0.0000     0.1269 9.7078e+02    -0.3482     -0.703     -1.020    18.4137 0.0000e+00
     -0.717 3.6560e-08     8.6066     91.722      0.360   0.312133     0.0000    -0.1155     0.0000     0.1269 1.0199e+03    -0.4534     -0.703     -1.020    18.4148 0.0000e+00
     -0.717 4.7006e-08     8.6075     91.718      0.351   0.304675     0.0000    -0.0964     0.0000     0.1269 1.0137e+03    -0.3783     -0.703     -1.020    18.4159 0.0000e+00
     -0.717 6.0436e-08     8.6085     91.712      0.344   0.298415     0.0000    -0.1155     0.0000     0.1269 9.8952e+02    -0.2881     -0.703     -1.020    18.4167 0.0000e+00
     -0.717 7.7704e-08     8.6092     91.708      0.336   0.291682     0.0000    -0.1155     0.0000     0.0423 9.6447e+02    -0.4084     -0.703     -1.020    18.4170 0.0000e+00
     -0.717 9.9905e-08     8.6093     91.707      0.330   0.286637     0.0000    -0.1079     0.0000     0.0423 9.5322e+02    -0.5136     -0.703     -1.020    18.4167 0.0000e+00
     -0.717 1.2845e-07     8.6090     91.706      0.334   0.289842     0.0000    -0.1193     0.0000     0.0423 9.6615e+02    -0.4685     -0.703     -1.020    18.4160 0.0000e+00
     -0.717 1.6515e-07     8.6086     91.704      0.343   0.298196     0.0000    -0.1155     0.0000     0.0423 1.0067e+03    -0.4534     -0.703     -1.020    18.4151 0.0000e+00
     -0.717 2.1233e-07     8.6083     91.704      0.348   0.302065     0.0000    -0.0850     0.0000     0.4653 1.0391e+03    -0.3633     -0.703     -1.020    18.4144 0.0000e+00
     -0.717 2.7300e-07     8.6083     91.703      0.349   0.302482     0.0000    -0.0926     0.0000     0.4653 1.0405e+03    -0.4084     -0.703     -1.020    18.4139 0.0000e+00
     -0.717 3.5100e-07     8.6083     91.702      0.350   0.303512     0.0000    -0.1498     0.0000     0.4653 1.0270e+03    -0.3783     -0.703     -1.020    18.4136 0.0000e+00
     -0.717 4.5129e-07     8.6082     91.702      0.347   0.301474     0.0000    -0.0697     0.0000     0.4653 1.0378e+03    -0.5136     -0.703     -1.020    18.4133 0.0000e+00
     -0.717 5.8023e-07     8.6082     91.705      0.341   0.295826     0.0000    -0.1155     0.0000    -0.5076 1.0516e+03    -0.4084     -0.703     -1.020    18.4130 0.0000e+00
     -0.717 7.4601e-07     8.6081     91.713      0.338   0.292970     0.0000    -0.0850     0.0000    -0.5076 1.0557e+03    -0.4534     -0.703     -1.020    18.4126 0.0000e+00
     -0.717 9.5915e-07     8.6081     91.727      0.337   0.292144     0.0000    -0.0888     0.0000    -0.5076 1.0682e+03    -0.3482     -0.703     -1.020    18.4124 0.0000e+00
     -0.717      0.000     8.6081     91.738      0.333   0.289174     0.0000    -0.1384     0.0000    -0.5076 1.0738e+03    -0.4534     -0.703     -1.020    18.4123 0.0000e+00
     -0.717      0.000     8.6083     91.742      0.331   0.287221     0.0000    -0.1422     0.0000    -0.5076 1.0874e+03    -0.3933     -0.703     -1.020    18.4123 0.0000e+00
     -0.717      0.000     8.6091     91.739      0.334   0.289720     0.0000    -0.0964     0.0000    -0.0423 1.0985e+03    -0.3633     -0.703     -1.020    18.4124 0.0000e+00
     -0.717      0.000     8.6104     91.727      0.338   0.293383     0.0000    -0.0850     0.0000    -0.0423 1.1062e+03    -0.3633     -0.703     -1.020    18.4128 0.0000e+00
     -0.717      0.000     8.6113     91.707      0.340   0.295231     0.0000    -0.0926     0.0000    -0.0423 1.1081e+03    -0.3482     -0.703     -1.020    18.4134 0.0000e+00
     -0.717      0.000     8.6116     91.689      0.341   0.295758     0.0000    -0.1155     0.0000    -0.0423 1.1038e+03    -0.2881     -0.703     -1.020    18.4142 0.0000e+00
     -0.717      0.000     8.6111     91.676      0.344   0.299059     0.0000    -0.1193     0.0000    -0.0423 1.0959e+03    -0.3182     -0.703     -1.020    18.4153 0.0000e+00
     -0.717      0.000     8.6096     91.668      0.357   0.309969     0.0000    -0.1231     0.0000    -0.0423 1.0966e+03    -0.3482     -0.703     -1.020    18.4169 0.0000e+00
     -0.717      0.000     8.6074     91.661      0.372   0.323487     0.0000    -0.1231     0.0000    -0.0423 1.1069e+03    -0.4985     -0.703     -1.020    18.4193 0.0000e+00
     -0.717      0.000     8.6050     91.651      0.381   0.331357     0.0000    -0.1117     0.0000    -0.0423 1.1105e+03    -0.3633     -0.703     -1.020    18.4231 0.0000e+00
     -0.717      0.000     8.6027     91.640      0.381   0.331722     0.0000    -0.1079     0.0000     0.2115 9.9903e+02    -0.4534     -0.703     -1.020    18.4294 0.0000e+00
     -0.717      0.000     8.6002     91.635      0.378   0.328635     0.0000    -0.1231     0.0000     0.2115 9.2889e+02    -0.4384     -0.703     -1.020    18.4392 0.0000e+00
     -0.717      0.000     8.5972     91.635      0.378   0.329180     0.0000    -0.1308     0.0000     0.2115 9.5737e+02    -0.4534     -0.703     -1.020    18.4522 0.0000e+00
     -0.717      0.000     8.5938     91.633      0.383   0.333503     0.0000    -0.1079     0.0000     0.2115 9.8203e+02    -0.4534     -0.703     -1.020    18.4665 0.0000e+00
     -0.717      0.000     8.5903     91.632      0.385   0.334849     0.0000    -0.1269     0.0000     0.4653 9.9491e+02    -0.3783     -0.703     -1.020    18.4807 0.0000e+00
     -0.717      0.000     8.5874     91.641      0.383   0.333576     0.0000    -0.1269     0.0000     0.4653 1.0012e+03    -0.3332     -0.703     -1.020    18.4943 0.0000e+00
     -0.717      0.000     8.5852     91.660      0.387   0.337253     0.0000    -0.1193     0.0000     0.4653 1.0003e+03    -0.4084     -0.703     -1.020    18.5073 0.0000e+00
     -0.717      0.000     8.5828     91.679      0.398   0.346860     0.0000    -0.1079     0.0000     0.4653 9.9903e+02    -0.3482     -0.703     -1.020    18.5199 0.0000e+00
     -0.717      0.000     8.5805     91.691      0.414   0.361007     0.0000    -0.0964     0.0000     0.4653 9.8480e+02    -0.4384     -0.703     -1.020    18.5326 0.0000e+00
     -0.717      0.000     8.5790     91.695      0.444   0.387418     0.0000    -0.1193     0.0000    -0.0423 9.9232e+02    -0.5136     -0.703     -1.020    18.5460 0.0000e+00
     -0.717      0.000     8.5783     91.694      0.501   0.437091     0.0000    -0.1155     0.0000    -0.0423 9.9340e+02    -0.3933     -0.703     -1.020    18.5603 0.0000e+00
     -0.717      0.000     8.5776     91.697      0.599   0.523273     0.0000    -0.1041     0.0000    -0.0423 9.9729e+02    -0.3783     -0.703     -1.020    18.5749 0.0000e+00
     -0.717      0.000     8.5762     91.707      0.761   0.664991     0.0000    -0.1231     0.0000    -0.0423 9.7692e+02    -0.3332     -0.703     -1.020    18.5888 0.0000e+00
     -0.717      0.000     8.5743     91.710      1.030   0.900036     0.0000    -0.1498    -0.1278     0.0846 9.4723e+02    -0.3482     -0.703     -1.020    18.6018 0.0000e+00
     -0.717      0.001     8.5719     91.708      1.485   1.298996     0.0000    -0.1193    -0.1278     0.0846 8.6932e+02    -0.2881     -0.703     -1.019    18.6149 0.0000e+00
     -0.717      0.001     8.5697     91.708      2.177   1.904991     0.0000    -0.1308    -0.1278     0.0846 8.7863e+02    -0.4084     -0.703     -1.019    18.6291 0.0000e+00
     -0.716      0.001     8.5679     91.704      3.087   2.701677     0.0000    -0.1269    -0.1278     0.0846 9.1825e+02    -0.4384     -0.702     -1.019    18.6446 0.0000e+00
     -0.716      0.001     8.5654     91.698      4.109   3.597008     0.0000    -0.1155    -0.2556    -0.4230 8.5918e+02    -0.4084     -0.702     -1.019    18.6614 0.0000e+00
     -0.716      0.001     8.5621     91.694      5.010   4.386805     0.0000    -0.1041    -0.2556    -0.4230 1.0689e+03    -0.4234     -0.702     -1.019    18.6796 0.0000e+00
     -0.716      0.002     8.5588     91.687      5.689   4.985067     0.0000    -0.1269    -0.2556    -0.4230 6.8360e+02    -0.4534     -0.702     -1.018    18.6983 0.0000e+00
     -0.715      0.002     8.5553     91.678      6.296   5.521669     0.0000    -0.1155    -0.2556    -0.4230 1.1232e+03    -0.3633     -0.701     -1.018    18.7162 0.0000e+00
     -0.715      0.003     8.5515     91.668      6.823   5.989403     0.0000    -0.1117     0.0426    -0.4653 6.8034e+02    -0.4685     -0.701     -1.017    18.7347 0.0000e+00
     -0.714      0.004     8.5471     91.658      6.999   6.151082     0.0000    -0.0964     0.0426    -0.4653 1.4113e+03    -0.3482     -0.700     -1.016    18.7579 0.0000e+00
     -0.713      0.005     8.5409     91.654      6.750   5.939068     0.0000    -0.1308     0.0426    -0.4653 1.6615e+03    -0.3633     -0.700     -1.015    18.7896 0.0000e+00
     -0.712      0.006     8.5330     91.658      6.279   5.532174     0.0000    -0.1269     0.0426    -0.4653 1.8599e+03    -0.2581     -0.698     -1.013    18.8310 0.0000e+00
     -0.711      0.008     8.5234     91.668      5.712   5.039445     0.0000    -0.1117     0.0426    -0.4653 1.8278e+03    -0.4234     -0.697     -1.010    18.8811 0.0000e+00
     -0.708      0.010     8.5126     91.679      5.129   4.533173     0.3600    -0.1422     6.1344     7.2756 1.8615e+03    -0.5136     -0.695     -1.007    18.9386 0.0000e+00
     -0.706      0.013     8.5016     91.686      4.658   4.125543     0.3600    -0.1193     6.1344     7.2756 1.8370e+03    -0.3182     -0.692     -1.004    19.0006 0.0000e+00
     -0.702      0.016     8.4915     91.685      4.326   3.842319     0.3600    -0.0888     6.1344     7.2756 1.8438e+03    -0.3182     -0.688     -0.999    19.0620 0.0000e+00
     -0.698      0.019     8.4828     91.675      4.114   3.671251     0.3600    -0.1384     6.1344     7.2756 1.9132e+03     0.4333     -0.684     -0.992    19.1190 0.0000e+00
     -0.692      0.023     8.4748     91.659      4.078   3.663611     6.7500    -0.0850     0.3834    12.0555 1.9011e+03     0.3131     -0.679     -0.985    19.1723 0.0000e+00
     -0.686      0.027     8.4663     91.644      4.279   3.880639     6.7500    -0.1498     0.3834    12.0555 1.8446e+03     0.3582     -0.673     -0.976    19.2269 0.0000e+00
     -0.679      0.032     8.4555     91.640      4.733   4.346592     6.7500    -0.1269     0.3834    12.0555 1.5239e+03     0.2981     -0.666     -0.966    19.2913 0.0000e+00
     -0.670      0.036     8.4401     91.652      5.554   5.173863     6.7500     1.7881     0.3834    12.0555 1.3341e+03    19.1759     -0.657     -0.953    19.3786 0.0000e+00
     -0.660      0.040     8.4172     91.682      7.052   6.654241     6.2100     1.7804     0.4686    12.0132 1.1202e+03    19.2661     -0.648     -0.939    19.5094 0.0000e+00
     -0.650      0.045     8.3820     91.719      9.610   9.152836     6.2100     1.7499     0.4686    12.0132 1.4104e+03    19.1759     -0.637     -0.924    19.7158 0.0000e+00
     -0.638      0.050     8.3288     91.761     13.496  12.936489     6.2100     1.7652     0.4686    12.0132 2.0815e+03    19.2511     -0.626     -0.907    20.0389 0.0000e+00
     -0.625      0.055     8.2578     91.814     18.424  17.748302     6.2100     1.9101     0.4686    12.0132 2.1881e+03    20.5587     -0.613     -0.889    20.4831 0.0000e+00
     -0.611      0.062     8.1781     91.867     23.945  23.174153     6.2100     1.8796     0.4686    12.0132 2.1434e+03    20.4685     -0.599     -0.869    20.9948 0.0000e+00
     -0.595      0.069     8.0990     91.920     29.974  29.137252     6.0300     1.8873     0.3834    11.9286 2.1392e+03    20.3182     -0.583     -0.846    21.5132 0.0000e+00
     -0.576      0.078     8.0269     91.978     35.675  34.824262     6.0300     1.9101     0.3834    11.9286 2.0590e+03    20.4384     -0.565     -0.820    21.9969 0.0000e+00
     -0.556      0.087     7.9643     92.053     39.869  39.080328     6.0300     1.9597     0.3834    11.9286 1.1616e+03    21.2050     -0.545     -0.791    22.4303 0.0000e+00
     -0.533      0.096     7.9095     92.156     42.521  41.846028     6.0300     1.9788     0.3834    11.9286 1.3017e+03    21.2050     -0.522     -0.758    22.8187 0.0000e+00
     -0.506      0.103     7.8608     92.304     44.145  43.599327     6.0300     1.9368     0.3834    11.9286 1.2012e+03    21.1148     -0.496     -0.720    23.1704 0.0000e+00
     -0.477      0.109     7.8175     92.505     45.072  44.647282     6.0300     1.9445     0.3834    11.9286 2.3259e+03    21.0847     -0.468     -0.678    23.4934 0.0000e+00
     -0.447      0.114     7.7798     92.766     45.524  45.198020     6.0300     2.0475     0.3834    11.9286 2.2372e+03    21.4304     -0.438     -0.636    23.7903 0.0000e+00
     -0.417      0.115     7.7496     93.093     45.668  45.412279     6.0300     1.9941     0.3834    11.9286 2.3657e+03    21.3703     -0.409     -0.593    24.0551 0.0000e+00
     -0.387      0.114     7.7292     93.481     45.679  45.466088     6.2100     2.0017     0.3834    12.0555 1.2140e+03    21.4906     -0.379     -0.550    24.2798 0.0000e+00
     -0.357      0.109     7.7197     93.915     45.740  45.546187     6.2100     2.0093     0.3834    12.0555 1.8728e+03    21.4605     -0.350     -0.507    24.4606 0.0000e+00
     -0.327      0.102     7.7218     94.364     45.923  45.735359     6.2100     2.2153     0.3834    12.0555 2.4345e+03    20.6038     -0.321     -0.466    24.5968 0.0000e+00
     -0.301      0.092     7.7354     94.781     46.186  46.002810     6.2100     2.2153     0.3834    12.0555 1.1154e+03    20.6338     -0.295     -0.427    24.6906 0.0000e+00
     -0.278      0.080     7.7595     95.145     46.447  46.277192     6.2100     2.1810     0.4260    13.1553 5.5888e+02    20.7240     -0.272     -0.395    24.7470 0.0000e+00
     -0.259      0.067     7.7916     95.466     46.645  46.496931     6.2100     2.2268     0.4260    13.1553 6.1911e+02    20.7090     -0.254     -0.369    24.7743 0.0000e+00
     -0.245      0.055     7.8273     95.779     46.774  46.651271     6.2100     2.1428     0.4260    13.1553 1.0638e+03    20.4835     -0.240     -0.348    24.7846 0.0000e+00
     -0.234      0.044     7.8607     96.158     46.863  46.763538     6.2100     2.1657     0.4260    13.1553 1.4667e+03    20.4986     -0.230     -0.333    24.7929 0.0000e+00
     -0.225      0.036     7.8885     96.735     46.930  46.851780     6.2100     2.1467     0.4260    13.1553 8.8207e+02    20.4384     -0.221     -0.320    24.8095 0.0000e+00
     -0.218      0.029     7.9114     97.705     46.980  46.919714     6.2100     2.1390     0.4260    13.6206 7.3172e+02    20.4384     -0.214     -0.310    24.8341 0.0000e+00
     -0.212      0.025     7.9333     99.306     47.014  46.965641     6.2100     2.2077     0.4260    13.6206 7.0044e+02    20.7390     -0.208     -0.301    24.8616 0.0000e+00
     -0.206      0.021     7.9608    101.645     47.029  46.989919     6.2100     2.2115     0.4260    13.6206 6.8912e+02    20.6489     -0.202     -0.293    24.8878 0.0000e+00
     -0.201      0.019     8.0052    104.646     47.029  46.995059     6.2100     2.2229     0.4260    13.6206 6.8554e+02    20.6489     -0.198     -0.286    24.9108 0.0000e+00
     -0.197      0.018     8.0827    108.270     47.017  46.986395     6.2100     2.2077     0.3834    13.7052 6.8584e+02    20.7992     -0.193     -0.280    24.9292 0.0000e+00
     -0.193      0.017     8.2131    112.404     46.997  46.969543     6.2100     2.2153     0.3834    13.7052 6.8494e+02    21.0998     -0.189     -0.275    24.9427 0.0000e+00
     -0.189      0.016     8.4051    116.684     46.973  46.947935     6.2100     2.2229     0.3834    13.7052 6.8494e+02    21.1449     -0.186     -0.269    24.9518 0.0000e+00
     -0.185      0.016     8.6523    120.669     46.934  46.911847     6.2100     2.2229     0.3834    13.7052 5.6930e+02    21.0847     -0.182     -0.263    24.9578 0.0000e+00
     -0.181      0.017     8.9513    124.009     46.851  46.831838     6.2100     2.2191     0.4260    13.5360 5.0539e+02    21.1749     -0.178     -0.257    24.9618 0.0000e+00
     -0.177      0.018     9.2926    126.472     46.697  46.678646     6.2100     2.1695     0.4260    13.5360 5.2658e+02    20.8593     -0.173     -0.251    24.9648 0.0000e+00
     -0.172      0.019     9.6459    127.933     46.504  46.482759     6.2100     2.1352     0.4260    13.5360 5.2979e+02    20.7691     -0.169     -0.245    24.9678 0.0000e+00
     -0.168      0.022     9.9747    128.340     46.396  46.368296     6.2100     2.1352     0.4260    13.5360 5.3897e+02    20.9044     -0.165     -0.238    24.9711 0.0000e+00
     -0.162      0.025    10.2504    127.767     46.444  46.409754     6.2100     2.1161     0.4260    13.3668 5.2179e+02    20.8893     -0.159     -0.231    24.9738 0.0000e+00
     -0.156      0.028    10.4539    126.487     46.564  46.527037     6.2100     2.2878     0.4260    13.3668 4.8369e+02    21.4004     -0.153     -0.222    24.9742 0.0000e+00
     -0.148      0.033    10.5753    124.842     46.658  46.620642     6.2100     2.2725     0.4260    13.3668 4.7659e+02    21.4605     -0.146     -0.211    24.9709 0.0000e+00
     -0.140      0.038    10.6103    123.089     46.712  46.671934     6.2100     2.2497     0.4260    13.3668 4.8749e+02    21.3553     -0.137     -0.199    24.9642 0.0000e+00
     -0.129      0.042    10.5641    121.415     46.743  46.698556     6.2100     2.2649     0.4260    13.3668 4.3201e+02    21.4605     -0.127     -0.184    24.9578 0.0000e+00
     -0.117      0.046    10.4589    119.970     46.749  46.697698     6.2100     2.5091     0.3834    13.9590 3.8044e+02    21.3703     -0.115     -0.167    24.9548 0.0000e+00
     -0.104      0.049    10.3231    118.870     46.710  46.647335     6.2100     2.5167     0.3834    13.9590 3.7008e+02    21.3703     -0.102     -0.148    24.9537 0.0000e+00
     -0.091      0.051    10.1785    118.174     46.635  46.555833     6.2100     2.5281     0.3834    13.9590 3.6362e+02    21.4304     -0.089     -0.130    24.9515 0.0000e+00
     -0.078      0.053    10.0410    117.885     46.570  46.470127     6.2100     2.5167     0.3834    13.9590 3.5380e+02    21.4455     -0.076     -0.111    24.9468 0.0000e+00
     -0.064      0.054     9.9229    118.021     46.543  46.420863     6.3000     3.0012     0.4260    14.9742 3.3292e+02    21.5657     -0.063     -0.091    24.9390 0.0000e+00
     -0.050      0.055     9.8342    118.583     46.527  46.383013     6.3000     3.0240     0.4260    14.9742 2.8694e+02    21.6709     -0.049     -0.071    24.9269 0.0000e+00
     -0.036      0.056     9.7798    119.480     46.489  46.322704     6.3000     3.0126     0.4260    14.9742 2.8619e+02    21.6559     -0.035     -0.051    24.9092 0.0000e+00
     -0.022      0.057     9.7599    120.543     46.454  46.261503     6.3000     3.0050     0.4260    14.9742 2.8071e+02    21.6258     -0.022     -0.031    24.8869 0.0000e+00
     -0.008      0.058     9.7756    121.565     46.444  46.220737     6.3000     4.1113     0.4260    16.2432 2.6772e+02    22.3623     -0.007     -0.011    24.8629 0.0000e+00
      0.007      0.060     9.8264    122.396     46.408  46.147923     6.3000     4.1341     0.4260    16.2432 2.5639e+02    22.3473      0.007      0.011    24.8395 0.0000e+00
      0.023      0.061     9.9053    122.969     46.311  46.007789     6.3000     4.1380     0.4260    16.2432 2.6644e+02    22.3924      0.023      0.033    24.8152 0.0000e+00
      0.039      0.062     9.9987    123.225     46.217  45.867984     6.3000     4.0998     0.4260    16.2432 2.2776e+02    22.3322      0.038      0.055    24.7871 0.0000e+00
      0.055      0.061    10.0896    123.113     46.194  45.800207     6.3000     5.7783     0.4260    16.2432 2.1167e+02    19.9575      0.054      0.078    24.7539 0.0000e+00
      0.072      0.059    10.1660    122.649     46.251  45.812141     6.5700     5.8126     0.4260    18.2736 1.7081e+02    19.8823      0.070      0.102    24.7140 0.0000e+00
      0.088      0.057    10.2224    121.931     46.363  45.877245     6.5700     5.8012     0.4260    18.2736 1.6487e+02    19.9124      0.086      0.125    24.6671 0.0000e+00
      0.102      0.053    10.2531    121.098     46.492  45.953434     6.5700     5.7936     0.4260    18.2736 1.5547e+02    19.8823      0.100      0.146    24.6170 0.0000e+00
      0.115      0.049    10.2529    120.271     46.600  45.997617     6.5700     5.2900     0.4260    18.2736 1.4825e+02    20.2130      0.113      0.164    24.5681 0.0000e+00
      0.126      0.046    10.2232    119.509     46.650  45.966090     6.7500     5.3015     0.4260    19.2888 1.3700e+02    20.2130      0.124      0.179    24.5204 0.0000e+00
      0.136      0.043    10.1726    118.826     46.633  45.854405     6.7500     5.3015     0.4260    19.2888 1.3301e+02    20.1378      0.133      0.194    24.4710 0.0000e+00
      0.146      0.041    10.1134    118.222     46.611  45.737794     6.7500     5.3167     0.4260    19.2888 1.3169e+02    20.2431      0.143      0.208    24.4158 0.0000e+00
      0.157      0.040    10.0569    117.698     46.656  45.694136     6.7500     5.4998     0.4260    19.2888 1.2741e+02    19.6869      0.154      0.223    24.3478 0.0000e+00
      0.168      0.038    10.0093    117.235     46.762  45.717730     6.7500     5.4884     0.4260    19.5426 1.1909e+02    19.7621      0.164      0.239    24.2610 0.0000e+00
      0.178      0.035     9.9709    116.785     46.869  45.745514     6.7500     5.5075     0.4260    19.5426 1.1865e+02    19.6869      0.175      0.253    24.1600 0.0000e+00
      0.187      0.032     9.9391    116.297     46.930  45.729411     6.7500     5.5265     0.4260    19.5426 1.1875e+02    19.7020      0.184      0.266    24.0581 0.0000e+00
      0.194      0.030     9.9125    115.744     46.934  45.655219     6.7500     5.4884     0.4260    19.5426 1.2000e+02    19.6268      0.191      0.277    23.9639 0.0000e+00
      0.201      0.027     9.8895    115.098     46.895  45.544758     6.6600     5.3739     0.4260    17.4276 1.2338e+02    18.0336      0.197      0.286    23.8778 0.0000e+00
      0.207      0.025     9.8665    114.333     46.865  45.453773     6.6600     5.3739     0.4260    17.4276 1.2346e+02    18.0186      0.202      0.294    23.7964 0.0000e+00
      0.213      0.024     9.8404    113.462     46.860  45.397628     6.6600     5.3739     0.4260    17.4276 1.1860e+02    17.9585      0.208      0.302    23.7148 0.0000e+00
      0.219      0.023     9.8088    112.552     46.843  45.335589     6.6600     5.3549     0.4260    17.4276 1.1509e+02    18.0787      0.214      0.311    23.6320 0.0000e+00
      0.225      0.022     9.7683    111.704     46.786  45.237242     6.6600     5.1336     0.4260    17.4276 1.1422e+02    16.1699      0.220      0.319    23.5545 0.0000e+00
      0.231      0.021     9.7156    111.028     46.682  45.092213     6.4800     5.1222     0.4260    17.0046 1.0875e+02    16.2751      0.226      0.328    23.4882 0.0000e+00
      0.236      0.019     9.6517    110.645     46.522  44.885601     6.4800     5.1222     0.4260    17.0046 1.0699e+02    16.1549      0.231      0.335    23.4327 0.0000e+00
      0.241      0.017     9.5834    110.722     46.270  44.574200     6.4800     5.1222     0.4260    17.0046 1.0383e+02    16.2901      0.236      0.342    23.3840 0.0000e+00
      0.245      0.015     9.5199    111.526     45.859  44.080912     6.4800     4.8361     0.4260    17.0046 1.0228e+02    16.4855      0.240      0.348    23.3375 0.0000e+00
      0.248      0.013     9.4717    113.468     45.401  43.496096     6.3900     4.8246     0.4260    16.4124 1.0367e+02    16.4254      0.243      0.353    23.2887 0.0000e+00
      0.251      0.011     9.4502    117.086     45.134  43.060055     6.3900     4.8437     0.4260    16.4124 1.0492e+02    16.4104      0.246      0.357    23.2319 0.0000e+00
      0.253      0.009     9.4717    122.870     45.030  42.781324     6.3900     4.8399     0.4260    16.4124 1.0540e+02    16.3653      0.248      0.360    23.1572 0.0000e+00
      0.255      0.008     9.5622    130.893     44.914  42.518203     6.3900     4.8437     0.4260    16.4124 1.0685e+02    16.4705      0.250      0.363    23.0491 0.0000e+00
      0.257      0.008     9.7606    140.550     44.740  42.226275     6.3900     4.8170     0.3834    15.8625 1.0806e+02    16.4104      0.252      0.365    22.8910 0.0000e+00
      0.259      0.007    10.1122    150.769     44.534  41.922785     6.3900     4.8284     0.3834    15.8625 1.0736e+02    16.4104      0.254      0.368    22.6923 0.0000e+00
      0.261      0.007    10.6534    160.371     44.314  41.617932     6.3900     4.8170     0.3834    15.8625 1.0820e+02    16.3953      0.255      0.370    22.4935 0.0000e+00
      0.262      0.008    11.3861    168.282     44.074  41.303719     6.3900     4.4813     0.3834    15.8625 1.0583e+02    14.8172      0.257      0.373    22.3236 0.0000e+00
      0.264      0.008    12.2585    173.690     43.846  41.007293     6.3000     4.4775     0.3408    15.4395 1.0734e+02    14.8773      0.259      0.376    22.1817 0.0000e+00
      0.266      0.009    13.1788    176.202     43.670  40.766486     6.3000     4.4965     0.3408    15.4395 1.0755e+02    14.7120      0.261      0.378    22.0589 0.0000e+00
      0.268      0.010    14.0451    175.921     43.553  40.592356     6.3000     4.4775     0.3408    15.4395 1.0673e+02    14.6819      0.263      0.381    21.9492 0.0000e+00
      0.271      0.012    14.7636    173.382     43.492  40.484030     6.3000     4.1875     0.3408    15.4395 1.0574e+02    14.8021      0.265      0.385    21.8486 0.0000e+00
      0.274      0.014    15.2629    169.389     43.470  40.428465     6.3000     4.1799     0.3408    15.4395 1.0567e+02    14.7120      0.268      0.389    21.7545 0.0000e+00
      0.277      0.017    15.5070    164.768     43.476  40.414805     6.1200     4.1761     0.2982    14.7627 1.0453e+02    14.7420      0.271      0.394    21.6682 0.0000e+00
      0.281      0.022    15.5025    160.190     43.477  40.409691     6.1200     4.1990     0.2982    14.7627 1.0394e+02    14.8623      0.276      0.400    21.5940 0.0000e+00
      0.287      0.027    15.2948    156.100     43.402  40.340446     6.1200     4.2905     0.2982    14.7627 1.0720e+02    15.0426      0.281      0.408    21.5358 0.0000e+00
      0.294      0.035    14.9535    152.713     43.202  40.150966     6.1200     4.3096     0.2982    14.7627 1.0586e+02    14.9224      0.288      0.418    21.4955 0.0000e+00
      0.303      0.044    14.5517    150.035     42.855  39.808554     6.1200     4.2944     0.3408    14.2551 1.0636e+02    14.9975      0.297      0.431    21.4728 0.0000e+00
      0.315      0.055    14.1494    147.931     42.355  39.299160     6.1200     4.2867     0.3408    14.2551 1.0026e+02    14.9675      0.308      0.448    21.4655 0.0000e+00
      0.330      0.068    13.7879    146.166     41.753  38.669188     6.1200     3.9205     0.3408    14.2551 1.0146e+02    14.2460      0.323      0.469    21.4659 0.0000e+00
      0.348      0.083    13.4898    144.415     41.171  38.033904     6.1200     3.9358     0.3408    14.2551 9.8167e+01    14.2911      0.341      0.495    21.4604 0.0000e+00
      0.370      0.097    13.2593    142.264     40.697  37.485359     6.0300     3.9091     0.3408    13.9167 9.5143e+01    14.3061      0.362      0.526    21.4351 0.0000e+00
      0.397      0.110    13.0866    139.286     40.317  37.023840     6.0300     3.9243     0.3408    13.9167 8.2092e+01    14.2911      0.389      0.565    21.3808 0.0000e+00
      0.429      0.120    12.9518    135.172     40.021  36.647088     6.0300     2.4137     0.3408    13.9167 6.1889e+01    12.2470      0.421      0.610    21.2934 0.0000e+00
      0.464      0.126    12.8251    129.848     39.827  36.373468     6.0300     2.3832     0.3408    13.9167 5.7432e+01    12.2921      0.455      0.660    21.1758 0.0000e+00
      0.499      0.128    12.6664    123.496     39.683  36.159720     5.9400     2.3870     0.2982    12.2247 4.6365e+01    12.1869      0.489      0.710    21.0405 0.0000e+00
      0.534      0.127    12.4335    116.498     39.528  35.946861     5.9400     2.3832     0.2982    12.2247 3.9823e+01    12.2170      0.523      0.759    20.9032 0.0000e+00
      0.567      0.122    12.0960    109.325     39.364  35.729620     5.9400     2.0398     0.2982    12.2247 3.6058e+01     9.2560      0.555      0.806    20.7731 0.0000e+00
      0.597      0.116    11.6457    102.471     39.209  35.519386     5.9400     1.9979     0.2982    12.2247 3.4011e+01     9.2560      0.585      0.849    20.6546 0.0000e+00
      0.625      0.110    11.0977     96.347     39.063  35.317526     5.9400     2.0284     0.2982    12.2247 3.2248e+01     9.3612      0.613      0.889    20.5519 0.0000e+00
      0.651      0.104    10.4868     91.112     38.938  35.135565     5.4900     2.0284     0.2130     8.9676 3.0206e+01     9.3161      0.639      0.926    20.4623 0.0000e+00
      0.676      0.098     9.8575     86.661     38.855  34.996275     5.4900     1.9407     0.2130     8.9676 2.7758e+01     8.4745      0.663      0.962    20.3759 0.0000e+00
      0.701      0.093     9.2556     82.756     38.818  34.904098     5.4900     1.9597     0.2130     8.9676 2.5447e+01     8.3392      0.687      0.997    20.2873 0.0000e+00
      0.724      0.089     8.7181     79.140     38.797  34.834451     5.4900     1.9712     0.2130     8.9676 2.3691e+01     8.3843      0.710      1.030    20.1981 0.0000e+00
      0.746      0.084     8.2591     75.649     38.776  34.770739     5.3100     1.9635     0.2130     7.0641 2.2268e+01     8.4745      0.732      1.062    20.1109 0.0000e+00
      0.767      0.080     7.8691     72.255     38.770  34.723698     5.3100     2.3908     0.2130     7.0641 2.1615e+01     6.7310      0.753      1.092    20.0280 0.0000e+00
      0.787      0.075     7.5262     69.025     38.798  34.706528     5.3100     2.3717     0.2130     7.0641 2.0949e+01     6.6859      0.772      1.120    19.9529 0.0000e+00
      0.805      0.069     7.2072     66.069     38.855  34.714650     5.3100     2.4137     0.2130     7.0641 2.0128e+01     6.7911      0.790      1.146    19.8877 0.0000e+00
      0.823      0.064     6.8974     63.504     38.921  34.734382     5.0400     2.3679     0.1704     4.7376 1.9386e+01     6.6859      0.807      1.170    19.8305 0.0000e+00
      0.838      0.059     6.5953     61.387     38.991  34.761084     5.0400     2.3336     0.1704     4.7376 1.8821e+01     5.7540      0.822      1.193    19.7766 0.0000e+00
      0.853      0.055     6.3074     59.685     39.063  34.793953     5.0400     2.3374     0.1704     4.7376 1.8521e+01     5.7841      0.836      1.213    19.7225 0.0000e+00
      0.866      0.052     6.0440     58.328     39.135  34.827890     5.0400     2.3221     0.1704     4.7376 1.8513e+01     5.8292      0.849      1.231    19.6681 0.0000e+00
      0.877      0.049     5.8156     57.238     39.209  34.860061     5.0400     2.3259     0.1704     4.7376 1.8610e+01     5.8292      0.861      1.248    19.6172 0.0000e+00
      0.889      0.049     5.6271     56.323     39.288  34.891123     4.7700     2.3450     0.1278     3.5109 1.8593e+01     5.2129      0.872      1.264    19.5721 0.0000e+00
      0.900      0.050     5.4757     55.493     39.364  34.913513     4.7700     2.3183     0.1278     3.5109 1.8469e+01     5.3332      0.883      1.280    19.5318 0.0000e+00
      0.913      0.053     5.3556     54.648     39.430  34.921318     4.7700     2.3183     0.1278     3.5109 1.8048e+01     5.3031      0.895      1.298    19.4927 0.0000e+00
      0.926      0.057     5.2601     53.674     39.497  34.928500     4.7700     2.3221     0.1278     3.5109 1.7526e+01     5.1678      0.908      1.317    19.4502 0.0000e+00
      0.941      0.061     5.1812     52.469     39.586  34.956775     4.7700     1.4447     0.1278     3.3417 1.6766e+01     4.6568      0.923      1.339    19.4007 0.0000e+00
      0.957      0.065     5.1107     50.980     39.704  35.009721     4.7700     1.4714     0.1278     3.3417 1.6388e+01     4.7019      0.939      1.362    19.3428 0.0000e+00
      0.975      0.069     5.0392     49.211     39.818  35.059865     4.7700     1.4714     0.1278     3.3417 1.5939e+01     4.5967      0.956      1.386    19.2788 0.0000e+00
      0.993      0.072     4.9558     47.221     39.901  35.082948     4.7700     1.4676     0.1278     3.3417 1.5404e+01     4.5666      0.974      1.412    19.2134 0.0000e+00
      1.012      0.075     4.8507     45.093     39.959  35.087103     4.7700     0.9069     0.1278     2.3265 1.4887e+01     4.1157      0.992      1.439    19.1492 0.0000e+00
      1.032      0.077     4.7188     42.915     40.006  35.083339     4.7700     0.8916     0.1278     2.3265 1.4301e+01     4.2360      1.012      1.467    19.0855 0.0000e+00
      1.052      0.079     4.5608     40.796     40.038  35.070652     4.7700     0.8802     0.1278     2.3265 1.3719e+01     4.0857      1.032      1.496    19.0218 0.0000e+00
      1.073      0.081     4.3818     38.845     40.066  35.057538     4.7700     0.9183     0.1278     2.3265 1.3082e+01     4.1458      1.052      1.526    18.9594 0.0000e+00
      1.094      0.081     4.1893     37.148     40.099  35.052382     4.7700     0.7962     0.0852     1.7766 1.2616e+01     3.3492      1.073      1.556    18.8998 0.0000e+00
      1.115      0.081     3.9915     35.756     40.133  35.049847     4.7700     0.8077     0.0852     1.7766 1.2211e+01     3.4394      1.093      1.586    18.8442 0.0000e+00
      1.136      0.081     3.7984     34.682     40.162  35.045296     4.7700     0.8000     0.0852     1.7766 1.1837e+01     3.4093      1.114      1.615    18.7930 0.0000e+00
      1.156      0.080     3.6202     33.931     40.182  35.033552     4.7700     0.7733     0.0852     1.7766 1.1555e+01     3.3792      1.134      1.645    18.7462 0.0000e+00
      1.177      0.079     3.4653     33.496     40.189  35.011483     4.7700     0.7199     0.0852     1.7766 1.1373e+01     3.1388      1.154      1.674    18.7030 0.0000e+00
      1.197      0.078     3.3383     33.355     40.190  34.985085     4.7700     0.7314     0.1278     1.4382 1.1088e+01     3.1989      1.174      1.702    18.6631 0.0000e+00
      1.216      0.077     3.2407     33.459     40.191  34.959200     4.7700     0.7276     0.1278     1.4382 1.0777e+01     3.1688      1.193      1.730    18.6257 0.0000e+00
      1.236      0.076     3.1730     33.736     40.194  34.934848     4.7700     0.7123     0.1278     1.4382 1.0573e+01     3.1989      1.212      1.758    18.5900 0.0000e+00
      1.256      0.076     3.1347     34.113     40.199  34.913454     4.7700     0.6703     0.1278     1.4382 1.0292e+01     2.7780      1.231      1.786    18.5549 0.0000e+00
      1.275      0.075     3.1238     34.533     40.206  34.893274     4.6800     0.6475     0.0852     1.0998 1.0108e+01     2.7931      1.250      1.813    18.5202 0.0000e+00
      1.294      0.074     3.1358     34.953     40.218  34.876847     4.6800     0.6436     0.0852     1.0998 1.0055e+01     2.8231      1.268      1.840    18.4866 0.0000e+00
      1.312      0.073     3.1639     35.341     40.242  34.871675     4.6800     0.6970     0.0852     1.0998 9.9571e+00     2.8231      1.287      1.866    18.4538 0.0000e+00
      1.331      0.073     3.2014     35.668     40.277  34.876377     4.6800     0.6742     0.0852     1.0998 9.7941e+00     2.2069      1.305      1.893    18.4214 0.0000e+00
      1.349      0.073     3.2431     35.912     40.319  34.888244     4.5900     0.6780     0.0426     0.9729 9.6504e+00     2.2370      1.323      1.919    18.3886 0.0000e+00
      1.367      0.072     3.2847     36.048     40.363  34.902520     4.5900     0.6856     0.0426     0.9729 9.4594e+00     2.3422      1.341      1.945    18.3556 0.0000e+00
      1.386      0.072     3.3234     36.048     40.390  34.903205     4.5900     0.7009     0.0426     0.9729 9.1779e+00     2.2971      1.359      1.971    18.3231 0.0000e+00
      1.404      0.071     3.3563     35.891     40.389  34.882558     4.5900     0.6284     0.0426     0.9729 8.9339e+00     2.0115      1.377      1.997    18.2916 0.0000e+00
      1.422      0.070     3.3813     35.565     40.370  34.846957     4.4100     0.6436     0.0426     0.6768 8.7857e+00     2.0716      1.395      2.023    18.2609 0.0000e+00
      1.440      0.070     3.3961     35.087     40.342  34.802751     4.4100     0.6322     0.0426     0.6768 8.6587e+00     2.0416      1.412      2.048    18.2314 0.0000e+00
      1.457      0.069     3.3980     34.512     40.311  34.753994     4.4100     0.6360     0.0426     0.6768 8.4634e+00     2.0115      1.429      2.073    18.2040 0.0000e+00
      1.475      0.069     3.3848     33.915     40.277  34.701548     4.4100     0.6360     0.0426     0.6768 8.3085e+00     1.8161      1.446      2.098    18.1789 0.0000e+00
      1.492      0.068     3.3557     33.369     40.247  34.651229     4.4100     0.6284     0.0426     0.6768 8.1671e+00     1.8762      1.464      2.122    18.1550 0.0000e+00
      1.509      0.068     3.3123     32.924     40.223  34.603483     4.4100     0.6131     0.0852     0.5076 8.0508e+00     1.7860      1.481      2.147    18.1302 0.0000e+00
      1.527      0.067     3.2597     32.612     40.193  34.549536     4.4100     0.6169     0.0852     0.5076 7.9707e+00     1.9063      1.497      2.171    18.1033 0.0000e+00
      1.544      0.066     3.2053     32.436     40.162  34.494807     4.4100     0.5940     0.0852     0.5076 7.8487e+00     1.6808      1.514      2.196    18.0742 0.0000e+00
      1.561      0.065     3.1556     32.375     40.136  34.444502     4.4100     0.5445     0.0852     0.5076 7.7875e+00     1.5606      1.531      2.220    18.0433 0.0000e+00
      1.577      0.064     3.1157     32.383     40.112  34.397091     4.4100     0.5673     0.0852     0.3384 7.6650e+00     1.4554      1.547      2.243    18.0104 0.0000e+00
      1.593      0.063     3.0884     32.420     40.100  34.359731     4.4100     0.5559     0.0852     0.3384 7.6733e+00     1.5305      1.563      2.266    17.9757 0.0000e+00
      1.609      0.062     3.0740     32.452     40.112  34.342266     4.4100     0.4987     0.0852     0.3384 7.6550e+00     1.5155      1.578      2.288    17.9403 0.0000e+00
      1.624      0.062     3.0704     32.454     40.148  34.343996     4.4100     0.5025     0.0852     0.3384 7.6683e+00     1.5606      1.593      2.310    17.9055 0.0000e+00
      1.640      0.061     3.0734     32.411     40.188  34.349538     4.3200     0.4949     0.0426     0.3807 7.6600e+00     1.5606      1.608      2.332    17.8716 0.0000e+00
      1.655      0.061     3.0790     32.303     40.221  34.348486     4.3200     0.4949     0.0426     0.3807 7.5970e+00     1.4854      1.623      2.354    17.8379 0.0000e+00
      1.671      0.061     3.0843     32.105     40.245  34.340560     4.3200     0.4872     0.0426     0.3807 7.5920e+00     1.5305      1.639      2.377    17.8035 0.0000e+00
      1.686      0.061     3.0867     31.792     40.258  34.323644     4.3200     0.4796     0.0426     0.3807 7.6550e+00     1.5456      1.654      2.399    17.7681 0.0000e+00
      1.702      0.060     3.0848     31.339     40.259  34.297188     4.2300     0.4796     0.0426     0.3384 7.6268e+00     1.4704      1.669      2.421    17.7320 0.0000e+00
      1.717      0.060     3.0767     30.735     40.248  34.262057     4.2300     0.4949     0.0426     0.3384 7.5887e+00     1.5456      1.684      2.442    17.6960 0.0000e+00
      1.733      0.060     3.0601     29.996     40.232  34.222745     4.2300     0.4796     0.0426     0.3384 7.6450e+00     1.4103      1.699      2.464    17.6603 0.0000e+00
      1.748      0.059     3.0324     29.168     40.214  34.182630     4.2300     0.4834     0.0426     0.3384 7.6086e+00     1.2450      1.714      2.486    17.6252 0.0000e+00
      1.762      0.059     2.9913     28.312     40.188  34.134974     4.2300     0.5025     0.0426     0.3384 7.6251e+00     1.3051      1.728      2.507    17.5916 0.0000e+00
      1.777      0.059     2.9354     27.494     40.153  34.076972     4.2300     0.5063     0.0426     0.2961 7.5838e+00     1.2750      1.743      2.528    17.5593 0.0000e+00
      1.792      0.059     2.8667     26.772     40.115  34.014939     4.2300     0.4338     0.0426     0.2961 7.5411e+00     1.2600      1.758      2.549    17.5278 0.0000e+00
      1.807      0.060     2.7894     26.183     40.082  33.956096     4.2300     0.4338     0.0426     0.2961 7.4953e+00     1.3351      1.773      2.571    17.4966 0.0000e+00
      1.823      0.060     2.7093     25.738     40.055  33.904555     4.2300     0.4415     0.0426     0.2961 7.3262e+00     1.3051      1.788      2.593    17.4644 0.0000e+00
      1.838      0.059     2.6329     25.428     40.029  33.854491     4.1400     0.4567     0.0426     0.3807 7.2707e+00     1.3051      1.803      2.615    17.4293 0.0000e+00
      1.853      0.059     2.5658     25.225     40.002  33.804435     4.1400     0.4338     0.0426     0.3807 7.2094e+00     1.3351      1.817      2.636    17.3917 0.0000e+00
      1.868      0.058     2.5114     25.102     39.987  33.764803     4.1400     0.4415     0.0426     0.3807 7.1083e+00     1.2600      1.832      2.657    17.3538 0.0000e+00
      1.883      0.057     2.4707     25.031     39.983  33.736906     4.1400     0.4529     0.0426     0.3807 7.0086e+00     1.2600      1.847      2.678    17.3175 0.0000e+00
      1.898      0.056     2.4427     24.986     39.975  33.709344     4.1400     0.4376     0.0426     0.2538 6.8520e+00     1.2299      1.861      2.699    17.2827 0.0000e+00
      1.912      0.055     2.4249     24.952     39.951  33.670806     4.1400     0.3766     0.0426     0.2538 6.8015e+00     1.2750      1.875      2.720    17.2484 0.0000e+00
      1.926      0.054     2.4148     24.922     39.914  33.620917     4.1400     0.3881     0.0426     0.2538 6.7456e+00     1.3201      1.889      2.739    17.2151 0.0000e+00
      1.939      0.053     2.4096     24.894     39.878  33.570135     4.1400     0.3842     0.0426     0.2538 6.6727e+00     1.3051      1.902      2.758    17.1848 0.0000e+00
      1.952      0.052     2.4066     24.863     39.851  33.526703     4.1400     0.3728     0.0426     0.2538 6.5392e+00     1.2750      1.915      2.777    17.1587 0.0000e+00
      1.966      0.051     2.4045     24.819     39.835  33.490920     4.0500     0.3728     0.0852     0.1692 6.3144e+00     1.3502      1.927      2.795    17.1353 0.0000e+00
      1.979      0.050     2.4027     24.753     39.830  33.465125     4.0500     0.3652     0.0852     0.1692 6.1840e+00     1.2299      1.940      2.814    17.1119 0.0000e+00
      1.992      0.050     2.4013     24.664     39.835  33.450358     4.0500     0.3919     0.0852     0.1692 5.9236e+00     1.3051      1.953      2.832    17.0867 0.0000e+00
      2.004      0.049     2.3997     24.553     39.846  33.442682     4.0500     0.3652     0.0852     0.1692 5.6828e+00     1.2600      1.966      2.851    17.0600 0.0000e+00
      2.017      0.048     2.3967     24.420     39.855  33.436087     4.0500     0.3766     0.0426     0.2538 5.4057e+00     1.5907      1.978      2.868    17.0325 0.0000e+00
      2.029      0.048     2.3917     24.273     39.852  33.420895     4.0500     0.3881     0.0426     0.2538 5.1972e+00     1.5456      1.990      2.885    17.0059 0.0000e+00
      2.041      0.047     2.3844     24.126     39.841  33.397015     4.0500     0.4033     0.0426     0.2538 4.9925e+00     1.6207      2.001      2.902    16.9818 0.0000e+00
      2.052      0.047     2.3746     23.984     39.827  33.365999     4.0500     0.3728     0.0426     0.2538 4.8250e+00     1.5756      2.012      2.919    16.9610 0.0000e+00
      2.064      0.048     2.3626     23.845     39.806  33.323537     3.9600     0.3766     0.0426     0.1692 4.6835e+00     1.2450      2.024      2.936    16.9432 0.0000e+00
      2.076      0.049     2.3492     23.696     39.777  33.270187     3.9600     0.3575     0.0426     0.1692 4.5412e+00     1.1999      2.036      2.953    16.9271 0.0000e+00
      2.089      0.050     2.3358     23.514     39.740  33.207562     3.9600     0.3766     0.0426     0.1692 4.4330e+00     1.3502      2.048      2.971    16.9090 0.0000e+00
      2.102      0.051     2.3233     23.272     39.699  33.140746     3.9600     0.3842     0.0426     0.1692 4.3424e+00     1.3051      2.061      2.989    16.8846 0.0000e+00
      2.115      0.053     2.3113     22.966     39.661  33.075682     3.9600     0.3995     0.0426     0.1692 4.2880e+00     1.2901      2.074      3.008    16.8530 0.0000e+00
      2.129      0.054     2.2986     22.610     39.628  33.016803     3.9600     0.3804     0.0426     0.1692 4.1740e+00     1.3502      2.087      3.028    16.8162 0.0000e+00
      2.143      0.055     2.2828     22.233     39.607  32.968208     3.9600     0.3881     0.0426     0.1692 4.0489e+00     1.3351      2.101      3.048    16.7765 0.0000e+00
      2.157      0.056     2.2612     21.872     39.592  32.924860     3.9600     0.3613     0.0426     0.1692 3.9524e+00     1.3351      2.115      3.068    16.7353 0.0000e+00
      2.171      0.057     2.2335     21.558     39.580  32.883119     3.9600     0.3957     0.0426     0.1692 3.8624e+00     1.3802      2.129      3.088    16.6939 0.0000e+00
      2.186      0.058     2.2007     21.307     39.580  32.847696     3.9600     0.3919     0.0426     0.2961 3.7557e+00     1.2750      2.144      3.109    16.6537 0.0000e+00
      2.201      0.059     2.1657     21.122     39.588  32.817064     3.9600     0.3652     0.0426     0.2961 3.7386e+00     1.2901      2.158      3.131    16.6151 0.0000e+00
      2.216      0.060     2.1323     20.981     39.595  32.787013     3.9600     0.3652     0.0426     0.2961 3.6574e+00     1.3652      2.173      3.153    16.5766 0.0000e+00
      2.232      0.060     2.1035     20.832     39.598  32.757450     3.9600     0.4071     0.0426     0.2961 3.6116e+00     1.5756      2.189      3.175    16.5358 0.0000e+00
      2.248      0.059     2.0809     20.622     39.596  32.726429     3.9600     0.3842     0.0426     0.1692 3.5263e+00     1.5907      2.204      3.197    16.4911 0.0000e+00
      2.263      0.059     2.0650     20.317     39.584  32.687660     3.9600     0.3690     0.0426     0.1692 3.4905e+00     1.4854      2.220      3.219    16.4439 0.0000e+00
      2.278      0.057     2.0532     19.919     39.558  32.638723     3.9600     0.3842     0.0426     0.1692 3.4415e+00     1.5456      2.234      3.240    16.3985 0.0000e+00
      2.292      0.056     2.0403     19.455     39.530  32.588350     3.9600     0.3766     0.0426     0.1692 3.3807e+00     1.5155      2.248      3.261    16.3580 0.0000e+00
      2.306      0.056     2.0213     18.959     39.506  32.540930     3.9600     0.3652     0.0426     0.0846 3.3218e+00     1.5456      2.262      3.281    16.3211 0.0000e+00
      2.320      0.056     1.9929     18.469     39.485  32.495698     3.9600     0.3804     0.0426     0.0846 3.2645e+00     1.5305      2.275      3.300    16.2852 0.0000e+00
      2.334      0.056     1.9553     18.024     39.475  32.456434     3.9600     0.3957     0.0426     0.0846 3.2208e+00     1.4554      2.289      3.320    16.2498 0.0000e+00
      2.348      0.056     1.9111     17.650     39.482  32.428508     3.9600     0.3346     0.0426     0.0846 3.1770e+00     1.5305      2.303      3.340    16.2154 0.0000e+00
      2.362      0.057     1.8637     17.351     39.506  32.412392     3.8700     0.3346     0.0852     0.2538 3.0725e+00     1.5305      2.317      3.360    16.1812 0.0000e+00
      2.377      0.058     1.8169     17.103     39.535  32.399828     3.8700     0.3041     0.0852     0.2538 3.0439e+00     1.5456      2.331      3.382    16.1454 0.0000e+00
      2.393      0.058     1.7746     16.870     39.566  32.391423     3.8700     0.3308     0.0852     0.2538 2.9668e+00     1.5907      2.346      3.403    16.1062 0.0000e+00
      2.408      0.058     1.7393     16.610     39.611  32.396816     3.8700     0.3575     0.0852     0.2538 2.8993e+00     1.7860      2.361      3.425    16.0635 0.0000e+00
      2.423      0.058     1.7115     16.291     39.667  32.413483     3.8700     0.3766     0.0852     0.2538 2.8611e+00     1.9213      2.376      3.446    16.0183 0.0000e+00
      2.438      0.057     1.6888     15.900     39.727  32.433988     3.8700     0.3919     0.0426     0.2115 2.8537e+00     1.7710      2.391      3.467    15.9728 0.0000e+00
      2.452      0.056     1.6672     15.438     39.789  32.455877     3.8700     0.3652     0.0426     0.2115 2.8002e+00     1.8462      2.405      3.488    15.9298 0.0000e+00
      2.466      0.056     1.6429     14.916     39.851  32.477064     3.8700     0.3041     0.0426     0.2115 2.7615e+00     1.9514      2.419      3.508    15.8903 0.0000e+00
      2.480      0.055     1.6126     14.338     39.923  32.503199     3.8700     0.3270     0.0426     0.2115 2.7537e+00     1.9514      2.432      3.527    15.8534 0.0000e+00
      2.494      0.055     1.5750     13.712     40.002  32.533328     3.8700     0.3079     0.0426     0.2961 2.7311e+00     2.0716      2.446      3.547    15.8178 0.0000e+00
      2.508      0.055     1.5303     13.042     40.068  32.551722     3.8700     0.3232     0.0426     0.2961 2.6724e+00     2.1017      2.460      3.567    15.7822 0.0000e+00
      2.522      0.054     1.4797     12.330     40.114  32.555364     3.8700     0.3270     0.0426     0.2961 2.6036e+00     2.2219      2.474      3.588    15.7446 0.0000e+00
      2.536      0.053     1.4236     11.584     40.151  32.553144     3.8700     0.3003     0.0426     0.2961 2.5152e+00     2.2069      2.487      3.608    15.7041 0.0000e+00
      2.550      0.052     1.3626     10.813     40.187  32.552389     3.8700     0.3194     0.0426     0.1692 2.4536e+00     2.3873      2.501      3.627    15.6613 0.0000e+00
      2.563      0.051     1.2971     10.039     40.235  32.560820     3.8700     0.3041     0.0426     0.1692 2.4622e+00     2.1768      2.513      3.645    15.6178 0.0000e+00
      2.576      0.050     1.2274      9.291     40.305  32.584644     3.8700     0.3079     0.0426     0.1692 2.4051e+00     2.8682      2.525      3.663    15.5755 0.0000e+00
      2.588      0.050     1.1541      8.594     40.396  32.622292     3.8700     0.3156     0.0426     0.1692 2.3853e+00     2.7480      2.538      3.681    15.5358 0.0000e+00
      2.600      0.050     1.0782      7.964     40.494  32.663999     3.7800     0.3079     0.0426     0.2538 2.3427e+00     2.7329      2.550      3.698    15.4982 0.0000e+00
      2.613      0.051     1.0017      7.397     40.586  32.699103     3.7800     0.3194     0.0426     0.2538 2.3611e+00     2.8081      2.562      3.716    15.4600 0.0000e+00
      2.626      0.053     0.9278      6.871     40.664  32.721122     3.7800     0.2889     0.0426     0.2538 2.3118e+00     3.1989      2.575      3.735    15.4191 0.0000e+00
      2.640      0.055     0.8590      6.354     40.724  32.726024     3.7800     0.2927     0.0426     0.2538 2.2968e+00     3.2440      2.588      3.754    15.3752 0.0000e+00
      2.654      0.057     0.7968      5.817     40.765  32.713135     3.7800     0.3118     0.0426     0.2538 2.2883e+00     3.1838      2.602      3.775    15.3290 0.0000e+00
      2.669      0.058     0.7408      5.243     40.801  32.690898     3.7800     0.3156     0.0852     0.3384 2.2661e+00     3.1688      2.617      3.796    15.2807 0.0000e+00
      2.684      0.059     0.6889      4.635     40.844  32.671204     3.7800     0.3728     0.0852     0.3384 2.2700e+00     3.6348      2.632      3.817    15.2304 0.0000e+00
      2.699      0.060     0.6377      4.006     40.900  32.660681     3.7800     0.3690     0.0852     0.3384 2.2839e+00     3.6197      2.647      3.839    15.1776 0.0000e+00
      2.715      0.060     0.5844      3.381     40.958  32.652560     3.7800     0.3613     0.0852     0.3384 2.2754e+00     3.6949      2.663      3.862    15.1206 0.0000e+00
      2.730      0.060     0.5274      2.797     41.006  32.636752     3.7800     0.3728     0.0852     0.0846 2.2809e+00     3.6498      2.678      3.884    15.0586 0.0000e+00
      2.746      0.060     0.4668      2.284     41.041  32.613000     3.7800     0.3232     0.0852     0.0846 2.2260e+00     5.2730      2.693      3.905    14.9924 0.0000e+00
      2.761      0.059     0.4039      1.861     41.062  32.578930     3.7800     0.3232     0.0852     0.0846 2.2111e+00     5.3933      2.708      3.927    14.9247 0.0000e+00
      2.776      0.059     0.3414      1.531     41.058  32.525454     3.7800     0.3232     0.0852     0.0846 2.1495e+00     5.2129      2.722      3.948    14.8577 0.0000e+00
      2.791      0.059     0.2828      1.289     41.038  32.458112     3.8700     0.3194     0.1278     0.1692 2.1509e+00     5.3933      2.737      3.969    14.7922 0.0000e+00
      2.806      0.059     0.2312      1.121     41.036  32.406472     3.8700     0.3194     0.1278     0.1692 2.0648e+00     5.7540      2.751      3.990    14.7287 0.0000e+00
      2.821      0.059     0.1886      1.017     41.073  32.388444     3.8700     0.3270     0.1278     0.1692 2.0060e+00     5.7239      2.766      4.012    14.6670 0.0000e+00
      2.836      0.059     0.1554      0.967     41.127  32.391298     3.8700     0.2774     0.1278     0.1692 1.9633e+00     5.8292      2.781      4.033    14.6054 0.0000e+00
      2.851      0.059     0.1310      0.967     41.172  32.392030     3.8700     0.3003     0.0852     0.2115 1.9434e+00     5.8292      2.796      4.055    14.5431 0.0000e+00
      2.866      0.059     0.1141      1.011     41.196  32.378954     3.8700     0.3385     0.0852     0.2115 1.9391e+00     5.2881      2.811      4.077    14.4817 0.0000e+00
      2.881      0.058     0.1037      1.093     41.198  32.348581     3.8700     0.3423     0.0852     0.2115 1.9578e+00     5.4083      2.825      4.098    14.4250 0.0000e+00
      2.896      0.058     0.0988      1.204     41.181  32.300734     3.8700     0.2851     0.0852     0.2115 1.9161e+00     5.2730      2.840      4.119    14.3764 0.0000e+00
      2.910      0.057     0.0989      1.334     41.153  32.242453     3.8700     0.3346     0.0852     0.2115 1.9099e+00     5.3332      2.854      4.140    14.3347 0.0000e+00
      2.925      0.056     0.1035      1.472     41.121  32.179979     3.8700     0.3919     0.0852     0.2115 1.8741e+00     3.7400      2.869      4.161    14.2957 0.0000e+00
      2.940      0.055     0.1120      1.608     41.097  32.124373     3.8700     0.3613     0.0852     0.2115 1.8418e+00     3.6197      2.883      4.181    14.2562 0.0000e+00
      2.954      0.054     0.1235      1.735     41.095  32.086548     3.8700     0.3652     0.0852     0.2115 1.8306e+00     3.6197      2.897      4.201    14.2148 0.0000e+00
      2.967      0.053     0.1370      1.852     41.105  32.060377     3.8700     0.3575     0.0852     0.2115 1.7746e+00     3.6648      2.910      4.221    14.1708 0.0000e+00
      2.981      0.052     0.1514      1.967     41.125  32.042841     3.9600     0.4148     0.0852     0.1269 1.7547e+00     3.6798      2.923      4.239    14.1254 0.0000e+00
      2.993      0.051     0.1655      2.089     41.163  32.037183     3.9600     0.4186     0.0852     0.1269 1.7543e+00     3.6949      2.935      4.257    14.0801 0.0000e+00
      3.006      0.050     0.1787      2.221     41.217  32.041893     3.9600     0.4491     0.0852     0.1269 1.7505e+00     3.6498      2.948      4.275    14.0367 0.0000e+00
      3.019      0.050     0.1909      2.361     41.294  32.062187     3.9600     0.4186     0.0852     0.1269 1.7095e+00     3.6197      2.960      4.293    13.9956 0.0000e+00
      3.031      0.050     0.2029      2.503     41.395  32.099514     3.9600     0.3728     0.1278     0.3384 1.7010e+00     3.6648      2.973      4.312    13.9550 0.0000e+00
      3.044      0.050     0.2157      2.636     41.511  32.144025     3.9600     0.3766     0.1278     0.3384 1.6984e+00     3.6949      2.985      4.330    13.9122 0.0000e+00
      3.057      0.051     0.2296      2.745     41.637  32.191746     3.9600     0.3804     0.1278     0.3384 1.6630e+00     3.6798      2.998      4.348    13.8670 0.0000e+00
      3.070      0.052     0.2444      2.815     41.776  32.245500     3.9600     0.3728     0.1278     0.3384 1.7062e+00     3.5746      3.010      4.366    13.8197 0.0000e+00
      3.083      0.053     0.2594      2.835     41.929  32.303778     3.9600     0.3842     0.1278     0.3384 1.6793e+00     4.1007      3.023      4.385    13.7697 0.0000e+00
      3.096      0.054     0.2735      2.804     42.093  32.368257     3.9600     0.3690     0.1278     0.3384 1.6479e+00     4.0556      3.037      4.404    13.7153 0.0000e+00
      3.110      0.055     0.2851      2.719     42.283  32.452168     3.9600     0.3690     0.1278     0.3384 1.6142e+00     4.1157      3.050      4.424    13.6563 0.0000e+00
      3.125      0.055     0.2927      2.585     42.523  32.573925     3.9600     0.3575     0.1278     0.3384 1.5682e+00     4.1458      3.064      4.444    13.5920 0.0000e+00
      3.139      0.056     0.2953      2.416     42.815  32.730350     3.9600     0.3118     0.1278     0.3384 1.5584e+00     4.8372      3.079      4.465    13.5214 0.0000e+00
      3.153      0.056     0.2924      2.225     43.138  32.907708     3.9600     0.3232     0.1278     0.4230 1.5679e+00     4.7921      3.093      4.485    13.4477 0.0000e+00
      3.168      0.057     0.2839      2.028     43.494  33.107744     3.9600     0.3156     0.1278     0.4230 1.5909e+00     4.8221      3.107      4.505    13.3751 0.0000e+00
      3.182      0.057     0.2704      1.845     43.856  33.306566     3.9600     0.3232     0.1278     0.4230 1.5805e+00     4.7620      3.121      4.526    13.3016 0.0000e+00
      3.197      0.056     0.2531      1.686     44.166  33.460156     3.9600     0.2431     0.1278     0.4230 1.5968e+00     6.2801      3.135      4.546    13.2238 0.0000e+00
      3.211      0.056     0.2334      1.561     44.408  33.563919     4.0500     0.2431     0.1278     0.3384 1.5727e+00     6.2801      3.149      4.567    13.1436 0.0000e+00
      3.226      0.056     0.2132      1.473     44.603  33.639580     4.0500     0.2355     0.1278     0.3384 1.5727e+00     6.2500      3.163      4.588    13.0617 0.0000e+00
      3.240      0.056     0.1942      1.415     44.770  33.701372     4.0500     0.2469     0.1278     0.3384 1.5415e+00     6.2801      3.178      4.608    12.9740 0.0000e+00
      3.254      0.056     0.1779      1.376     44.928  33.761810     4.0500     0.2355     0.1278     0.3384 1.5176e+00     6.7460      3.191      4.628    12.8811 0.0000e+00
      3.268      0.056     0.1651      1.347     45.078  33.819186     4.1400     0.2507     0.1704     0.2961 1.5048e+00     6.6708      3.205      4.648    12.7905 0.0000e+00
      3.282      0.056     0.1561      1.325     45.198  33.855131     4.1400     0.2507     0.1704     0.2961 1.4607e+00     6.7460      3.218      4.668    12.7092 0.0000e+00
      3.296      0.057     0.1502      1.307     45.297  33.875269     4.1400     0.2622     0.1704     0.2961 1.3988e+00     6.7911      3.232      4.688    12.6376 0.0000e+00
      3.311      0.057     0.1463      1.299     45.403  33.900812     4.1400     0.1973     0.1704     0.2961 1.3171e+00     6.9865      3.247      4.709    12.5724 0.0000e+00
      3.325      0.058     0.1435      1.306     45.514  33.934607     4.1400     0.1935     0.1704     0.2961 1.2813e+00     6.9564      3.261      4.730    12.5104 0.0000e+00
      3.340      0.059     0.1413      1.332     45.620  33.969822     4.1400     0.2011     0.2130     0.1269 1.2038e+00     6.8512      3.276      4.751    12.4501 0.0000e+00
      3.355      0.060     0.1396      1.381     45.723  34.003965     4.1400     0.1897     0.2130     0.1269 1.1546e+00     6.9714      3.291      4.773    12.3903 0.0000e+00
      3.371      0.061     0.1389      1.455     45.831  34.042177     4.1400     0.1744     0.2130     0.1269 1.1110e+00     7.1518      3.305      4.794    12.3316 0.0000e+00
      3.386      0.061     0.1398      1.557     45.941  34.082764     4.1400     0.1859     0.2130     0.1269 1.0373e+00     7.2420      3.320      4.816    12.2774 0.0000e+00
      3.402      0.062     0.1429      1.693     46.034  34.112783     4.1400     0.1821     0.1704     0.1692 9.7016e-01     7.1969      3.336      4.839    12.2290 0.0000e+00
      3.418      0.063     0.1483      1.874     46.104  34.128356     4.1400     0.2088     0.1704     0.1692 9.3721e-01     7.3171      3.351      4.861    12.1830 0.0000e+00
      3.434      0.064     0.1564      2.112     46.157  34.131654     4.1400     0.1897     0.1704     0.1692 9.1111e-01     6.8211      3.367      4.884    12.1371 0.0000e+00
      3.451      0.064     0.1675      2.426     46.190  34.117615     4.1400     0.1706     0.1704     0.1692 8.7998e-01     6.7310      3.383      4.908    12.0921 0.0000e+00
      3.467      0.065     0.1824      2.838     46.193  34.080512     4.0500     0.1859     0.1704     0.0846 8.9230e-01     6.7159      3.400      4.931    12.0497 0.0000e+00
      3.484      0.065     0.2021      3.379     46.167  34.020353     4.0500     0.1935     0.1704     0.0846 8.0305e-01     6.8061      3.416      4.955    12.0100 0.0000e+00
      3.501      0.066     0.2281      4.080     46.128  33.944859     4.0500     0.1248     0.1704     0.0846 7.3908e-01     7.9935      3.433      4.979    11.9706 0.0000e+00
      3.517      0.066     0.2623      4.971     46.095  33.861625     4.0500     0.1134     0.1704     0.0846 7.3061e-01     7.8282      3.449      5.003    11.9291 0.0000e+00
      3.534      0.067     0.3073      6.092     46.072  33.776177     4.0500     0.1286     0.1704     0.1692 7.1927e-01     7.8282      3.466      5.027    11.8867 0.0000e+00
      3.551      0.067     0.3663      7.518     46.055  33.689491     4.0500     0.1210     0.1704     0.1692 6.7359e-01     7.8733      3.483      5.051    11.8425 0.0000e+00
      3.569      0.068     0.4430      9.370     46.018  33.588351     4.0500     0.1172     0.1704     0.1692 6.8050e-01     7.0165      3.500      5.076    11.7912 0.0000e+00
      3.586      0.068     0.5407     11.796     45.953  33.469547     4.0500     0.1439     0.1704     0.1692 6.7476e-01     6.9414      3.517      5.101    11.7278 0.0000e+00
      3.604      0.068     0.6639     14.928     45.888  33.354866     4.0500     0.1363     0.1704     0.1692 6.5227e-01     6.9714      3.534      5.126    11.6527 0.0000e+00
      3.621      0.068     0.8208     18.838     45.846  33.261253     4.0500     0.1363     0.2130     0.0846 6.7300e-01     7.0316      3.551      5.151    11.5719 0.0000e+00
      3.638      0.068     1.0248     23.534     45.819  33.185527     4.0500     0.1286     0.2130     0.0846 6.5440e-01     6.2350      3.568      5.175    11.4917 0.0000e+00
      3.656      0.067     1.2922     28.956     45.797  33.119374     4.0500     0.1286     0.2130     0.0846 6.4117e-01     6.1899      3.585      5.200    11.4142 0.0000e+00
      3.673      0.066     1.6375     34.958     45.767  33.055053     4.0500     0.1286     0.2130     0.0846 6.3700e-01     6.2500      3.602      5.224    11.3403 0.0000e+00
      3.690      0.066     2.0689     41.311     45.732  32.991254     3.9600     0.1439     0.1704     0.1269 6.4033e-01     6.3101      3.618      5.248    11.2719 0.0000e+00
      3.707      0.065     2.5874     47.724     45.697  32.930766     3.9600     0.1286     0.1704     0.1269 6.5696e-01     5.2129      3.635      5.272    11.2104 0.0000e+00
      3.723      0.063     3.1863     53.901     45.666  32.873300     3.9600     0.1439     0.1704     0.1269 6.6385e-01     5.2881      3.651      5.295    11.1562 0.0000e+00
      3.739      0.062     3.8498     59.606     45.645  32.823334     3.9600     0.1210     0.1704     0.1269 6.5213e-01     5.3632      3.666      5.318    11.1091 0.0000e+00
      3.755      0.061     4.5527     64.704     45.640  32.785365     3.8700     0.1325     0.1278     0.2115 6.6111e-01     5.2430      3.682      5.340    11.0674 0.0000e+00
      3.770      0.059     5.2632     69.158     45.645  32.757189     3.8700     0.1210     0.1278     0.2115 6.8778e-01     5.2430      3.697      5.362    11.0285 0.0000e+00
      3.785      0.058     5.9487     73.013     45.650  32.731291     3.8700     0.1401     0.1278     0.2115 6.9802e-01     5.3332      3.711      5.383    10.9903 0.0000e+00
      3.799      0.057     6.5833     76.370     45.645  32.702744     3.8700     0.1439     0.1278     0.2115 6.6732e-01     5.2881      3.725      5.404    10.9521 0.0000e+00
      3.813      0.056     7.1517     79.358     45.626  32.667894     3.7800     0.1019     0.1278     0.0846 7.0703e-01     5.3933      3.739      5.424    10.9149 0.0000e+00
      3.827      0.056     7.6495     82.095     45.588  32.621409     3.7800     0.1210     0.1278     0.0846 6.9787e-01     4.9875      3.753      5.444    10.8797 0.0000e+00
      3.841      0.055     8.0812     84.642     45.546  32.572677     3.7800     0.1172     0.1278     0.0846 6.9364e-01     5.0326      3.767      5.464    10.8476 0.0000e+00
      3.855      0.055     8.4577     86.992     45.524  32.538404     3.7800     0.1248     0.1278     0.0846 6.6443e-01     5.0776      3.781      5.484    10.8202 0.0000e+00
      3.869      0.055     8.7929     89.097     45.524  32.521333     3.7800     0.1172     0.1278     0.0846 6.5354e-01     5.1077      3.795      5.504    10.7970 0.0000e+00
      3.883      0.055     9.1002     90.906     45.532  32.512951     3.7800     0.1286     0.1278     0.0423 6.4158e-01     5.0626      3.809      5.524    10.7761 0.0000e+00
      3.898      0.054     9.3868     92.385     45.549  32.514983     3.7800     0.1210     0.1278     0.0423 6.3562e-01     5.0776      3.823      5.544    10.7554 0.0000e+00
      3.912      0.054     9.6518     93.524     45.583  32.531929     3.7800     0.1286     0.1278     0.0423 6.0175e-01     5.0476      3.836      5.564    10.7347 0.0000e+00
      3.925      0.053     9.8895     94.324     45.613  32.548507     3.7800     0.1325     0.1278     0.0423 6.0279e-01     5.0175      3.850      5.583    10.7159 0.0000e+00
      3.938      0.051    10.0937     94.798     45.618  32.549334     3.7800     0.1286     0.1278     0.1692 6.1711e-01     5.1378      3.863      5.602    10.7007 0.0000e+00
      3.951      0.050    10.2604     94.966     45.599  32.534630     3.7800     0.1439     0.1278     0.1692 5.5683e-01     5.0927      3.875      5.620    10.6893 0.0000e+00
      3.964      0.049    10.3885     94.842     45.576  32.516318     3.7800     0.1096     0.1278     0.1692 5.4926e-01     5.0326      3.888      5.638    10.6816 0.0000e+00
      3.976      0.049    10.4785     94.442     45.568  32.509316     3.7800     0.1439     0.1278     0.1692 4.7453e-01     5.0476      3.900      5.656    10.6767 0.0000e+00
      3.989      0.048    10.5318     93.786     45.575  32.511757     3.7800     0.1134     0.1278     0.1692 5.0113e-01     5.0175      3.912      5.673    10.6738 0.0000e+00
      4.001      0.048    10.5509     92.915     45.579  32.512411     3.7800     0.1363     0.1278     0.1692 4.5199e-01     5.0776      3.924      5.691    10.6720 0.0000e+00
      4.013      0.048    10.5375     91.889     45.581  32.511451     3.7800     0.1172     0.1278     0.1692 4.7453e-01     5.0476      3.936      5.708    10.6705 0.0000e+00
      4.025      0.048    10.4934     90.777     45.585  32.512583     3.7800     0.1286     0.1278     0.1692 4.3683e-01     5.0476      3.948      5.725    10.6685 0.0000e+00
      4.037      0.048    10.4212     89.640     45.592  32.516107     3.7800     0.1401     0.0852     0.2538 4.4189e-01     5.3632      3.960      5.743    10.6659 0.0000e+00
      4.049      0.049    10.3250     88.535     45.604  32.522963     3.7800     0.1401     0.0852     0.2538 4.3117e-01     5.2730      3.971      5.760    10.6632 0.0000e+00
      4.062      0.051    10.2116     87.504     45.614  32.527060     3.7800     0.1134     0.0852     0.2538 4.5475e-01     5.3332      3.983      5.777    10.6609 0.0000e+00
      4.074      0.053    10.0884     86.569     45.606  32.517607     3.7800     0.1248     0.0852     0.2538 4.5732e-01     5.3782      3.996      5.795    10.6592 0.0000e+00
      4.088      0.055     9.9623     85.730     45.581  32.496045     3.7800     0.1286     0.0852     0.2538 4.3664e-01     5.2881      4.009      5.814    10.6579 0.0000e+00
      4.103      0.058     9.8399     84.983     45.559  32.476425     3.7800     0.1439     0.1278     0.0846 4.0899e-01     5.4233      4.023      5.835    10.6560 0.0000e+00
      4.118      0.060     9.7262     84.329     45.553  32.469359     3.7800     0.1248     0.1278     0.0846 4.1346e-01     5.2730      4.038      5.857    10.6525 0.0000e+00
      4.133      0.063     9.6233     83.767     45.561  32.472961     3.7800     0.1554     0.1278     0.0846 4.0055e-01     5.3332      4.053      5.879    10.6481 0.0000e+00
      4.149      0.066     9.5310     83.295     45.569  32.476310     3.7800     0.1515     0.1278     0.0846 4.3949e-01     5.2430      4.069      5.902    10.6438 0.0000e+00
      4.167      0.070     9.4488     82.908     45.561  32.468418     3.7800     0.1096     0.1278     0.1692 3.8168e-01     5.0476      4.086      5.926    10.6400 0.0000e+00
      4.185      0.074     9.3767     82.594     45.539  32.451141     3.7800     0.1439     0.1278     0.1692 3.9219e-01     5.0476      4.104      5.952    10.6368 0.0000e+00
      4.204      0.078     9.3149     82.333     45.527  32.439674     3.7800     0.1363     0.1278     0.1692 3.4666e-01     5.0626      4.123      5.979    10.6341 0.0000e+00
      4.224      0.083     9.2629     82.112     45.540  32.446801     3.7800     0.1286     0.1278     0.1692 3.3781e-01     5.0175      4.143      6.008    10.6318 0.0000e+00
      4.246      0.087     9.2203     81.919     45.572  32.466502     3.7800     0.1172     0.1278     0.1692 3.7299e-01     5.3031      4.164      6.040    10.6297 0.0000e+00
      4.269      0.091     9.1858     81.739     45.594  32.480267     3.7800     0.1401     0.1278     0.1692 3.1395e-01     5.2730      4.187      6.073    10.6275 0.0000e+00
      4.294      0.094     9.1574     81.566     45.601  32.483845     3.7800     0.1286     0.1278     0.1692 3.0667e-01     5.2580      4.211      6.107    10.6248 0.0000e+00
      4.319      0.096     9.1335     81.410     45.605  32.486112     3.7800     0.1096     0.1278     0.1692 2.9800e-01     5.3031      4.236      6.143    10.6217 0.0000e+00
      4.345      0.097     9.1125     81.288     45.607  32.487672     3.7800     0.1935     0.1278     0.1692 3.0968e-01     5.2129      4.261      6.180    10.6188 0.0000e+00
      4.370      0.096     9.0930     81.213     45.601  32.484979     3.7800     0.1935     0.1278     0.1692 2.8938e-01     5.2730      4.285      6.216    10.6163 0.0000e+00
      4.394      0.094     9.0742     81.179     45.598  32.485238     3.7800     0.1897     0.1278     0.1692 2.7112e-01     5.3482      4.309      6.250    10.6146 0.0000e+00
      4.418      0.092     9.0570     81.175     45.604  32.492479     3.7800     0.1821     0.1278     0.1692 2.4785e-01     5.3031      4.333      6.284    10.6139 0.0000e+00
      4.441      0.089     9.0433     81.185     45.600  32.492789     3.7800     0.1210     0.1278     0.1692 2.7106e-01     5.3031      4.355      6.317    10.6146 0.0000e+00
      4.464      0.086     9.0345     81.187     45.582  32.482291     3.7800     0.1439     0.0852     0.1692 2.8286e-01     5.2730      4.377      6.349    10.6163 0.0000e+00
      4.485      0.084     9.0302     81.160     45.569  32.474028     3.7800     0.1363     0.0852     0.1692 2.6506e-01     5.2430      4.398      6.379    10.6189 0.0000e+00
      4.506      0.083     9.0291     81.093     45.569  32.473718     3.7800     0.1172     0.0852     0.1692 2.4068e-01     5.3031      4.419      6.409    10.6223 0.0000e+00
      4.527      0.081     9.0295     80.980     45.577  32.477318     3.7800     0.1210     0.0852     0.1692 2.3266e-01     5.2730      4.439      6.438    10.6257 0.0000e+00
      4.547      0.080     9.0292     80.824     45.581  32.477866     3.7800     0.1210     0.0852     0.0846 2.3276e-01     5.3031      4.459      6.467    10.6282 0.0000e+00
      4.567      0.080     9.0260     80.635     45.575  32.471548     3.7800     0.1134     0.0852     0.0846 2.4147e-01     5.3632      4.479      6.496    10.6292 0.0000e+00
      4.587      0.080     9.0186     80.429     45.569  32.464599     3.7800     0.1248     0.0852     0.0846 2.2855e-01     5.1979      4.499      6.525    10.6288 0.0000e+00
      4.608      0.080     9.0064     80.228     45.570  32.463088     3.7800     0.1439     0.0852     0.0846 2.0812e-01     5.3332      4.519      6.554    10.6270 0.0000e+00
      4.628      0.079     8.9896     80.052     45.571  32.462651     3.8700     0.1096     0.0852     0.1269 2.0807e-01     5.3782      4.539      6.583    10.6244 0.0000e+00
      4.648      0.079     8.9692     79.909     45.574  32.463172     3.8700     0.1019     0.0852     0.1269 2.4110e-01     5.2730      4.559      6.612    10.6215 0.0000e+00
      4.669      0.078     8.9468     79.799     45.577  32.464789     3.8700     0.1401     0.0852     0.1269 1.9931e-01     5.3332      4.578      6.640    10.6188 0.0000e+00
      4.689      0.077     8.9249     79.722     45.582  32.467934     3.8700     0.1325     0.0852     0.1269 1.9897e-01     5.3332      4.598      6.669    10.6166 0.0000e+00
      4.709      0.076     8.9057     79.675     45.589  32.473445     3.8700     0.1248     0.0852     0.1269 2.2816e-01     5.2279      4.618      6.697    10.6148 0.0000e+00
      4.728      0.075     8.8901     79.654     45.590  32.474870     3.7800     0.1325     0.1278     0.1269 2.3206e-01     5.3632      4.637      6.725    10.6133 0.0000e+00
      4.747      0.074     8.8781     79.649     45.585  32.472590     3.7800     0.1325     0.1278     0.1269 1.9355e-01     5.2881      4.655      6.752    10.6123 0.0000e+00
      4.765      0.074     8.8695     79.652     45.580  32.469958     3.7800     0.1363     0.1278     0.1269 1.9940e-01     5.3332      4.673      6.777    10.6121 0.0000e+00
      4.783      0.074     8.8642     79.656     45.573  32.466271     3.7800     0.1248     0.1278     0.1269 1.7483e-01     5.3031      4.691      6.803    10.6127 0.0000e+00
      4.802      0.074     8.8616     79.658     45.566  32.460547     3.8700     0.1477     0.0852     0.1269 1.7617e-01     5.3782      4.709      6.830    10.6138 0.0000e+00
      4.821      0.075     8.8608     79.660     45.560  32.455219     3.8700     0.1515     0.0852     0.1269 1.9879e-01     5.2881      4.728      6.857    10.6152 0.0000e+00
      4.841      0.077     8.8608     79.665     45.554  32.448867     3.8700     0.1210     0.0852     0.1269 1.8181e-01     5.2430      4.747      6.885    10.6165 0.0000e+00
      4.861      0.078     8.8611     79.677     45.543  32.439796     3.8700     0.1515     0.0852     0.1269 1.5855e-01     5.2580      4.767      6.914    10.6173 0.0000e+00
      4.881      0.078     8.8615     79.697     45.536  32.433509     3.7800     0.1134     0.0852     0.1269 1.8268e-01     5.2279      4.787      6.942    10.6170 0.0000e+00
      4.901      0.079     8.8620     79.723     45.530  32.428329     3.7800     0.1172     0.0852     0.1269 1.6780e-01     5.2430      4.806      6.971    10.6155 0.0000e+00
      4.921      0.079     8.8630     79.752     45.530  32.426836     3.7800     0.1019     0.0852     0.1269 1.6722e-01     5.3782      4.826      6.999    10.6134 0.0000e+00
      4.941      0.078     8.8647     79.778     45.545  32.436553     3.7800     0.1477     0.0852     0.1269 1.5927e-01     5.3332      4.846      7.028    10.6116 0.0000e+00
      4.961      0.078     8.8672     79.796     45.561  32.448188     3.8700     0.1439     0.0852     0.0846 1.6729e-01     5.2730      4.865      7.057    10.6103 0.0000e+00
      4.981      0.078     8.8704     79.800     45.561  32.449002     3.8700     0.1439     0.0852     0.0846 1.5507e-01     5.1979      4.885      7.085    10.6090 0.0000e+00
      5.001      0.078     8.8739     79.779     45.552  32.443173     3.8700     0.1325     0.0852     0.0846 1.7041e-01     5.3031      4.904      7.113    10.6078 0.0000e+00
      5.020      0.078     8.8768     79.729     45.549  32.441028     3.8700     0.1286     0.0852     0.0846 1.4890e-01     5.3332      4.923      7.141    10.6069 0.0000e+00
      5.040      0.078     8.8789     79.661     45.550  32.441995     3.8700     0.1210     0.0852     0.0846 1.6380e-01     5.3031      4.943      7.169    10.6069 0.0000e+00
      5.060      0.078     8.8793     79.593     45.551  32.442372     3.7800     0.1401     0.1278     0.1692 1.3192e-01     5.3031      4.962      7.197    10.6075 0.0000e+00
      5.080      0.079     8.8768     79.542     45.552  32.442259     3.7800     0.1363     0.1278     0.1692 1.2585e-01     5.2279      4.982      7.225    10.6082 0.0000e+00
      5.100      0.079     8.8712     79.514     45.563  32.449546     3.7800     0.1515     0.1278     0.1692 1.1628e-01     5.2730      5.001      7.254    10.6084 0.0000e+00
      5.120      0.079     8.8635     79.508     45.592  32.470139     3.7800     0.1248     0.1278     0.1692 1.4633e-01     5.3632      5.021      7.283    10.6084 0.0000e+00
      5.140      0.080     8.8560     79.528     45.620  32.489724     3.7800     0.1401     0.0852     0.1692 1.4418e-01     5.3031      5.041      7.312    10.6084 0.0000e+00
      5.161      0.080     8.8504     79.584     45.631  32.497684     3.7800     0.1325     0.0852     0.1692 1.2341e-01     5.2881      5.061      7.341    10.6079 0.0000e+00
      5.181      0.081     8.8474     79.666     45.629  32.496139     3.7800     0.1325     0.0852     0.1692 1.4078e-01     5.3332      5.081      7.370    10.6071 0.0000e+00
      5.202      0.082     8.8469     79.752     45.619  32.488639     3.7800     0.1363     0.0852     0.1692 1.2322e-01     5.3632      5.101      7.399    10.6064 0.0000e+00
      5.223      0.083     8.8493     79.825     45.604  32.477145     3.7800     0.1439     0.1278     0.1269 1.1770e-01     5.3031      5.122      7.428    10.6062 0.0000e+00
      5.244      0.085     8.8554     79.878     45.586  32.462552     3.7800     0.1363     0.1278     0.1269 1.2897e-01     5.2730      5.142      7.458    10.6063 0.0000e+00
      5.265      0.087     8.8646     79.904     45.580  32.456810     3.7800     0.1325     0.1278     0.1269 1.1617e-01     5.3181      5.164      7.489    10.6063 0.0000e+00
      5.288      0.088     8.8741     79.892     45.590  32.462350     3.7800     0.1210     0.1278     0.1269 1.2328e-01     5.3332      5.186      7.521    10.6059 0.0000e+00
      5.311      0.089     8.8825     79.834     45.600  32.468765     3.7800     0.1096     0.0852     0.1269 1.1997e-01     5.3632      5.209      7.554    10.6049 0.0000e+00
      5.335      0.089     8.8888     79.732     45.608  32.473806     3.7800     0.1325     0.0852     0.1269 1.1612e-01     5.2881      5.232      7.588    10.6033 0.0000e+00
      5.358      0.089     8.8921     79.607     45.603  32.470898     3.7800     0.1439     0.0852     0.1269 1.1628e-01     5.2730      5.255      7.621    10.6015 0.0000e+00
      5.381      0.087     8.8910     79.479     45.581  32.455303     3.7800     0.1286     0.0852     0.1269 1.1612e-01     5.3181      5.277      7.653    10.6001 0.0000e+00
      5.403      0.085     8.8847     79.363     45.556  32.438704     3.7800     0.1363     0.0852     0.1269 1.1612e-01     5.3181      5.298      7.684    10.5991 0.0000e+00
      5.424      0.084     8.8734     79.268     45.546  32.432519     3.7800     0.1782     0.1278     0.0846 1.1623e-01     5.2881      5.319      7.714    10.5987 0.0000e+00
      5.445      0.082     8.8595     79.196     45.549  32.435098     3.7800     0.1935     0.1278     0.0846 1.1595e-01     5.3332      5.339      7.744    10.5989 0.0000e+00
      5.465      0.081     8.8452     79.144     45.554  32.439208     3.7800     0.1935     0.1278     0.0846 1.1620e-01     5.4233      5.360      7.774    10.5996 0.0000e+00
      5.486      0.079     8.8321     79.106     45.553  32.438022     3.7800     0.1973     0.1278     0.0846 1.1628e-01     5.2430      5.380      7.803    10.6005 0.0000e+00
      5.506      0.078     8.8213     79.074     45.543  32.431225     3.7800     0.1286     0.1278     0.2115 1.1617e-01     5.6338      5.400      7.832    10.6015 0.0000e+00
      5.526      0.076     8.8131     79.047     45.535  32.424926     3.7800     0.1401     0.1278     0.2115 1.1623e-01     5.4384      5.419      7.859    10.6022 0.0000e+00
      5.545      0.073     8.8073     79.027     45.531  32.421405     3.7800     0.1286     0.1278     0.2115 1.1607e-01     5.6037      5.437      7.886    10.6026 0.0000e+00
      5.563      0.070     8.8030     79.016     45.534  32.423683     3.7800     0.1019     0.1278     0.2115 1.1620e-01     5.5436      5.455      7.912    10.6026 0.0000e+00
      5.581      0.067     8.7996     79.022     45.547  32.432369     3.7800     0.2126     0.1278     0.1269 1.1623e-01     7.5426      5.473      7.938    10.6024 0.0000e+00
      5.598      0.062     8.7966     79.049     45.554  32.437897     3.7800     0.1668     0.1278     0.1269 1.1612e-01     7.5125      5.490      7.963    10.6021 0.0000e+00
      5.614      0.057     8.7944     79.095     45.547  32.433820     3.7800     0.1782     0.1278     0.1269 1.1628e-01     7.4674      5.506      7.985    10.6016 0.0000e+00
      5.628      0.052     8.7933     79.154     45.542  32.430932     3.7800     0.2011     0.1278     0.1269 1.1600e-01     7.4374      5.519      8.005    10.6012 0.0000e+00
      5.640      0.047     8.7939     79.214     45.554  32.440346     3.7800     0.2584     0.1278     0.1269 1.1600e-01     9.3011      5.531      8.022    10.6011 0.0000e+00
      5.651      0.043     8.7968     79.261     45.570  32.452688     3.7800     0.2622     0.1278     0.1269 1.1610e-01     9.3161      5.542      8.038    10.6014 0.0000e+00
      5.660      0.039     8.8019     79.288     45.577  32.459370     3.7800     0.2851     0.1278     0.1269 1.1620e-01     9.3462      5.551      8.051    10.6020 0.0000e+00
      5.670      0.036     8.8083     79.292     45.584  32.466134     3.7800     0.2355     0.1278     0.1269 1.1612e-01     9.3612      5.560      8.064    10.6028 0.0000e+00
      5.678      0.033     8.8147     79.278     45.593  32.474783     3.7800     0.2202     0.1278     0.1269 1.1612e-01    11.7510      5.569      8.077    10.6038 0.0000e+00
      5.687      0.031     8.8197     79.255     45.603  32.483664     3.7800     0.2622     0.1278     0.0423 1.1623e-01    11.7360      5.577      8.088    10.6052 0.0000e+00
      5.694      0.029     8.8224     79.232     45.617  32.495144     3.7800     0.2584     0.1278     0.0423 1.1617e-01    11.7210      5.584      8.100    10.6070 0.0000e+00
      5.702      0.027     8.8223     79.220     45.633  32.508325     3.7800     0.2431     0.1278     0.0423 1.1625e-01    11.7210      5.592      8.110    10.6092 0.0000e+00
      5.708      0.024     8.8203     79.225     45.642  32.518800     3.7800     0.2774     0.1278     0.0423 1.1605e-01    12.8933      5.598      8.119    10.6113 0.0000e+00
      5.714      0.022     8.8174     79.252     45.637  32.521441     3.7800     0.2507     0.1278     0.0846 1.1612e-01    12.9685      5.603      8.127    10.6132 0.0000e+00
      5.719      0.020     8.8145     79.301     45.619  32.516954     3.7800     0.2393     0.1278     0.0846 1.1610e-01    12.9534      5.608      8.134    10.6150 0.0000e+00
      5.723      0.019     8.8126     79.373     45.605  32.516023     3.7800     0.2660     0.1278     0.0846 1.1605e-01    12.9384      5.613      8.141    10.6172 0.0000e+00
      5.728      0.018     8.8124     79.455     45.602  32.522362     3.7800     0.1859     0.1278     0.0846 1.1628e-01     8.6248      5.617      8.147    10.6212 0.0000e+00
      5.732      0.018     8.8140     79.537     45.598  32.525778     3.7800     0.1935     0.1278     0.0846 1.1612e-01     8.6698      5.622      8.154    10.6278 0.0000e+00
      5.737      0.018     8.8177     79.612     45.584  32.519264     3.7800     0.1935     0.1278     0.0846 1.1620e-01     8.6248      5.626      8.160    10.6368 0.0000e+00
      5.741      0.018     8.8236     79.680     45.563  32.505041     3.7800     0.1859     0.1278     0.0846 1.1615e-01     8.7300      5.631      8.166    10.6468 0.0000e+00
      5.746      0.019     8.8308     79.741     45.548  32.491200     3.7800     0.1401     0.1278     0.0846 1.1623e-01     6.7159      5.635      8.173    10.6560 0.0000e+00
      5.751      0.019     8.8384     79.794     45.542  32.481969     3.8700     0.1592     0.1278     0.2115 1.1628e-01     6.7009      5.640      8.179    10.6633 0.0000e+00
      5.756      0.020     8.8459     79.829     45.540  32.474887     3.8700     0.1248     0.1278     0.2115 1.1623e-01     6.7310      5.644      8.186    10.6674 0.0000e+00
      5.761      0.021     8.8534     79.836     45.545  32.472026     3.8700     0.1439     0.1278     0.2115 1.1623e-01     6.7610      5.649      8.194    10.6678 0.0000e+00
      5.766      0.021     8.8609     79.813     45.559  32.476582     3.8700     0.1897     0.1278     0.2115 1.1595e-01     5.9193      5.655      8.201    10.6648 0.0000e+00
      5.772      0.022     8.8679     79.769     45.578  32.485811     3.8700     0.2088     0.1278     0.2115 1.1612e-01     5.6939      5.660      8.209    10.6593 0.0000e+00
      5.778      0.022     8.8732     79.712     45.596  32.494253     3.7800     0.2011     0.1704     0.0846 1.1600e-01     5.8141      5.666      8.218    10.6525 0.0000e+00
      5.784      0.023     8.8753     79.645     45.608  32.500197     3.7800     0.1706     0.1704     0.0846 1.1607e-01     5.8442      5.672      8.226    10.6459 0.0000e+00
      5.789      0.023     8.8739     79.569     45.617  32.505229     3.7800     0.1592     0.1704     0.0846 1.1633e-01     5.6187      5.677      8.234    10.6402 0.0000e+00
      5.795      0.023     8.8700     79.488     45.627  32.510691     3.7800     0.1439     0.1704     0.0846 1.1600e-01     5.6338      5.683      8.243    10.6350 0.0000e+00
      5.801      0.023     8.8647     79.414     45.638  32.518038     3.6900     0.1515     0.1278     1.6920 1.1612e-01     5.5586      5.689      8.251    10.6305 0.0000e+00
      5.807      0.023     8.8579     79.354     45.643  32.521309     3.6900     0.1286     0.1278     1.6920 1.1617e-01     5.7390      5.694      8.259    10.6273 0.0000e+00
      5.812      0.023     8.8497     79.307     45.630  32.513456     3.6900     0.1172     0.1278     1.6920 1.1628e-01     5.2881      5.700      8.267    10.6254 0.0000e+00
      5.818      0.024     8.8411     79.266     45.615  32.504265     3.6900     0.1019     0.1278     1.6920 1.1620e-01     5.3482      5.705      8.275    10.6241 0.0000e+00
      5.824      0.025     8.8331     79.227     45.612  32.503168     3.3300     0.1286     0.1278     1.3536 1.1617e-01     5.4083      5.711      8.283    10.6231 0.0000e+00
      5.830      0.026     8.8263     79.191     45.610  32.501952     3.3300     0.1210     0.1278     1.3536 1.1630e-01     5.3181      5.717      8.293    10.6232 0.0000e+00
      5.837      0.026     8.8207     79.161     45.597  32.492370     3.3300     0.1363     0.1278     1.3536 1.1617e-01     5.3031      5.724      8.302    10.6247 0.0000e+00
      5.845      0.026     8.8159     79.135     45.582  32.479788     3.3300     0.1286     0.1278     1.3536 1.1615e-01     5.3031      5.731      8.313    10.6264 0.0000e+00
      5.852      0.025     8.8113     79.110     45.578  32.472733     3.2400     0.1248     0.3408     3.8916 1.1600e-01     5.3632      5.739      8.323    10.6275 0.0000e+00
      5.859      0.022     8.8071     79.084     45.586  32.473285     3.2400     0.1401     0.3408     3.8916 1.1623e-01     5.2730      5.745      8.333    10.6281 0.0000e+00
      5.864      0.019     8.8039     79.052     45.599  32.477629     3.2400     0.1248     0.3408     3.8916 1.1617e-01     5.2580      5.751      8.341    10.6277 0.0000e+00
      5.869      0.016     8.8016     79.012     45.606  32.479004     3.2400     0.1248     0.3408     3.8916 1.1605e-01     5.2430      5.755      8.347    10.6252 0.0000e+00
      5.872      0.013     8.7998     78.956     45.603  32.473814     3.2400     0.1515     0.3408     3.8916 1.1617e-01     5.4233      5.758      8.352    10.6205 0.0000e+00
      5.875      0.010     8.7979     78.877     45.593  32.464636     3.6900     0.1554     0.2130     2.8341 1.1612e-01     5.2881      5.761      8.356    10.6151 0.0000e+00
      5.877      0.008     8.7955     78.769     45.583  32.456943     3.6900     0.1401     0.2130     2.8341 1.1617e-01     5.3031      5.763      8.359    10.6101 0.0000e+00
      5.878      0.007     8.7918     78.623     45.582  32.456605     3.6900     0.1134     0.2130     2.8341 1.1617e-01     5.3782      5.764      8.361    10.6059 0.0000e+00
      5.880      0.005     8.7863     78.442     45.590  32.463533     3.6900     0.1363     0.2130     2.8341 1.1605e-01     5.3482      5.766      8.363    10.6027 0.0000e+00
      5.881      0.004     8.7780     78.243     45.598  32.471652     2.7900     0.1210     0.3408     2.7918 1.1617e-01     5.2129      5.767      8.364    10.6004 0.0000e+00
      5.882      0.003     8.7661     78.052     45.605  32.479167     2.7900     0.1286     0.3408     2.7918 1.1612e-01     5.2730      5.768      8.365    10.5994 0.0000e+00
      5.882      0.002     8.7498     77.893     45.608  32.484123     2.7900     0.1172     0.3408     2.7918 1.1625e-01     5.3031      5.768      8.366    10.5997 0.0000e+00
      5.883      0.002     8.7293     77.788     45.606  32.483878     2.7900     0.1019     0.3408     2.7918 1.1612e-01     5.4384      5.769      8.367    10.6015 0.0000e+00
      5.883      0.001     8.7067     77.750     45.602  32.482330     3.3300     0.1286     0.5112     3.4263 1.1607e-01     5.2730      5.769      8.367    10.6043 0.0000e+00
      5.883      0.001     8.6848     77.787     45.596  32.479066     3.3300     0.1325     0.5112     3.4263 1.1623e-01     5.3332      5.769      8.368    10.6072 0.0000e+00
      5.884      0.001     8.6666     77.900     45.588  32.473214     3.3300     0.1554     0.5112     3.4263 1.1620e-01     5.3031      5.770      8.368    10.6097 0.0000e+00
      5.884      0.001     8.6546     78.077     45.585  32.471136     3.3300     0.1286     0.5112     3.4263 1.1617e-01     5.3181      5.770      8.369    10.6114 0.0000e+00
      5.884      0.000     8.6501     78.293     45.586  32.472278     3.3300     0.1210     0.5112     3.4263 1.1615e-01     5.3933      5.770      8.369    10.6125 0.0000e+00
      5.884      0.000     8.6541     78.524     45.592  32.476943     2.7000     0.1286     0.5112     4.2723 1.1595e-01     5.2730      5.770      8.369    10.6132 0.0000e+00
      5.884      0.000     8.6666     78.769     45.594  32.478455     2.7000     0.1439     0.5112     4.2723 1.1620e-01     5.2430      5.770      8.369    10.6136 0.0000e+00
      5.884      0.000     8.6863     79.023     45.581  32.469296     2.7000     0.1515     0.5112     4.2723 1.1602e-01     5.3031      5.770      8.369    10.6138 0.0000e+00
      5.884      0.000     8.7102     79.274     45.578  32.466827     2.7000     0.1363     0.5112     4.2723 1.1605e-01     5.3332      5.770      8.369    10.6139 0.0000e+00
      5.884      0.000     8.7360     79.503     45.589  32.474349     2.4300     0.1973     0.3408     2.7918 1.1623e-01     5.2279      5.770      8.368    10.6141 0.0000e+00
      5.884     -0.001     8.7631     79.695     45.590  32.474065     2.4300     0.1782     0.3408     2.7918 1.1617e-01     5.2430      5.770      8.368    10.6142 0.0000e+00
      5.883     -0.001     8.7914     79.844     45.579  32.465899     2.4300     0.2011     0.3408     2.7918 1.1628e-01     5.3332      5.769      8.368    10.6141 0.0000e+00
      5.883     -0.001     8.8194     79.946     45.571  32.459557     2.4300     0.1859     0.3408     2.7918 1.1602e-01     5.3332      5.769      8.368    10.6139 0.0000e+00
      5.883     -0.001     8.8449     80.001     45.574  32.461268     2.2500     0.1859     0.3834     2.0304 1.1633e-01     5.3332      5.769      8.367    10.6135 0.0000e+00
      5.883     -0.001     8.8664     80.008     45.595  32.475448     2.2500     0.1782     0.3834     2.0304 1.1633e-01     5.3031      5.769      8.367    10.6130 0.0000e+00
      5.882     -0.002     8.8831     79.976     45.622  32.493997     2.2500     0.1897     0.3834     2.0304 1.1612e-01     5.3181      5.768      8.367    10.6124 0.0000e+00
      5.882     -0.002     8.8946     79.922     45.634  32.502059     2.2500     0.2011     0.3834     2.0304 1.1610e-01     5.3031      5.768      8.366    10.6118 0.0000e+00
      5.881     -0.003     8.9009     79.861     45.628  32.497823     2.2500     0.2088     0.3408     2.6649 1.1625e-01     5.3632      5.767      8.365    10.6111 0.0000e+00
      5.880     -0.004     8.9019     79.800     45.620  32.492041     2.2500     0.1859     0.3408     2.6649 1.1610e-01     5.3482      5.766      8.364    10.6103 0.0000e+00
      5.879     -0.005     8.8984     79.740     45.613  32.487131     2.2500     0.1706     0.3408     2.6649 1.1605e-01     5.2881      5.765      8.362    10.6096 0.0000e+00
      5.878     -0.007     8.8925     79.682     45.594  32.473864     2.2500     0.1935     0.3408     2.6649 1.1617e-01     5.2881      5.764      8.360    10.6091 0.0000e+00
      5.876     -0.009     8.8857     79.626     45.570  32.456623     2.2500     0.1859     0.3408     2.6649 1.1617e-01     5.2881      5.762      8.358    10.6090 0.0000e+00
      5.874     -0.011     8.8788     79.568     45.557  32.446651     3.0600     0.1859     0.2130     2.2842 1.1630e-01     5.3181      5.760      8.355    10.6090 0.0000e+00
      5.871     -0.014     8.8722     79.509     45.561  32.449211     3.0600     0.1973     0.2130     2.2842 1.1610e-01     5.2129      5.757      8.350    10.6091 0.0000e+00
      5.867     -0.016     8.8658     79.461     45.577  32.461026     3.0600     0.1935     0.2130     2.2842 1.1617e-01     5.3181      5.754      8.345    10.6090 0.0000e+00
      5.863     -0.019     8.8596     79.431     45.584  32.465442     3.0600     0.1859     0.2130     2.2842 1.1615e-01     5.2430      5.749      8.339    10.6089 0.0000e+00
      5.857     -0.022     8.8531     79.429     45.582  32.463638     3.2400     0.2164     0.2130     2.3265 1.1628e-01     5.2430      5.744      8.331    10.6088 0.0000e+00
      5.851     -0.024     8.8466     79.459     45.598  32.474936     3.2400     0.1859     0.2130     2.3265 1.1617e-01     5.3332      5.738      8.322    10.6087 0.0000e+00
      5.845     -0.027     8.8413     79.517     45.631  32.498386     3.2400     0.1706     0.2130     2.3265 1.1620e-01     5.3332      5.732      8.313    10.6085 0.0000e+00
      5.838     -0.029     8.8381     79.596     45.646  32.508559     3.2400     0.1286     0.2130     2.3265 1.1612e-01     5.3031      5.725      8.303    10.6082 0.0000e+00
      5.830     -0.032     8.8379     79.687     45.634  32.500247     3.8700     0.1401     0.1278     3.6378 1.1623e-01     5.3332      5.717      8.292    10.6078 0.0000e+00
      5.821     -0.035     8.8412     79.778     45.621  32.491035     3.8700     0.1363     0.1278     3.6378 1.1615e-01     5.3181      5.709      8.280    10.6075 0.0000e+00
      5.812     -0.038     8.8477     79.854     45.609  32.482427     3.8700     0.1363     0.1278     3.6378 1.1615e-01     5.2129      5.700      8.267    10.6073 0.0000e+00
      5.802     -0.041     8.8565     79.907     45.600  32.476089     3.8700     0.1363     0.1278     3.6378 1.1605e-01     5.7540      5.690      8.253    10.6071 0.0000e+00
      5.792     -0.045     8.8667     79.944     45.597  32.474291     3.8700     0.1096     0.0852     2.1996 1.1615e-01     5.7390      5.680      8.238    10.6071 0.0000e+00
      5.780     -0.049     8.8769     79.975     45.593  32.472592     3.8700     0.1096     0.0852     2.1996 1.1612e-01     5.7690      5.668      8.222    10.6072 0.0000e+00
      5.768     -0.055     8.8853     79.994     45.593  32.474502     3.8700     0.1210     0.0852     2.1996 1.1607e-01     5.7690      5.656      8.204    10.6074 0.0000e+00
      5.754     -0.062     8.8911     79.997     45.603  32.484488     3.8700     0.2278     0.0852     2.1996 1.1623e-01     6.9113      5.642      8.184    10.6076 0.0000e+00
      5.738     -0.071     8.8952     79.972     45.620  32.501255     3.8700     0.2126     0.0852     2.1996 1.1605e-01     6.9564      5.627      8.161    10.6080 0.0000e+00
      5.720     -0.082     8.8983     79.922     45.635  32.517391     3.8700     0.2164     0.2556     2.5803 1.1623e-01     6.9264      5.609      8.136    10.6090 0.0000e+00
      5.699     -0.097     8.9001     79.865     45.644  32.529278     3.8700     0.1706     0.2556     2.5803 1.1617e-01     6.8963      5.589      8.106    10.6108 0.0000e+00
      5.674     -0.113     8.8997     79.807     45.646  32.536127     3.8700     0.1630     0.2556     2.5803 1.1612e-01     8.1438      5.565      8.071    10.6140 0.0000e+00
      5.644     -0.130     8.8960     79.737     45.641  32.535803     3.8700     0.1935     0.2556     2.5803 1.1595e-01     8.2490      5.535      8.028    10.6188 0.0000e+00
      5.608     -0.147     8.8891     79.654     45.640  32.536142     1.6200     0.2011     0.5964     1.3113 1.1607e-01     8.1438      5.500      7.977    10.6249 0.0000e+00
      5.566     -0.162     8.8815     79.561     45.643  32.537233     1.6200     0.2011     0.5964     1.3113 1.1617e-01     8.1588      5.459      7.917    10.6314 0.0000e+00
      5.520     -0.174     8.8738     79.447     45.639  32.531448     1.6200     0.3728     0.5964     1.3113 1.1610e-01    52.5879      5.414      7.852    10.6372 0.0000e+00
      5.473     -0.184     8.8652     79.313     45.628  32.521202     1.6200     0.3804     0.5964     1.3113 1.1612e-01    52.5879      5.367      7.784    10.6410 0.0000e+00
      5.425     -0.191     8.8559     79.151     45.613  32.507726     3.3300     0.3919     0.8946     1.1421 1.1615e-01    52.6931      5.320      7.716    10.6422 0.0000e+00
      5.376     -0.195     8.8457     78.958     45.599  32.495345     3.3300     0.3652     0.8946     1.1421 1.1612e-01    52.6180      5.272      7.646    10.6407 0.0000e+00
      5.325     -0.198     8.8337     78.758     45.593  32.488679     3.3300     0.3003     0.8946     1.1421 1.1605e-01    54.8274      5.222      7.574    10.6377 0.0000e+00
      5.273     -0.199     8.8194     78.582     45.592  32.485951     3.3300     0.3346     0.8946     1.1421 1.1620e-01    54.9176      5.171      7.500    10.6347 0.0000e+00
      5.221     -0.199     8.8019     78.454     45.590  32.482474     3.8700     0.3499     0.5538     0.5922 1.1612e-01    54.8124      5.120      7.425    10.6319 0.0000e+00
      5.169     -0.195     8.7811     78.392     45.580  32.473358     3.8700     0.3156     0.5538     0.5922 1.1688e-01    54.8124      5.069      7.352    10.6293 0.0000e+00
      5.119     -0.189     8.7593     78.408     45.576  32.468056     3.8700     0.3232     0.5538     0.5922 1.1612e-01    44.9977      5.019      7.280    10.6268 0.0000e+00
      5.070     -0.179     8.7402     78.498     45.586  32.473073     3.8700     0.3041     0.5538     0.5922 1.1605e-01    45.0578      4.972      7.211    10.6245 0.0000e+00
      5.024     -0.168     8.7265     78.648     45.596  32.477867     3.8700     0.3003     0.5538     0.5922 1.1617e-01    45.0728      4.927      7.146    10.6221 0.0000e+00
      4.982     -0.157     8.7201     78.837     45.596  32.475794     3.9600     0.3118     0.2556     0.3384 1.4216e-01    44.9225      4.886      7.087    10.6197 0.0000e+00
      4.946     -0.149     8.7224     79.038     45.590  32.470261     3.9600     0.1782     0.2556     0.3384 1.5521e-01    13.8402      4.850      7.034    10.6172 0.0000e+00
      4.913     -0.146     8.7329     79.229     45.587  32.467716     3.9600     0.1973     0.2556     0.3384 1.3209e-01    13.8552      4.818      6.987    10.6147 0.0000e+00
      4.880     -0.149     8.7501     79.400     45.586  32.467478     3.9600     0.1859     0.2556     0.3384 1.3784e-01    13.9454      4.786      6.942    10.6122 0.0000e+00
      4.846     -0.159     8.7715     79.545     45.581  32.465525     3.8700     0.1859     0.1704     0.2115 1.1617e-01    13.7801      4.752      6.893    10.6100 0.0000e+00
      4.806     -0.173     8.7941     79.662     45.578  32.465296     3.8700     0.2164     0.1704     0.2115 1.2333e-01    11.0446      4.713      6.836    10.6086 0.0000e+00
      4.759     -0.190     8.8155     79.754     45.584  32.470691     3.8700     0.1897     0.1704     0.2115 1.2333e-01    11.0596      4.667      6.769    10.6081 0.0000e+00
      4.706     -0.207     8.8344     79.828     45.595  32.479187     3.8700     0.1859     0.1704     0.2115 1.8791e-01    11.0146      4.615      6.693    10.6088 0.0000e+00
      4.649     -0.224     8.8502     79.889     45.603  32.485131     3.8700     0.1859     0.1278     0.1692 1.6401e-01    10.9695      4.560      6.613    10.6104 0.0000e+00
      4.591     -0.240     8.8628     79.945     45.604  32.486145     3.8700     0.1782     0.1278     0.1692 1.7937e-01    11.2400      4.502      6.530    10.6124 0.0000e+00
      4.529     -0.254     8.8728     79.991     45.599  32.482500     3.8700     0.1782     0.1278     0.1692 1.9600e-01    11.2701      4.441      6.441    10.6139 0.0000e+00
      4.462     -0.266     8.8808     80.024     45.591  32.477184     3.8700     0.1744     0.1278     0.1692 2.0663e-01    11.2250      4.376      6.347    10.6147 0.0000e+00
      4.391     -0.278     8.8876     80.041     45.585  32.472742     3.8700     0.1973     0.1278     0.1692 2.7768e-01    11.1949      4.307      6.246    10.6150 0.0000e+00
      4.317     -0.288     8.8937     80.034     45.578  32.467988     3.8700     0.1859     0.1704     0.1269 3.4688e-01     8.6398      4.234      6.140    10.6150 0.0000e+00
      4.241     -0.297     8.8989     79.997     45.575  32.465616     3.8700     0.2126     0.1704     0.1269 4.1508e-01     8.6097      4.160      6.033    10.6150 0.0000e+00
      4.165     -0.302     8.9026     79.938     45.575  32.464994     3.8700     0.2088     0.1704     0.1269 3.8762e-01     8.5496      4.084      5.924    10.6151 0.0000e+00
      4.086     -0.306     8.9044     79.866     45.566  32.458033     3.8700     0.1859     0.1704     0.1269 4.7422e-01     8.6398      4.007      5.812    10.6152 0.0000e+00
      4.007     -0.307     8.9036     79.799     45.556  32.450799     3.8700     0.1248     0.1704     0.1692 5.6684e-01     8.1588      3.930      5.699    10.6151 0.0000e+00
      3.927     -0.306     8.8997     79.748     45.563  32.457205     3.8700     0.1515     0.1704     0.1692 6.2087e-01     8.2189      3.851      5.586    10.6148 0.0000e+00
      3.848     -0.304     8.8932     79.719     45.580  32.471039     3.8700     0.1592     0.1704     0.1692 6.8629e-01     8.1739      3.774      5.474    10.6142 0.0000e+00
      3.771     -0.302     8.8853     79.718     45.588  32.480146     3.8700     0.1477     0.1704     0.1692 7.3189e-01     8.1889      3.698      5.364    10.6138 0.0000e+00
      3.696     -0.300     8.8777     79.739     45.590  32.486956     3.8700     0.1821     0.1278     0.1692 8.0514e-01     7.9935      3.624      5.257    10.6141 0.0000e+00
      3.621     -0.299     8.8718     79.759     45.603  32.505167     3.8700     0.2088     0.1278     0.1692 8.9230e-01     7.9634      3.551      5.150    10.6153 0.0000e+00
      3.545     -0.299     8.8681     79.759     45.643  32.547556     3.8700     0.1782     0.1278     0.1692 9.4807e-01     7.9634      3.477      5.043    10.6175 0.0000e+00
      3.469     -0.300     8.8673     79.717     45.704  32.613545     3.8700     0.1859     0.1278     0.1692 1.0295e+00     7.9183      3.402      4.934    10.6212 0.0000e+00
      3.392     -0.302     8.8685     79.606     45.770  32.696969     3.8700     0.1935     0.1278     0.2115 1.0652e+00     7.8883      3.327      4.825    10.6271 0.0000e+00
      3.315     -0.304     8.8690     79.390     45.818  32.786408     3.8700     0.2088     0.1278     0.2115 1.1476e+00     7.9935      3.251      4.716    10.6365 0.0000e+00
      3.238     -0.306     8.8661     79.017     45.818  32.858188     3.8700     0.1782     0.1278     0.2115 1.2383e+00     7.8733      3.175      4.605    10.6517 0.0000e+00
      3.159     -0.307     8.8567     78.379     45.758  32.901749     3.8700     0.1859     0.1278     0.2115 1.4262e+00     7.8282      3.098      4.493    10.6766 0.0000e+00
      3.079     -0.309     8.8367     77.292     45.645  32.924748     3.8700     0.1325     0.1278     0.2115 1.5550e+00     7.4674      3.020      4.380    10.7170 0.0000e+00
      3.000     -0.311     8.8013     75.510     45.469  32.929361     3.9600     0.1515     0.1704     0.2115 1.6248e+00     7.4674      2.942      4.267    10.7775 0.0000e+00
      2.921     -0.314     8.7451     72.824     45.209  32.912858     3.9600     0.1325     0.1704     0.2115 1.6977e+00     7.4223      2.865      4.156    10.8573 0.0000e+00
      2.843     -0.318     8.6575     69.158     44.865  32.878766     3.9600     0.1286     0.1704     0.2115 1.7376e+00     7.3773      2.789      4.045    10.9534 0.0000e+00
      2.763     -0.323     8.5177     64.567     44.478  32.841767     3.9600     0.2584     0.1704     0.2115 1.8827e+00     5.5586      2.710      3.930    11.0696 0.0000e+00
      2.680     -0.328     8.2975     59.130     44.084  32.807846     4.0500     0.2622     0.1704     0.1269 2.1249e+00     5.6037      2.628      3.812    11.2173 0.0000e+00
      2.594     -0.334     7.9725     52.899     43.689  32.764008     4.0500     0.2469     0.1704     0.1269 2.2479e+00     5.4835      2.544      3.690    11.4108 0.0000e+00
      2.507     -0.341     7.5354     45.969     43.256  32.694609     4.0500     0.2851     0.1704     0.1269 2.3869e+00     5.6338      2.458      3.566    11.6548 0.0000e+00
      2.420     -0.346     6.9972     38.575     42.754  32.610850     4.0500     0.3423     0.1704     0.1269 2.5086e+00     3.4093      2.373      3.442    11.9350 0.0000e+00
      2.331     -0.352     6.3726     31.082     42.232  32.553775     3.9600     0.3003     0.1278     0.2538 2.6201e+00     3.4694      2.286      3.316    12.2285 0.0000e+00
      2.241     -0.357     5.6720     23.844     41.777  32.545804     3.9600     0.3156     0.1278     0.2538 2.8823e+00     3.3642      2.198      3.188    12.5175 0.0000e+00
      2.149     -0.362     4.9055     17.115     41.443  32.588791     3.9600     0.3041     0.1278     0.2538 3.1461e+00     3.3342      2.108      3.057    12.8154 0.0000e+00
      2.056     -0.367     4.0951     11.117     41.231  32.690247     3.9600     0.3079     0.1278     0.2538 3.3045e+00     2.2971      2.016      2.925    13.1638 0.0000e+00
      1.962     -0.372     3.2799      6.093     41.097  32.843569     3.9600     0.3079     0.0852     0.2115 3.5842e+00     2.2370      1.924      2.791    13.5679 0.0000e+00
      1.866     -0.375     2.5014      2.235     40.969  33.000537     3.9600     0.3118     0.0852     0.2115 4.0322e+00     2.3572      1.830      2.655    13.9744 0.0000e+00
      1.769     -0.377     1.7880     -0.409     40.830  33.123810     3.9600     0.3003     0.0852     0.2115 4.6258e+00     2.4023      1.735      2.517    14.3350 0.0000e+00
      1.672     -0.378     1.1602     -1.886     40.750  33.256174     3.9600     0.3881     0.0852     0.2115 5.2392e+00     1.4854      1.640      2.378    14.6548 0.0000e+00
      1.575     -0.377     0.6394     -2.222     40.768  33.458673     3.9600     0.3728     0.0852     0.2115 5.8114e+00     1.5606      1.544      2.240    14.9675 0.0000e+00
      1.478     -0.375     0.2423     -1.411     40.790  33.698171     4.0500     0.3842     0.0852     0.2538 6.4307e+00     1.6207      1.450      2.102    15.2813 0.0000e+00
      1.383     -0.371    -0.0288      0.473     40.702  33.882097     4.0500     0.3728     0.0852     0.2538 7.5986e+00     1.4854      1.356      1.966    15.5670 0.0000e+00
      1.288     -0.365    -0.1811      3.244     40.524  33.982276     4.0500     0.6513     0.0852     0.2538 9.1521e+00     2.2219      1.263      1.832    15.8074 0.0000e+00
      1.195     -0.360    -0.2188      6.698     40.363  34.055144     4.0500     0.6093     0.0852     0.2538 1.0781e+01     2.2820      1.172      1.699    16.0371 0.0000e+00
      1.104     -0.354    -0.1428     10.702     40.261  34.147864     4.3200     0.6055     0.0426     0.5076 1.1743e+01     2.2069      1.082      1.570    16.3093 0.0000e+00
      1.015     -0.347     0.0380     15.160     40.155  34.237633     4.3200     0.6093     0.0426     0.5076 1.2904e+01     2.2370      0.996      1.444    16.6251 0.0000e+00
      0.928     -0.341     0.3035     19.936     40.005  34.294926     4.3200     1.2349     0.0426     0.5076 1.6172e+01     3.8752      0.910      1.320    16.9319 0.0000e+00
      0.842     -0.334     0.6328     24.862     39.842  34.323148     4.3200     1.2235     0.0426     0.5076 2.2249e+01     3.8452      0.825      1.197    17.1890 0.0000e+00
      0.756     -0.328     1.0122     29.822     39.704  34.343696     4.6800     1.2044     0.0852     1.1421 2.7794e+01     3.8452      0.742      1.076    17.4102 0.0000e+00
      0.673     -0.320     1.4317     34.787     39.612  34.389777     4.6800     1.2197     0.0852     1.1421 3.3775e+01     3.9053      0.660      0.957    17.6338 0.0000e+00
      0.592     -0.311     1.8779     39.781     39.546  34.469722     4.6800     1.8224     0.0852     1.1421 4.8604e+01     7.3773      0.581      0.842    17.8646 0.0000e+00
      0.513     -0.299     2.3357     44.813     39.487  34.573166     4.6800     1.8338     0.0852     1.1421 7.3656e+01     7.5276      0.503      0.730    18.0750 0.0000e+00
      0.436     -0.285     2.7950     49.887     39.468  34.713840     5.0400     1.8377     0.1704     4.3569 1.1844e+02     7.4073      0.428      0.621    18.2492 0.0000e+00
      0.364     -0.270     3.2522     55.076     39.518  34.909460     5.0400     1.8300     0.1704     4.3569 1.7732e+02     7.4524      0.357      0.518    18.4067 0.0000e+00
      0.297     -0.257     3.7075     60.514     39.609  35.136940     5.0400     2.5167     0.1704     4.3569 2.0066e+02    10.4735      0.292      0.423    18.5800 0.0000e+00
      0.236     -0.247     4.1614     66.303     39.685  35.346040     5.0400     2.5052     0.1704     4.3569 1.9494e+02    10.4885      0.232      0.336    18.7744 0.0000e+00
      0.179     -0.243     4.6155     72.457     39.760  35.543015     5.0400     2.4938     0.1704     4.3569 1.7666e+02    10.4284      0.176      0.254    18.9724 0.0000e+00
      0.123     -0.246     5.0773     78.899     39.961  35.839812     5.8500     2.5014     0.2556    11.0826 1.6930e+02    10.5035      0.121      0.175    19.1631 0.0000e+00
      0.064     -0.255     5.5593     85.467     40.361  36.321517     5.8500     3.2567     0.2556    11.0826 1.8256e+02    12.2170      0.063      0.091    19.3478 0.0000e+00
     -0.000     -0.267     6.0707     91.934     40.792  36.863073     5.8500     3.2491     0.2556    11.0826 2.7112e+02    12.1869     -0.000     -0.000    19.5262 0.0000e+00
     -0.072     -0.279     6.6141     97.981     40.930  37.171177     5.8500     3.2606     0.2556    11.0826 5.7878e+02    12.2621     -0.071     -0.103    19.6888 0.0000e+00
     -0.150     -0.286     7.1824    103.219     40.542  37.005140     6.4800     3.2377     0.2982    16.2009 1.0673e+03    12.2621     -0.147     -0.214    19.8338 0.0000e+00
     -0.230     -0.285     7.7575    107.351     39.492  36.203829     6.4800     4.1074     0.2982    16.2009 9.9081e+02    19.4314     -0.225     -0.327    19.9863 0.0000e+00
     -0.307     -0.276     8.3136    110.267     37.564  34.551589     6.4800     4.1074     0.2982    16.2009 1.0380e+03    19.5517     -0.301     -0.437    20.1779 0.0000e+00
     -0.378     -0.258     8.8217    111.986     34.355  31.671217     6.4800     4.1151     0.2982    16.2009 1.0555e+03    19.4615     -0.371     -0.538    20.4082 0.0000e+00
     -0.443     -0.233     9.2529    112.598     29.922  27.618414     6.4800     4.1341     0.3408    17.0892 1.0427e+03    19.4765     -0.434     -0.630    20.6431 0.0000e+00
     -0.500     -0.204     9.5881    112.288     24.724  22.829336     6.4800     0.2774     0.3408    17.0892 8.7805e+02     2.4925     -0.491     -0.712    20.8460 0.0000e+00
     -0.549     -0.174     9.8223    111.366     18.955  17.497832     6.4800     0.2698     0.3408    17.0892 6.9650e+02     2.5075     -0.538     -0.780    20.9978 0.0000e+00
     -0.588     -0.144     9.9591    110.224     13.743  12.677523     6.4800     0.2507     0.3408    17.0892 5.5105e+02     2.4774     -0.576     -0.836    21.0935 0.0000e+00
     -0.618     -0.117    10.0073    109.263     10.401   9.583649     6.4800     0.2507     0.4260    19.4580 4.0952e+02     2.4925     -0.606     -0.879    21.1343 0.0000e+00
     -0.642     -0.093     9.9826    108.828      8.583   7.897634     6.4800    -0.1002     0.4260    19.4580 3.0296e+02    -0.4084     -0.629     -0.913    21.1249 0.0000e+00
     -0.660     -0.074     9.9100    109.077      7.564   6.950379     6.4800    -0.1041     0.4260    19.4580 2.4806e+02    -0.4534     -0.647     -0.939    21.0801 0.0000e+00
     -0.674     -0.059     9.8203    109.893      6.971   6.396325     6.4800    -0.1269     0.4260    19.4580 2.4591e+02    -0.3633     -0.661     -0.959    21.0209 0.0000e+00
     -0.685     -0.047     9.7463    110.966      6.582   6.032334     6.4800    -0.1155     0.4260    19.4580 2.5335e+02    -0.3482     -0.672     -0.974    20.9624 0.0000e+00
     -0.694     -0.038     9.7177    111.952      6.508   5.957124    -1.4400    -0.1384    -1.1076    -1.2267 2.6357e+02    -0.3482     -0.680     -0.987    20.9110 0.0000e+00
     -0.700     -0.032     9.7489    112.580      6.470   5.917294    -1.4400    -0.0850    -1.1076    -1.2267 2.9210e+02    -0.2581     -0.687     -0.996    20.8661 0.0000e+00
     -0.705     -0.028     9.8301    112.729      6.290   5.747963    -1.4400    -0.1079    -1.1076    -1.2267 3.1035e+02    -0.3783     -0.692     -1.003    20.8244 0.0000e+00
     -0.709     -0.026     9.9342    112.498      6.192   5.655125    -1.4400    -0.0926    -1.1076    -1.2267 2.2301e+02    -0.4534     -0.696     -1.009    20.7835 0.0000e+00
     -0.712     -0.025    10.0304    112.317      6.172   5.635785     0.0000    -0.1117    -0.5964     0.6345 1.8677e+02    -0.4685     -0.698     -1.013    20.7429 0.0000e+00
     -0.714 -9.990e-29    10.0943 -9.990e-29 -9.990e-29 -9.990e-29     0.0000 -9.990e-29    -0.5964     0.6345 1.5882e+02 -9.990e-29     -0.700     -1.016    20.7041 0.0000e+00
     -0.715 -9.990e-29    10.1143 -9.990e-29 -9.990e-29 -9.990e-29     0.0000 -9.990e-29    -0.5964     0.6345 1.5930e+02 -9.990e-29     -0.702     -1.018    20.6702 0.0000e+00
     -0.716 -9.990e-29    10.0984 -9.990e-29 -9.990e-29 -9.990e-29     0.0000 -9.990e-29    -0.5964     0.6345 1.6645e+02 -9.990e-29     -0.703     -1.019    20.6455 0.0000e+00
     -0.716 -9.990e-29    10.0840 -9.990e-29 -9.990e-29 -9.990e-29     0.0000 -9.990e-29    -0.1278    -0.6768 1.6401e+02 -9.990e-29     -0.703     -1.019    20.6361 0.0000e+00
