* Sea-Bird SBE19plus  Data File:
* FileName = C:\R\Reservoirs\Data\DataNotYetUploadedToEDI\Raw_CTD\RawDownloads\062623_fcr50_S8188_0016.hex
* Software version 2.8.0.119
* Temperature SN = 8188
* Conductivity SN = 8188
* System UpLoad Time = Jul 03 2023 16:34:33
* <ApplicationData>
* <Seaterm232>
* <SoftwareVersion>2.8.0.119</SoftwareVersion>
* <BuildDate>07-Nov-2018</BuildDate>
* </Seaterm232>
* </ApplicationData>
* <InstrumentState>
* <HardwareData DeviceType='SBE19plus' SerialNumber='01908188'>
*
*    <Manufacturer>Sea-Bird Electronics, Inc.</Manufacturer>
*
*    <FirmwareVersion>3.1.8</FirmwareVersion>
*
*    <FirmwareDate>Mar  9 2016 16:22:29</FirmwareDate>
*
*    <CommandSetVersion>1.4</CommandSetVersion>
*
*    <PCBAssembly PCBSerialNum='260079' AssemblyNum='41054K'/>
*
*    <PCBAssembly PCBSerialNum='260083' AssemblyNum='41059E'/>
*
*    <PCBAssembly PCBSerialNum='260085' AssemblyNum='41606B'/>
*
*    <PCBAssembly PCBSerialNum='260081' AssemblyNum='41967C'/>
*
*    <MfgDate>30 Mar 2022</MfgDate>
*
*    <InternalSensors>
*
*       <Sensor id='Main Temperature'>
*
*          <type>temperature0</type>
*
*          <SerialNumber>01908188</SerialNumber>
*
*       </Sensor>
*
*       <Sensor id='Main Conductivity'>
*
*          <type>conductivity-0</type>
*
*          <SerialNumber>01908188</SerialNumber>
*
*       </Sensor>
*
*       <Sensor id='Main Pressure'>
*
*          <type>strain-0</type>
*
*          <SerialNumber>12220741</SerialNumber>
*
*       </Sensor>
*
*    </InternalSensors>
*
*    <ExternalSensors>
*
*       <Sensor id='volt 0'>
*
*          <type>CHL</type>
*
*          <SerialNumber>FLNTURT-7096</SerialNumber>
*
*       </Sensor>
*
*       <Sensor id='volt 1'>
*
*          <type>NTU</type>
*
*          <SerialNumber>FLNTURT-7096</SerialNumber>
*
*       </Sensor>
*
*       <Sensor id='volt 2'>
*
*          <type>OXY</type>
*
*          <SerialNumber>43-4269</SerialNumber>
*
*       </Sensor>
*
*       <Sensor id='volt 3'>
*
*          <type>not assigned</type>
*
*          <SerialNumber>not assigned</SerialNumber>
*
*       </Sensor>
*
*       <Sensor id='volt 4'>
*
*          <type>PAR</type>
*
*          <SerialNumber>PARLOGICSW-2209</SerialNumber>
*
*       </Sensor>
*
*       <Sensor id='volt 5'>
*
*          <type>not assigned</type>
*
*          <SerialNumber>not assigned</SerialNumber>
*
*       </Sensor>
*
*       <Sensor id='serial'>
*
*          <type>WETLABS</type>
*
*          <SerialNumber>FL3-7350</SerialNumber>
*
*       </Sensor>
*
*    </ExternalSensors>
*
* </HardwareData>
* <StatusData DeviceType='SBE19plus' SerialNumber='01908188'>
*
*    <DateTime>2023-07-03T16:29:20</DateTime>
*
*    <LoggingState>not logging</LoggingState>
*
*    <EventSummary numEvents='0'/>
*
*    <Power>
*
*       <vMain>12.2</vMain>
*
*       <vLith>8.8</vLith>
*
*       <iMain>61.8</iMain>
*
*       <iPump>48.2</iPump>
*
*       <iExt01>22.4</iExt01>
*
*       <iExt2345>20.3</iExt2345>
*
*       <iSerial>45.4</iSerial>
*
*    </Power>
*
*    <MemorySummary>
*
*       <Bytes>665325</Bytes>
*
*       <Samples>26613</Samples>
*
*       <SamplesFree>2605312</SamplesFree>
*
*       <SampleLength>25</SampleLength>
*
*       <Profiles>25</Profiles>
*
*    </MemorySummary>
*
* </StatusData>
* <ConfigurationData DeviceType='SBE19plus' SerialNumber='01908188'>
*
*    <ProfileMode>
*
*       <ScansToAverage>1</ScansToAverage>
*
*       <MinimumCondFreq>5</MinimumCondFreq>
*
*       <PumpDelay>40</PumpDelay>
*
*       <AutoRun>no</AutoRun>
*
*       <IgnoreSwitch>no</IgnoreSwitch>
*
*    </ProfileMode>
*
*    <Battery>
*
*       <Type>alkaline</Type>
*
*       <CutOff>7.5</CutOff>
*
*    </Battery>
*
*    <DataChannels>
*
*       <ExtVolt0>yes</ExtVolt0>
*
*       <ExtVolt1>yes</ExtVolt1>
*
*       <ExtVolt2>yes</ExtVolt2>
*
*       <ExtVolt3>no</ExtVolt3>
*
*       <ExtVolt4>yes</ExtVolt4>
*
*       <ExtVolt5>no</ExtVolt5>
*
*       <SBE38>no</SBE38>
*
*       <WETLABS>yes</WETLABS>
*
*       <OPTODE>no</OPTODE>
*
*       <SBE63>no</SBE63>
*
*       <SeaFET>no</SeaFET>
*
*       <GTD>no</GTD>
*
*    </DataChannels>
*
*    <EchoCharacters>yes</EchoCharacters>
*
*    <OutputExecutedTag>yes</OutputExecutedTag>
*
*    <OutputFormat>raw HEX</OutputFormat>
*
* </ConfigurationData>
* <CalibrationCoefficients DeviceType='SBE19plus' SerialNumber='01908188'>
*
*    <Calibration format='TEMP1' id='Main Temperature'>
*
*       <SerialNum>01908188</SerialNum>
*
*       <CalDate>21-Aug-22</CalDate>
*
*       <TA0>1.265284e-03</TA0>
*
*       <TA1>2.691806e-04</TA1>
*
*       <TA2>-5.655711e-07</TA2>
*
*       <TA3>1.602369e-07</TA3>
*
*       <TOFFSET>0.000000e+00</TOFFSET>
*
*    </Calibration>
*
*    <Calibration format='WBCOND0' id='Main Conductivity'>
*
*       <SerialNum>01908188</SerialNum>
*
*       <CalDate>21-Aug-22</CalDate>
*
*       <G>-1.009562e+00</G>
*
*       <H>1.439229e-01</H>
*
*       <I>-4.343583e-04</I>
*
*       <J>5.328694e-05</J>
*
*       <CPCOR>-9.570000e-08</CPCOR>
*
*       <CTCOR>3.250000e-06</CTCOR>
*
*       <CSLOPE>1.000000e+00</CSLOPE>
*
*    </Calibration>
*
*    <Calibration format='STRAIN0' id='Main Pressure'>
*
*       <SerialNum>12220741</SerialNum>
*
*       <CalDate>11-Aug-22</CalDate>
*
*       <PA0>1.627942e-01</PA0>
*
*       <PA1>4.835849e-04</PA1>
*
*       <PA2>-3.975488e-12</PA2>
*
*       <PTCA0>5.244803e+05</PTCA0>
*
*       <PTCA1>2.817194e+01</PTCA1>
*
*       <PTCA2>-5.842684e-01</PTCA2>
*
*       <PTCB0>2.522087e+01</PTCB0>
*
*       <PTCB1>5.750000e-04</PTCB1>
*
*       <PTCB2>0.000000e+00</PTCB2>
*
*       <PTEMPA0>-5.709556e+01</PTEMPA0>
*
*       <PTEMPA1>5.248567e+01</PTEMPA1>
*
*       <PTEMPA2>-2.281498e-01</PTEMPA2>
*
*       <POFFSET>-4.700000e-02</POFFSET>
*
*       <PRANGE>1.600000e+02</PRANGE>
*
*    </Calibration>
*
*    <Calibration format='VOLT0' id='Volt 0'>
*
*       <OFFSET>-4.657200e-02</OFFSET>
*
*       <SLOPE>1.248989e+00</SLOPE>
*
*    </Calibration>
*
*    <Calibration format='VOLT0' id='Volt 1'>
*
*       <OFFSET>-4.600800e-02</OFFSET>
*
*       <SLOPE>1.249849e+00</SLOPE>
*
*    </Calibration>
*
*    <Calibration format='VOLT0' id='Volt 2'>
*
*       <OFFSET>-4.668000e-02</OFFSET>
*
*       <SLOPE>1.250379e+00</SLOPE>
*
*    </Calibration>
*
*    <Calibration format='VOLT0' id='Volt 3'>
*
*       <OFFSET>-4.643200e-02</OFFSET>
*
*       <SLOPE>1.251002e+00</SLOPE>
*
*    </Calibration>
*
*    <Calibration format='VOLT0' id='Volt 4'>
*
*       <OFFSET>-4.606100e-02</OFFSET>
*
*       <SLOPE>1.249962e+00</SLOPE>
*
*    </Calibration>
*
*    <Calibration format='VOLT0' id='Volt 5'>
*
*       <OFFSET>-4.642700e-02</OFFSET>
*
*       <SLOPE>1.248530e+00</SLOPE>
*
*    </Calibration>
*
*    <Calibration format='FREQ0' id='external frequency channel'>
*
*       <EXTFREQSF>1.000018e+00</EXTFREQSF>
*
*    </Calibration>
*
* </CalibrationCoefficients>
* <EventCounters DeviceType='SBE19plus' SerialNumber='01908188'>
*
*    <EventSummary numEvents='0'/>
*
* </EventCounters></InstrumentState>
* <Headers>
*
* cast  16 27 Jun 2023 15:30:14 samples 15719 to 16512, avg = 1, stop = mag switch
*
# nquan = 16
# nvalues = 794                         
# units = specified
# name 0 = depFM: Depth [fresh water, m]
# name 1 = dz/dtM: Descent Rate [m/s]
# name 2 = sbeox0Mg/L: Oxygen, SBE 43 [mg/l]
# name 3 = sbeox0PS: Oxygen, SBE 43 [% saturation]
# name 4 = specc: Specific Conductance [uS/cm]
# name 5 = c0uS/cm: Conductivity [uS/cm]
# name 6 = wetCDOM: Fluorescence, WET Labs CDOM [mg/m^3]
# name 7 = flECO-AFL: Fluorescence, WET Labs ECO-AFL/FL [mg/m^3]
# name 8 = flECO-AFL1: Fluorescence, WET Labs ECO-AFL/FL, 2 [mg/m^3]
# name 9 = flECO-AFL2: Fluorescence, WET Labs ECO-AFL/FL, 3 [mg/m^3]
# name 10 = par/sat/log: PAR/Logarithmic, Satlantic
# name 11 = turbWETntu0: Turbidity, WET Labs ECO [NTU]
# name 12 = prdM: Pressure, Strain Gauge [db]
# name 13 = prdE: Pressure, Strain Gauge [psi]
# name 14 = tv290C: Temperature [ITS-90, deg C]
# name 15 = flag:  0.000e+00
# span 0 =     -0.718,      8.203       
# span 1 =     -0.192,      0.163       
# span 2 =    -0.0964,    15.5648       
# span 3 =     -0.932,    180.155       
# span 4 =      0.533,     48.303       
# span 5 =   0.454783,  47.680533       
# span 6 =    -4.5000,     8.0100       
# span 7 =    -0.1460,     3.8862       
# span 8 =    -2.1300,     3.6636       
# span 9 =    -2.0304,    19.7541       
# span 10 = 1.1595e-01, 4.5504e+02      
# span 11 =    -0.5436,   698.7786      
# span 12 =     -0.704,      8.044      
# span 13 =     -1.021,     11.668      
# span 14 =    10.5306,    24.6967      
# span 15 = 0.0000e+00, 0.0000e+00      
# interval = seconds: 0.25
# start_time = Jun 27 2023 15:30:14 [Instrument's time stamp, header]
# bad_flag = -9.990e-29
# <Sensors count="10" >
#   <sensor Channel="1" >
#     <!-- Count, Temperature -->
#     <TemperatureSensor SensorID="58" >
#       <SerialNumber>8188</SerialNumber>
#       <CalibrationDate>21-Aug-22</CalibrationDate>
#       <A0>1.26528397e-003</A0>
#       <A1>2.69180636e-004</A1>
#       <A2>-5.65571102e-007</A2>
#       <A3>1.60236871e-007</A3>
#       <Slope>1.00000000</Slope>
#       <Offset>0.0000</Offset>
#     </TemperatureSensor>
#   </sensor>
#   <sensor Channel="2" >
#     <!-- Frequency 0, Conductivity -->
#     <ConductivitySensor SensorID="3" >
#       <SerialNumber>8188</SerialNumber>
#       <CalibrationDate>21-Aug-22</CalibrationDate>
#       <UseG_J>1</UseG_J>
#       <!-- Cell const and series R are applicable only for wide range sensors. -->
#       <SeriesR>0.0000</SeriesR>
#       <CellConst>2000.0000</CellConst>
#       <ConductivityType>0</ConductivityType>
#       <Coefficients equation="0" >
#         <A>0.00000000e+000</A>
#         <B>0.00000000e+000</B>
#         <C>0.00000000e+000</C>
#         <D>0.00000000e+000</D>
#         <M>0.0</M>
#         <CPcor>-9.57000000e-008</CPcor>
#       </Coefficients>
#       <Coefficients equation="1" >
#         <G>-1.00956200e+000</G>
#         <H>1.43922862e-001</H>
#         <I>-4.34358337e-004</I>
#         <J>5.32869425e-005</J>
#         <CPcor>-9.57000000e-008</CPcor>
#         <CTcor>3.2500e-006</CTcor>
#         <!-- WBOTC not applicable unless ConductivityType = 1. -->
#         <WBOTC>0.00000000e+000</WBOTC>
#       </Coefficients>
#       <Slope>1.00000000</Slope>
#       <Offset>0.00000</Offset>
#     </ConductivitySensor>
#   </sensor>
#   <sensor Channel="3" >
#     <!-- Count, Pressure, Strain Gauge -->
#     <PressureSensor SensorID="46" >
#       <SerialNumber>8188</SerialNumber>
#       <CalibrationDate>11-Aug-22</CalibrationDate>
#       <PA0>1.62794185e-001</PA0>
#       <PA1>4.83584930e-004</PA1>
#       <PA2>-3.97548787e-012</PA2>
#       <PTEMPA0>-5.70955636e+001</PTEMPA0>
#       <PTEMPA1>5.24856726e+001</PTEMPA1>
#       <PTEMPA2>-2.28149804e-001</PTEMPA2>
#       <PTCA0>5.24480263e+005</PTCA0>
#       <PTCA1>2.81719406e+001</PTCA1>
#       <PTCA2>-5.84268386e-001</PTCA2>
#       <PTCB0>2.52208750e+001</PTCB0>
#       <PTCB1>5.75000000e-004</PTCB1>
#       <PTCB2>0.00000000e+000</PTCB2>
#       <Offset>0.000000</Offset>
#     </PressureSensor>
#   </sensor>
#   <sensor Channel="4" >
#     <!-- A/D voltage 0, Fluorometer, WET Labs ECO-AFL/FL -->
#     <FluoroWetlabECO_AFL_FL_Sensor SensorID="20" >
#       <SerialNumber>FLNTURT-7096</SerialNumber>
#       <CalibrationDate>01-Sep-2022</CalibrationDate>
#       <ScaleFactor>5.00000000e+001</ScaleFactor>
#       <!-- Dark output -->
#       <Vblank>0.0680</Vblank>
#     </FluoroWetlabECO_AFL_FL_Sensor>
#   </sensor>
#   <sensor Channel="5" >
#     <!-- A/D voltage 1, Turbidity Meter, WET Labs, ECO-NTU -->
#     <TurbidityMeter SensorID="67" >
#       <SerialNumber>FLNTURT-7096</SerialNumber>
#       <CalibrationDate>01-Sep-2022</CalibrationDate>
#       <ScaleFactor>197.000000</ScaleFactor>
#       <!-- Dark output -->
#       <DarkVoltage>0.067000</DarkVoltage>
#     </TurbidityMeter>
#   </sensor>
#   <sensor Channel="6" >
#     <!-- A/D voltage 2, Oxygen, SBE 43 -->
#     <OxygenSensor SensorID="38" >
#       <SerialNumber>4269</SerialNumber>
#       <CalibrationDate>16-Aug-22</CalibrationDate>
#       <Use2007Equation>1</Use2007Equation>
#       <CalibrationCoefficients equation="0" >
#         <!-- Coefficients for Owens-Millard equation. -->
#         <Boc>0.0000</Boc>
#         <Soc>0.0000e+000</Soc>
#         <offset>0.0000</offset>
#         <Pcor>0.00e+000</Pcor>
#         <Tcor>0.0000</Tcor>
#         <Tau>0.0</Tau>
#       </CalibrationCoefficients>
#       <CalibrationCoefficients equation="1" >
#         <!-- Coefficients for Sea-Bird equation - SBE calibration in 2007 and later. -->
#         <Soc>4.2506e-001</Soc>
#         <offset>-0.4922</offset>
#         <A>-4.5893e-003</A>
#         <B> 1.8653e-004</B>
#         <C>-2.0781e-006</C>
#         <D0> 2.5826e+000</D0>
#         <D1> 1.92634e-004</D1>
#         <D2>-4.64803e-002</D2>
#         <E> 3.6000e-002</E>
#         <Tau20> 2.3100</Tau20>
#         <H1>-3.3000e-002</H1>
#         <H2> 5.0000e+003</H2>
#         <H3> 1.4500e+003</H3>
#       </CalibrationCoefficients>
#     </OxygenSensor>
#   </sensor>
#   <sensor Channel="7" >
#     <!-- A/D voltage 3, PAR/Logarithmic, Satlantic -->
#     <PARLog_SatlanticSensor SensorID="76" >
#       <SerialNumber>2209</SerialNumber>
#       <CalibrationDate>14-Jan-2022</CalibrationDate>
#       <a0>9.8861e-001</a0>
#       <a1>8.0845e-001</a1>
#       <Im>1.3589e+000</Im>
#       <Multiplier>1.0000e+000</Multiplier>
#     </PARLog_SatlanticSensor>
#   </sensor>
#   <sensor Channel="8" >
#     <!-- Serial RS-232, Fluorometer, WET Labs ECO-AFL/FL, 2 -->
#     <FluoroWetlabECO_AFL_FL_Sensor SensorID="20" >
#       <SerialNumber>FL3-7350</SerialNumber>
#       <CalibrationDate>10-Mar-2022</CalibrationDate>
#       <ScaleFactor>4.26000000e-002</ScaleFactor>
#       <!-- Dark output -->
#       <Vblank>50.0000</Vblank>
#     </FluoroWetlabECO_AFL_FL_Sensor>
#   </sensor>
#   <sensor Channel="9" >
#     <!-- Serial RS-232, Fluorometer, WET Labs ECO-AFL/FL, 3 -->
#     <FluoroWetlabECO_AFL_FL_Sensor SensorID="20" >
#       <SerialNumber>FL3-7350</SerialNumber>
#       <CalibrationDate>10-Mar-2022</CalibrationDate>
#       <ScaleFactor>4.23000000e-002</ScaleFactor>
#       <!-- Dark output -->
#       <Vblank>48.0000</Vblank>
#     </FluoroWetlabECO_AFL_FL_Sensor>
#   </sensor>
#   <sensor Channel="10" >
#     <!-- Serial RS-232, Fluorometer, WET Labs ECO CDOM -->
#     <FluoroWetlabCDOM_Sensor SensorID="19" >
#       <SerialNumber>FL3-7350</SerialNumber>
#       <CalibrationDate>10-Mar-2022</CalibrationDate>
#       <ScaleFactor>0.090</ScaleFactor>
#       <!-- Dark output -->
#       <Vblank>50.000</Vblank>
#     </FluoroWetlabCDOM_Sensor>
#   </sensor>
# </Sensors>
# datcnv_date = Jul 03 2023 16:59:42, 7.26.7.129 [datcnv_vars = 15]
# datcnv_in = C:\R\Reservoirs\Data\DataNotYetUploadedToEDI\Raw_CTD\RawDownloads\062723_fcrXX_S8188016.hex C:\R\Reservoirs\Data\DataNotYetUploadedToEDI\Raw_CTD\RawDownloads\SBE19plusV2_8188_start20221003.xmlcon
# datcnv_skipover = 0
# datcnv_ox_hysteresis_correction = yes
# datcnv_ox_tau_correction = yes
# filter_date = Jul 03 2023 17:00:15, 7.26.7.129
# filter_in = C:\R\Reservoirs\Data\DataNotYetUploadedToEDI\Raw_CTD\RawDownloads\062723_fcrXX_S8188016.cnv
# filter_low_pass_tc_A = 0.500
# filter_low_pass_tc_B = 1.000
# filter_low_pass_A_vars = sbeox0Mg/L sbeox0PS specc c0uS/cm tv290C
# filter_low_pass_B_vars = depFM dz/dtM prdM prdE
# alignctd_date = Jul 03 2023 17:00:42, 7.26.7.129
# alignctd_in = C:\R\Reservoirs\Data\DataNotYetUploadedToEDI\Raw_CTD\RawDownloads\062723_fcrXX_S8188016.cnv
# alignctd_adv = dz/dtM 1.000, sbeox0PS 1.000, specc 1.000, c0uS/cm 1.000, flECO-AFL 1.000, turbWETntu0 1.000                                                                                                                        
# file_type = ascii
*END*
     -0.718      0.000     8.7118     91.202      0.628   0.535044    -4.5000    -0.0926    -2.1300    -2.0304 3.9915e+02     2.0416     -0.704     -1.021    17.5486 0.0000e+00
     -0.718      0.000     8.7122     91.207      0.625   0.532157    -4.5000    -0.0926    -2.1300    -2.0304 3.8778e+02     2.0115     -0.704     -1.021    17.5490 0.0000e+00
     -0.718      0.000     8.7130     91.210      0.620   0.527863    -4.5000    -0.1002    -2.1300    -2.0304 3.5105e+02     1.9965     -0.704     -1.021    17.5496 0.0000e+00
     -0.717      0.000     8.7136     91.208      0.612   0.521015     0.0900    -0.1155     0.0000     0.0000 2.8538e+02     0.1027     -0.704     -1.020    17.5503 0.0000e+00
     -0.717      0.000     8.7139     91.198      0.601   0.511765     0.0900    -0.1155     0.0000     0.0000 2.7731e+02     0.0876     -0.704     -1.020    17.5512 0.0000e+00
     -0.717      0.000     8.7142     91.182      0.594   0.505554     0.0900    -0.1117     0.0000     0.0000 2.4768e+02     0.0726     -0.703     -1.020    17.5523 0.0000e+00
     -0.717      0.000     8.7142     91.163      0.592   0.504682     0.0900    -0.1155     0.0000     0.0000 2.0957e+02     0.1327     -0.703     -1.020    17.5537 0.0000e+00
     -0.717      0.000     8.7136     91.141      0.593   0.504960     0.0900    -0.1079     0.0000     0.0000 2.5017e+02    -0.4685     -0.703     -1.020    17.5557 0.0000e+00
     -0.717      0.000     8.7122     91.117      0.592   0.504485     0.0000    -0.1269    -0.0852     0.0423 2.7106e+02    -0.3783     -0.703     -1.020    17.5584 0.0000e+00
     -0.717      0.000     8.7100     91.093      0.591   0.503131     0.0000    -0.1193    -0.0852     0.0423 2.8439e+02    -0.4534     -0.703     -1.020    17.5618 0.0000e+00
     -0.717 1.6000e-07     8.7075     91.075      0.588   0.500538     0.0000    -0.1117    -0.0852     0.0423 2.9045e+02    -0.3783     -0.703     -1.020    17.5656 0.0000e+00
     -0.717 2.0571e-07     8.7047     91.066      0.585   0.497990     0.0000    -0.1117    -0.0852     0.0423 2.9735e+02    -0.3182     -0.703     -1.020    17.5695 0.0000e+00
     -0.717 2.6448e-07     8.7017     91.071      0.583   0.496785     0.0000    -0.0926    -0.0426     0.1692 3.0640e+02    -0.4835     -0.703     -1.020    17.5735 0.0000e+00
     -0.717 3.4005e-07     8.6987     91.094      0.583   0.496602     0.0000    -0.1079    -0.0426     0.1692 3.2266e+02    -0.4384     -0.703     -1.020    17.5777 0.0000e+00
     -0.717 4.3721e-07     8.6961     91.145      0.584   0.497392     0.0000    -0.1079    -0.0426     0.1692 3.3612e+02    -0.5136     -0.703     -1.020    17.5826 0.0000e+00
     -0.717 5.6212e-07     8.6942     91.238      0.583   0.497389     0.0000    -0.1269    -0.0426     0.1692 3.4500e+02    -0.4084     -0.703     -1.020    17.5887 0.0000e+00
     -0.717 7.2273e-07     8.6932     91.383      0.582   0.496592     0.0000    -0.1155    -0.0852     0.0423 3.6118e+02    -0.5286     -0.703     -1.020    17.5968 0.0000e+00
     -0.717 9.2923e-07     8.6936     91.581      0.582   0.496766     0.0000    -0.0812    -0.0852     0.0423 3.5189e+02    -0.4084     -0.703     -1.020    17.6065 0.0000e+00
     -0.717      0.000     8.6968     91.820      0.584   0.497957     0.0000    -0.1155    -0.0852     0.0423 3.2112e+02    -0.3783     -0.704     -1.020    17.6159 0.0000e+00
     -0.718      0.000     8.7043     92.079      0.586   0.500482     0.0000    -0.0850    -0.0852     0.0423 3.1745e+02    -0.4534     -0.704     -1.021    17.6234 0.0000e+00
     -0.718      0.000     8.7172     92.331      0.589   0.503038     0.0000    -0.1079     0.0000     0.0846 3.2147e+02    -0.4234     -0.704     -1.021    17.6285 0.0000e+00
     -0.718      0.000     8.7355     92.552      0.591   0.504329     0.0000    -0.1155     0.0000     0.0846 2.9936e+02    -0.3482     -0.704     -1.021    17.6316 0.0000e+00
     -0.718      0.000     8.7580     92.722      0.592   0.504700     0.0000    -0.1002     0.0000     0.0846 2.7378e+02    -0.3783     -0.704     -1.021    17.6332 0.0000e+00
     -0.718      0.000     8.7825     92.832      0.591   0.504249     0.0000    -0.1155     0.0000     0.0846 2.5700e+02    -0.4084     -0.704     -1.021    17.6345 0.0000e+00
     -0.718      0.000     8.8063     92.884      0.589   0.502856     0.0000    -0.1002     0.0000     0.0846 2.4173e+02    -0.3933     -0.704     -1.021    17.6361 0.0000e+00
     -0.718      0.000     8.8269     92.891      0.586   0.500150     0.0000    -0.1308    -0.0426    -0.2961 2.3546e+02    -0.4384     -0.704     -1.021    17.6384 0.0000e+00
     -0.718      0.000     8.8427     92.865      0.583   0.497386     0.0000    -0.1346    -0.0426    -0.2961 2.3190e+02    -0.4384     -0.704     -1.021    17.6410 0.0000e+00
     -0.718      0.000     8.8527     92.819      0.581   0.495805     0.0000    -0.0964    -0.0426    -0.2961 2.2544e+02    -0.5286     -0.704     -1.021    17.6436 0.0000e+00
     -0.718      0.000     8.8573     92.767      0.580   0.494984     0.0000    -0.1002    -0.0426    -0.2961 2.3115e+02    -0.4234     -0.704     -1.021    17.6457 0.0000e+00
     -0.718      0.000     8.8577     92.716      0.580   0.494704     0.0000    -0.1079    -0.0426     0.0423 2.4979e+02    -0.4685     -0.704     -1.021    17.6475 0.0000e+00
     -0.718      0.000     8.8547     92.666      0.578   0.492915     0.0000    -0.1002    -0.0426     0.0423 2.8205e+02    -0.3332     -0.704     -1.021    17.6497 0.0000e+00
     -0.718      0.000     8.8498     92.616      0.573   0.489139     0.0000    -0.1041    -0.0426     0.0423 3.0322e+02    -0.4084     -0.704     -1.021    17.6529 0.0000e+00
     -0.718      0.000     8.8441     92.571      0.570   0.486323     0.0000    -0.1155    -0.0426     0.0423 3.5327e+02    -0.4384     -0.704     -1.021    17.6570 0.0000e+00
     -0.718      0.000     8.8382     92.530      0.566   0.483716     0.0000    -0.1269     0.0426    -0.0423 4.0545e+02    -0.4835     -0.704     -1.021    17.6623 0.0000e+00
     -0.718      0.000     8.8322     92.492      0.560   0.478647     0.0000    -0.1079     0.0426    -0.0423 4.1888e+02    -0.4084     -0.704     -1.021    17.6690 0.0000e+00
     -0.718      0.000     8.8260     92.457      0.552   0.471739     0.0000    -0.0926     0.0426    -0.0423 4.2355e+02    -0.4084     -0.704     -1.021    17.6772 0.0000e+00
     -0.718      0.000     8.8200     92.428      0.547   0.467083     0.0000    -0.0926     0.0426    -0.0423 4.1247e+02    -0.4234     -0.704     -1.021    17.6863 0.0000e+00
     -0.718      0.000     8.8144     92.404      0.547   0.467391     0.0000    -0.1079    -0.0426     0.1692 4.0072e+02    -0.4835     -0.704     -1.021    17.6957 0.0000e+00
     -0.718      0.000     8.8092     92.388      0.549   0.468791     0.0000    -0.0964    -0.0426     0.1692 3.3444e+02    -0.4685     -0.704     -1.021    17.7044 0.0000e+00
     -0.718      0.000     8.8046     92.377      0.548   0.467703     0.0000    -0.1002    -0.0426     0.1692 2.4037e+02    -0.3482     -0.704     -1.021    17.7115 0.0000e+00
     -0.718      0.000     8.8010     92.366      0.543   0.463836     0.0000    -0.1346    -0.0426     0.1692 2.1292e+02    -0.4835     -0.704     -1.021    17.7155 0.0000e+00
     -0.718      0.000     8.7987     92.354      0.539   0.460112     0.0000    -0.1079    -0.0426     0.1692 2.0475e+02    -0.4534     -0.704     -1.021    17.7161 0.0000e+00
     -0.718      0.000     8.7976     92.342      0.538   0.459494     0.0000    -0.1460     0.0000    -0.0423 2.0497e+02    -0.3633     -0.704     -1.020    17.7139 0.0000e+00
     -0.717      0.001     8.7972     92.331      0.536   0.457863     0.0000    -0.1155     0.0000    -0.0423 2.0632e+02    -0.3332     -0.703     -1.020    17.7103 0.0000e+00
     -0.717      0.001     8.7970     92.322      0.533   0.454783     0.0000    -0.1346     0.0000    -0.0423 2.2305e+02    -0.3182     -0.703     -1.020    17.7057 0.0000e+00
     -0.717      0.001     8.7968     92.313      0.535   0.457342     0.0000    -0.1155     0.0000    -0.0423 2.7408e+02    -0.3933     -0.703     -1.020    17.7005 0.0000e+00
     -0.717      0.001     8.7967     92.303      0.545   0.466221     0.0000    -0.1117     0.0000     0.1269 2.9554e+02    -0.5136     -0.703     -1.019    17.6948 0.0000e+00
     -0.716      0.002     8.7967     92.292      0.556   0.475880     0.0000    -0.1155     0.0000     0.1269 3.0132e+02    -0.3633     -0.702     -1.019    17.6890 0.0000e+00
     -0.716      0.002     8.7968     92.286      0.570   0.488895     0.0000    -0.0926     0.0000     0.1269 2.9864e+02    -0.4835     -0.702     -1.018    17.6834 0.0000e+00
     -0.715      0.003     8.7969     92.289      0.596   0.512691     0.0000    -0.1231     0.0000     0.1269 2.9471e+02    -0.4084     -0.701     -1.017    17.6784 0.0000e+00
     -0.715      0.004     8.7967     92.296      0.637   0.549659     0.0000    -0.0926     0.0000     0.0000 2.8938e+02    -0.3633     -0.701     -1.016    17.6742 0.0000e+00
     -0.714      0.005     8.7962     92.302      0.697   0.605702     0.0000    -0.1269     0.0000     0.0000 2.9923e+02    -0.3482     -0.700     -1.015    17.6710 0.0000e+00
     -0.712      0.006     8.7960     92.304      0.795   0.695767     0.0000    -0.1155     0.0000     0.0000 2.9260e+02    -0.4384     -0.699     -1.013    17.6694 0.0000e+00
     -0.711      0.008     8.7963     92.308      0.955   0.843869     0.0000    -0.0926     0.0000     0.0000 2.7876e+02    -0.3482     -0.697     -1.011    17.6695 0.0000e+00
     -0.709      0.010     8.7966     92.315      1.225   1.093458     0.0000    -0.0850     0.0000     0.1269 2.6517e+02    -0.3482     -0.695     -1.008    17.6718 0.0000e+00
     -0.706      0.013     8.7962     92.323      1.682   1.515044     0.0000    -0.1117     0.0000     0.1269 2.7147e+02    -0.4534     -0.692     -1.004    17.6770 0.0000e+00
     -0.703      0.017     8.7948     92.327      2.442   2.217097     0.0000    -0.1155     0.0000     0.1269 2.8957e+02    -0.2881     -0.689     -1.000    17.6868 0.0000e+00
     -0.699      0.022     8.7923     92.329      3.705   3.382876     0.0000    -0.1117     0.0000     0.1269 3.2133e+02    -0.4084     -0.685     -0.993    17.7035 0.0000e+00
     -0.693      0.028     8.7882     92.333      5.805   5.323255     0.0000    -0.0964     0.0000     0.1269 3.5985e+02    -0.3783     -0.680     -0.986    17.7311 0.0000e+00
     -0.686      0.036     8.7814     92.346      9.305   8.555669     0.0000     0.3156     0.0000    -0.0846 3.8044e+02    16.4555     -0.673     -0.976    17.7751 0.0000e+00
     -0.677      0.046     8.7699     92.373     15.147  13.950004     0.0000     0.2927     0.0000    -0.0846 4.2576e+02    16.5005     -0.664     -0.963    17.8443 0.0000e+00
     -0.665      0.059     8.7515     92.421     23.334  21.589749     0.0000     0.3156     0.0000    -0.0846 4.5375e+02    16.5607     -0.652     -0.946    17.9531 0.0000e+00
     -0.650      0.075     8.7226     92.492     31.837  29.737056     0.0000     0.3346     0.0000    -0.0846 4.5159e+02    16.4404     -0.637     -0.924    18.1262 0.0000e+00
     -0.630      0.093     8.6764     92.590     38.520  36.403694     0.0000     2.0589     0.0000     0.1269 4.5504e+02    22.3172     -0.618     -0.897    18.4061 0.0000e+00
     -0.605      0.113     8.6014     92.724     42.760  40.869938     0.0000     2.0971     0.0000     0.1269 4.4236e+02    22.3473     -0.594     -0.861    18.8642 0.0000e+00
     -0.574      0.132     8.4880     92.907     45.134  43.560114     0.0000     2.1085     0.0000     0.1269 4.4467e+02    22.3172     -0.563     -0.816    19.5647 0.0000e+00
     -0.536      0.148     8.3464     93.163     46.444  45.171816     0.0000     2.0589     0.0000     0.1269 4.4846e+02    22.3172     -0.525     -0.762    20.4565 0.0000e+00
     -0.492      0.159     8.2050     93.502     47.131  46.107106     6.0300     2.4404     0.3834    11.8017 4.1139e+02    21.8062     -0.483     -0.700    21.3776 0.0000e+00
     -0.446      0.163     8.0856     93.912     47.437  46.599552     6.0300     2.4671     0.3834    11.8017 3.7404e+02    21.8813     -0.437     -0.634    22.1972 0.0000e+00
     -0.399      0.160     7.9962     94.363     47.514  46.812186     6.0300     2.4518     0.3834    11.8017 3.4552e+02    21.8813     -0.391     -0.567    22.8665 0.0000e+00
     -0.356      0.150     7.9381     94.822     47.466  46.857202     6.0300     2.4518     0.3834    11.8017 3.1973e+02    21.8663     -0.349     -0.506    23.3805 0.0000e+00
     -0.318      0.136     7.9091     95.251     47.341  46.794164     6.5700     2.3984     0.4260    17.6814 3.0514e+02    21.1449     -0.312     -0.452    23.7555 0.0000e+00
     -0.286      0.119     7.9033     95.621     47.159  46.649861     6.5700     2.4137     0.4260    17.6814 2.9089e+02    21.1749     -0.280     -0.406    24.0188 0.0000e+00
     -0.259      0.103     7.9138     95.918     46.985  46.490835     6.5700     2.3832     0.4260    17.6814 2.9235e+02    21.1449     -0.254     -0.368    24.1991 0.0000e+00
     -0.236      0.087     7.9339     96.146     46.899  46.403481     6.5700     2.4137     0.4260    17.6814 2.8844e+02    21.1449     -0.231     -0.336    24.3196 0.0000e+00
     -0.216      0.074     7.9581     96.329     46.929  46.425931     6.5700     2.3221     0.4260    17.6814 2.7088e+02    20.8142     -0.212     -0.308    24.3970 0.0000e+00
     -0.199      0.061     7.9822     96.499     47.060  46.552281     6.3900     2.3145     0.4260    17.1315 1.9698e+02    20.9645     -0.195     -0.284    24.4419 0.0000e+00
     -0.185      0.050     8.0041     96.703     47.257  46.754794     6.3900     2.3336     0.4260    17.1315 2.0925e+02    20.8593     -0.182     -0.264    24.4610 0.0000e+00
     -0.174      0.041     8.0230     97.014     47.464  46.978488     6.3900     2.3450     0.4260    17.1315 1.7392e+02    20.9795     -0.171     -0.248    24.4619 0.0000e+00
     -0.166      0.033     8.0392     97.544     47.625  47.164122     6.3900     2.2802     0.4260    17.1315 2.1213e+02    20.9645     -0.163     -0.236    24.4551 0.0000e+00
     -0.160      0.026     8.0537     98.470     47.730  47.295807     6.3900     2.2878     0.4260    17.0469 2.1200e+02    20.9795     -0.156     -0.227    24.4523 0.0000e+00
     -0.155      0.020     8.0694    100.015     47.798  47.390824     6.3900     2.2649     0.4260    17.0469 2.1543e+02    20.9645     -0.152     -0.220    24.4613 0.0000e+00
     -0.151      0.016     8.0921    102.283     47.845  47.462624     6.3900     2.2992     0.4260    17.0469 2.1287e+02    21.0096     -0.148     -0.214    24.4821 0.0000e+00
     -0.147      0.013     8.1321    105.078     47.878  47.518465     6.3900     2.3107     0.4260    17.0469 2.1450e+02    20.4384     -0.144     -0.209    24.5093 0.0000e+00
     -0.144      0.010     8.2048    108.078     47.902  47.561349     6.4800     2.3336     0.4260    17.4276 1.8196e+02    20.4234     -0.142     -0.205    24.5385 0.0000e+00
     -0.142      0.008     8.3289    111.062     47.913  47.586858     6.4800     2.3488     0.4260    17.4276 2.2549e+02    20.4986     -0.140     -0.202    24.5673 0.0000e+00
     -0.141      0.007     8.5134    113.826     47.907  47.593870     6.4800     2.3336     0.4260    17.4276 2.0440e+02    20.4685     -0.138     -0.200    24.5943 0.0000e+00
     -0.139      0.006     8.7422    116.108     47.887  47.584254     6.4800     2.3908     0.4260    17.4276 2.2364e+02    21.2200     -0.137     -0.198    24.6181 0.0000e+00
     -0.138      0.005     8.9886    117.684     47.851  47.555447     6.4800     2.3794     0.4260    17.4276 2.1864e+02    21.0697     -0.135     -0.196    24.6377 0.0000e+00
     -0.137      0.004     9.2341    118.439     47.787  47.495804     6.3900     2.4099     0.4260    17.3007 2.3271e+02    21.2050     -0.134     -0.195    24.6537 0.0000e+00
     -0.136      0.004     9.4618    118.390     47.692  47.401310     6.3900     2.3908     0.4260    17.3007 2.2165e+02    21.0847     -0.133     -0.193    24.6668 0.0000e+00
     -0.135      0.003     9.6497    117.669     47.587  47.292344     6.3900     2.5091     0.4260    17.3007 2.0699e+02    21.5657     -0.133     -0.192    24.6773 0.0000e+00
     -0.134      0.003     9.7793    116.417     47.506  47.207224     6.3900     2.5091     0.4260    17.3007 2.3418e+02    21.6258     -0.132     -0.191    24.6849 0.0000e+00
     -0.133      0.002     9.8414    114.742     47.488  47.188645     6.3900     2.5243     0.4686    17.4699 2.0623e+02    21.7611     -0.131     -0.190    24.6891 0.0000e+00
     -0.133      0.001     9.8375    112.815     47.528  47.231650     6.3900     2.5167     0.4686    17.4699 2.0857e+02    21.5356     -0.131     -0.189    24.6886 0.0000e+00
     -0.133      0.001     9.7784    110.879     47.578  47.286280     6.3900     2.5510     0.4686    17.4699 1.9473e+02    21.3703     -0.130     -0.189    24.6842 0.0000e+00
     -0.133      0.000     9.6752    109.160     47.621  47.333415     6.3900     2.5472     0.4686    17.4699 1.9892e+02    21.3703     -0.130     -0.189    24.6796 0.0000e+00
     -0.133      0.000     9.5362    107.827     47.663  47.377697     6.3900     2.5625     0.4260    17.5545 2.1973e+02    21.4755     -0.130     -0.189    24.6788 0.0000e+00
     -0.133      0.000     9.3756    106.979     47.693  47.409139     6.3900     2.5739     0.4260    17.5545 2.1599e+02    21.3703     -0.130     -0.189    24.6820 0.0000e+00
     -0.133     -0.001     9.2138    106.645     47.703  47.418289     6.3900     2.5052     0.4260    17.5545 2.1515e+02    22.2270     -0.131     -0.190    24.6870 0.0000e+00
     -0.134     -0.001     9.0702    106.799     47.691  47.403624     6.3900     2.5358     0.4260    17.5545 2.1779e+02    22.0767     -0.131     -0.190    24.6917 0.0000e+00
     -0.134      0.000     8.9588    107.388     47.665  47.373123     6.4800     2.5014     0.4260    17.1738 2.1389e+02    22.0767     -0.131     -0.190    24.6952 0.0000e+00
     -0.134      0.000     8.8882    108.353     47.635  47.338469     6.4800     2.5205     0.4260    17.1738 2.2267e+02    22.0166     -0.131     -0.190    24.6967 0.0000e+00
     -0.134      0.000     8.8606    109.652     47.606  47.304292     6.4800     2.5586     0.4260    17.1738 2.1712e+02    21.8964     -0.131     -0.190    24.6959 0.0000e+00
     -0.134      0.000     8.8738    111.265     47.580  47.273368     6.4800     2.5701     0.4260    17.1738 2.1945e+02    21.8513     -0.131     -0.190    24.6929 0.0000e+00
     -0.134      0.000     8.9235    113.164     47.555  47.243394     6.4800     2.5510     0.4260    17.1738 1.9737e+02    21.8212     -0.131     -0.190    24.6882 0.0000e+00
     -0.134      0.000     9.0047    115.287     47.521  47.204397     6.4800     2.5777     0.3834    17.3007 2.2045e+02    21.9865     -0.131     -0.190    24.6826 0.0000e+00
     -0.134     -0.001     9.1136    117.516     47.467  47.142013     6.4800     2.6311     0.3834    17.3007 2.2098e+02    22.5878     -0.131     -0.190    24.6771 0.0000e+00
     -0.134     -0.001     9.2485    119.708     47.374  47.039606     6.4800     2.6235     0.3834    17.3007 1.9196e+02    22.6479     -0.131     -0.190    24.6719 0.0000e+00
     -0.134     -0.002     9.4074    121.717     47.231  46.885721     6.4800     2.6464     0.3834    17.3007 1.5813e+02    22.5577     -0.131     -0.191    24.6666 0.0000e+00
     -0.134     -0.002     9.5849    123.405     47.040  46.684898     6.4800     2.6388     0.4686    17.2161 2.1954e+02    22.6479     -0.132     -0.191    24.6605 0.0000e+00
     -0.135     -0.004     9.7718    124.648     46.839  46.474735     6.4800     2.8219     0.4686    17.2161 1.9439e+02    24.3313     -0.132     -0.192    24.6521 0.0000e+00
     -0.136     -0.005     9.9562    125.338     46.647  46.276471     6.4800     2.8219     0.4686    17.2161 1.8568e+02    24.2711     -0.133     -0.193    24.6407 0.0000e+00
     -0.137     -0.008    10.1256    125.440     46.483  46.108569     6.4800     2.8371     0.4686    17.2161 1.6541e+02    24.4064     -0.134     -0.195    24.6283 0.0000e+00
     -0.139     -0.011    10.2683    125.029     46.412  46.035238     6.5700     2.8257     0.4260    17.0892 1.7163e+02    24.3763     -0.136     -0.197    24.6166 0.0000e+00
     -0.142     -0.014    10.3738    124.293     46.384  46.005219     6.5700     2.6845     0.4260    17.0892 1.7074e+02    21.4304     -0.139     -0.201    24.6056 0.0000e+00
     -0.146     -0.017    10.4329    123.453     46.271  45.889634     6.5700     2.6845     0.4260    17.0892 2.0324e+02    21.4304     -0.143     -0.208    24.5966 0.0000e+00
     -0.152     -0.018    10.4423    122.665     46.084  45.699274     6.5700     2.6998     0.4260    17.0892 2.5307e+02    21.4605     -0.149     -0.216    24.5913 0.0000e+00
     -0.158     -0.018    10.4087    122.019     45.899  45.512173     6.5700     2.6960     0.4260    17.0892 2.4517e+02    21.4755     -0.155     -0.225    24.5886 0.0000e+00
     -0.163     -0.016    10.3478    121.561     45.740  45.351752     6.4800     2.7532     0.4260    17.0046 2.3844e+02    21.2952     -0.161     -0.233    24.5863 0.0000e+00
     -0.167     -0.012    10.2786    121.258     45.606  45.216842     6.4800     2.7341     0.4260    17.0046 2.4720e+02    21.3703     -0.164     -0.238    24.5823 0.0000e+00
     -0.170     -0.007    10.2140    120.986     45.511  45.119021     6.4800     2.7570     0.4260    17.0046 2.4437e+02    21.3703     -0.167     -0.242    24.5770 0.0000e+00
     -0.171     -0.001    10.1610    120.583     45.461  45.065889     6.4800     2.7456     0.4260    17.0046 2.4315e+02    21.4004     -0.168     -0.244    24.5727 0.0000e+00
     -0.171      0.005    10.1233    119.935     45.413  45.013556     6.4800     2.8715     0.4260    16.7508 2.4021e+02    21.4004     -0.168     -0.243    24.5698 0.0000e+00
     -0.169      0.010    10.0986    119.022     45.347  44.940138     6.4800     2.8753     0.4260    16.7508 2.3927e+02    21.4605     -0.166     -0.240    24.5673 0.0000e+00
     -0.165      0.014    10.0765    117.906     45.339  44.923146     6.4800     2.8676     0.4260    16.7508 2.3505e+02    21.3703     -0.162     -0.235    24.5641 0.0000e+00
     -0.160      0.016    10.0437    116.701     45.450  45.021453     6.4800     2.8791     0.4260    16.7508 2.3160e+02    21.3403     -0.157     -0.228    24.5599 0.0000e+00
     -0.154      0.017     9.9908    115.562     45.661  45.219666     6.5700     2.8905     0.3834    17.5122 1.8268e+02    21.0847     -0.152     -0.220    24.5542 0.0000e+00
     -0.149      0.017     9.9162    114.676     45.919  45.465625     6.5700     2.8562     0.3834    17.5122 1.9191e+02    21.0998     -0.146     -0.212    24.5462 0.0000e+00
     -0.145      0.015     9.8251    114.191     46.160  45.698107     6.5700     2.9020     0.3834    17.5122 1.9866e+02    21.1449     -0.142     -0.206    24.5358 0.0000e+00
     -0.141      0.012     9.7269    114.115     46.358  45.889942     6.5700     2.8905     0.3834    17.5122 1.9216e+02    21.1599     -0.139     -0.201    24.5235 0.0000e+00
     -0.139      0.010     9.6342    114.294     46.522  46.042748     6.6600     2.8524     0.4260    18.0621 1.7709e+02    20.8443     -0.136     -0.197    24.5109 0.0000e+00
     -0.137      0.007     9.5622    114.525     46.657  46.159625     6.6600     2.8104     0.4260    18.0621 2.2156e+02    20.9194     -0.134     -0.195    24.5008 0.0000e+00
     -0.135      0.006     9.5229    114.664     46.759  46.240034     6.6600     2.8142     0.4260    18.0621 2.1581e+02    20.8593     -0.133     -0.193    24.4945 0.0000e+00
     -0.134      0.004     9.5175    114.630     46.825  46.283620     6.6600     2.8409     0.4260    18.0621 1.7438e+02    20.8743     -0.132     -0.191    24.4892 0.0000e+00
     -0.133      0.003     9.5343    114.413     46.858  46.298041     6.6600     2.7341     0.4260    18.0621 1.9793e+02    20.7090     -0.131     -0.190    24.4791 0.0000e+00
     -0.133      0.002     9.5567    114.086     46.870  46.295067     6.5700     2.7761     0.4260    18.2736 1.9801e+02    20.7240     -0.130     -0.189    24.4616 0.0000e+00
     -0.132      0.002     9.5722    113.771     46.863  46.277869     6.5700     2.7913     0.4260    18.2736 2.2481e+02    20.5737     -0.130     -0.189    24.4392 0.0000e+00
     -0.132      0.002     9.5734    113.607     46.841  46.245823     6.5700     2.7532     0.4260    18.2736 2.1459e+02    20.5887     -0.129     -0.188    24.4165 0.0000e+00
     -0.132      0.002     9.5588    113.686     46.804  46.200291     6.5700     2.7723     0.4260    18.2736 1.7844e+02    20.7541     -0.129     -0.187    24.3969 0.0000e+00
     -0.131      0.002     9.5341    114.016     46.752  46.141020     6.4800     2.6807     0.4260    17.7237 2.2272e+02    21.9264     -0.129     -0.187    24.3816 0.0000e+00
     -0.131      0.002     9.5099    114.534     46.685  46.066075     6.4800     2.6922     0.4260    17.7237 2.1163e+02    21.8813     -0.128     -0.186    24.3696 0.0000e+00
     -0.131      0.002     9.4981    115.151     46.601  45.975284     6.4800     2.6693     0.4260    17.7237 2.0748e+02    21.7912     -0.128     -0.186    24.3592 0.0000e+00
     -0.130      0.003     9.5064    115.765     46.501  45.868215     6.4800     2.6998     0.4260    17.7237 2.2579e+02    21.8212     -0.127     -0.185    24.3495 0.0000e+00
     -0.130      0.003     9.5357    116.264     46.391  45.750002     6.5700     2.6998     0.3834    17.8083 2.2751e+02    21.3403     -0.127     -0.184    24.3401 0.0000e+00
     -0.129      0.003     9.5806    116.561     46.300  45.648566     6.5700     2.6845     0.3834    17.8083 1.9974e+02    21.4004     -0.126     -0.183    24.3311 0.0000e+00
     -0.128      0.004     9.6338    116.607     46.250  45.586393     6.5700     2.6883     0.3834    17.8083 1.5751e+02    21.4906     -0.125     -0.182    24.3224 0.0000e+00
     -0.127      0.005     9.6868    116.403     46.216  45.538977     6.5700     2.6845     0.3834    17.8083 1.9439e+02    21.4455     -0.124     -0.180    24.3131 0.0000e+00
     -0.125      0.006     9.7305    115.989     46.163  45.473859     6.5700     2.5930     0.4260    17.7237 2.2593e+02    20.8893     -0.123     -0.178    24.3025 0.0000e+00
     -0.124      0.008     9.7576    115.420     46.101  45.401414     6.5700     2.5586     0.4260    17.7237 1.7871e+02    20.9044     -0.121     -0.176    24.2899 0.0000e+00
     -0.122      0.009     9.7640    114.783     46.036  45.326100     6.5700     2.5586     0.4260    17.7237 1.9087e+02    20.9795     -0.119     -0.173    24.2760 0.0000e+00
     -0.119      0.011     9.7495    114.196     45.915  45.196128     6.5700     2.5586     0.4260    17.7237 2.0943e+02    20.8593     -0.116     -0.169    24.2619 0.0000e+00
     -0.116      0.013     9.7172    113.811     45.753  45.024394     6.5700     2.6044     0.4260    17.7237 2.1940e+02    22.3322     -0.113     -0.165    24.2482 0.0000e+00
     -0.112      0.013     9.6719    113.777     45.669  44.927577     6.6600     2.5739     0.3834    17.7660 1.6552e+02    22.2721     -0.110     -0.160    24.2353 0.0000e+00
     -0.108      0.012     9.6206    114.250     45.734  44.974966     6.6600     2.5777     0.3834    17.7660 1.8303e+02    22.3623     -0.106     -0.154    24.2231 0.0000e+00
     -0.104      0.010     9.5736    115.457     45.963  45.187123     6.6600     2.5663     0.3834    17.7660 1.3316e+02    22.3473     -0.101     -0.148    24.2111 0.0000e+00
     -0.101      0.006     9.5435    117.738     46.388  45.600808     6.6600     2.6197     0.3834    17.7660 1.5520e+02    21.5958     -0.098     -0.143    24.1981 0.0000e+00
     -0.099      0.002     9.5435    121.513     46.935  46.148004     6.6600     2.6311     0.4260    17.7660 1.4424e+02    21.6108     -0.097     -0.141    24.1823 0.0000e+00
     -0.100     -0.002     9.5862    127.181     47.412  46.637779     6.6600     2.6502     0.4260    17.7660 1.6052e+02    21.6258     -0.098     -0.142    24.1646 0.0000e+00
     -0.102     -0.005     9.6898    134.835     47.736  46.982771     6.6600     2.6121     0.4260    17.7660 1.7617e+02    21.5807     -0.100     -0.145    24.1503 0.0000e+00
     -0.105     -0.005     9.8817    143.982     47.953  47.223460     6.6600     2.5625     0.4260    17.7660 2.1802e+02    21.1749     -0.103     -0.150    24.1457 0.0000e+00
     -0.108     -0.003    10.1963    153.676     48.094  47.388361     6.4800     2.5777     0.4260    17.5968 2.4736e+02    21.1749     -0.106     -0.153    24.1548 0.0000e+00
     -0.110      0.000    10.6671    162.857     48.176  47.493704     6.4800     2.6006     0.4260    17.5968 2.5439e+02    21.1749     -0.107     -0.156    24.1765 0.0000e+00
     -0.109      0.005    11.3029    170.583     48.233  47.571547     6.4800     2.5815     0.4260    17.5968 2.5712e+02    21.0697     -0.107     -0.155    24.2044 0.0000e+00
     -0.107      0.010    12.0633    176.187     48.279  47.634721     6.4800     2.5854     0.4260    17.5968 2.1793e+02    21.1749     -0.104     -0.151    24.2328 0.0000e+00
     -0.103      0.015    12.8692    179.359     48.303  47.672330     6.4800     2.5854     0.4260    17.5968 2.3090e+02    21.0998     -0.100     -0.146    24.2598 0.0000e+00
     -0.098      0.020    13.6321    180.155     48.301  47.680533     6.5700     2.5968     0.4260    17.8083 2.0699e+02    21.1599     -0.096     -0.139    24.2851 0.0000e+00
     -0.092      0.024    14.2733    178.977     48.275  47.657555     6.5700     2.5739     0.4260    17.8083 1.9300e+02    21.1749     -0.090     -0.131    24.3078 0.0000e+00
     -0.086      0.028    14.7375    176.478     48.216  47.595285     6.5700     2.6960     0.4260    17.8083 2.0135e+02    20.9044     -0.084     -0.122    24.3269 0.0000e+00
     -0.079      0.032    14.9990    173.351     48.122  47.490991     6.5700     2.6998     0.4260    17.8083 1.7655e+02    20.9044     -0.077     -0.112    24.3418 0.0000e+00
     -0.070      0.037    15.0631    170.139     48.003  47.352531     6.4800     2.6998     0.3834    17.3430 1.7445e+02    20.8893     -0.069     -0.100    24.3515 0.0000e+00
     -0.061      0.043    14.9638    167.168     47.846  47.164779     6.4800     2.7227     0.3834    17.3430 1.8303e+02    20.8142     -0.060     -0.086    24.3546 0.0000e+00
     -0.049      0.050    14.7560    164.581     47.659  46.933154     6.4800     2.8219     0.3834    17.3430 1.6849e+02    22.1369     -0.048     -0.070    24.3502 0.0000e+00
     -0.035      0.057    14.4979    162.397     47.473  46.689021     6.4800     2.8028     0.3834    17.3430 1.4700e+02    22.1519     -0.035     -0.050    24.3373 0.0000e+00
     -0.020      0.063    14.2350    160.573     47.218  46.371241     6.5700     2.8219     0.4260    17.5122 1.3919e+02    22.0166     -0.019     -0.028    24.3149 0.0000e+00
     -0.002      0.070    13.9953    159.046     46.800  45.877234     6.5700     2.8371     0.4260    17.5122 1.2942e+02    22.0767     -0.002     -0.003    24.2801 0.0000e+00
      0.016      0.077    13.7918    157.697     46.189  45.158492     6.5700     2.9401     0.4260    17.5122 1.1316e+02    21.6258      0.016      0.023    24.2290 0.0000e+00
      0.036      0.085    13.6252    156.355     45.466  44.273017     6.5700     2.9249     0.4260    17.5122 1.1567e+02    21.6559      0.036      0.052    24.1637 0.0000e+00
      0.058      0.092    13.4907    154.851     44.892  43.478031     6.4800     2.9439     0.4260    17.4276 1.0692e+02    21.7160      0.057      0.083    24.0896 0.0000e+00
      0.083      0.097    13.3853    153.137     44.689  43.027121     6.4800     2.9516     0.4260    17.4276 8.9294e+01    21.6859      0.081      0.118    23.9977 0.0000e+00
      0.110      0.100    13.3046    151.410     44.755  42.883238     6.4800     3.4513     0.4260    17.4276 7.4980e+01    22.8583      0.108      0.156    23.8648 0.0000e+00
      0.138      0.101    13.2398    150.020     44.875  42.865359     6.4800     3.4246     0.4260    17.4276 4.9823e+01    22.8132      0.135      0.196    23.6681 0.0000e+00
      0.166      0.099    13.1768    149.226     44.948  42.863709     6.4800     3.4360     0.4260    17.4276 4.7086e+01    22.8282      0.163      0.236    23.4072 0.0000e+00
      0.191      0.096    13.0997    149.080     44.936  42.810491     6.8400     3.4284     0.4260    18.1467 4.6507e+01    22.8282      0.187      0.272    23.1284 0.0000e+00
      0.214      0.091    13.0086    149.491     44.810  42.649908     6.8400     3.5429     0.4260    18.1467 4.4134e+01    22.6328      0.210      0.305    22.8993 0.0000e+00
      0.236      0.086    12.9259    150.281     44.586  42.374804     6.8400     3.5429     0.4260    18.1467 4.2275e+01    22.6629      0.231      0.335    22.7526 0.0000e+00
      0.256      0.082    12.8775    151.209     44.298  42.004932     6.8400     3.5734     0.4260    18.1467 3.9299e+01    22.6629      0.251      0.364    22.6736 0.0000e+00
      0.276      0.079    12.8769    152.010     44.022  41.608073     6.8400     3.5467     0.4260    18.4005 3.8229e+01    22.5427      0.270      0.392    22.6275 0.0000e+00
      0.295      0.079    12.9244    152.446     43.854  41.288388     6.8400     3.3140     0.4260    18.4005 3.6947e+01    19.9425      0.289      0.420    22.5812 0.0000e+00
      0.315      0.079    13.0105    152.467     43.788  41.065615     6.8400     3.3292     0.4260    18.4005 3.5406e+01    20.0176      0.308      0.447    22.5112 0.0000e+00
      0.335      0.079    13.1185    152.261     43.764  40.908072     6.8400     3.3178     0.4260    18.4005 3.0529e+01    20.0176      0.328      0.476    22.4025 0.0000e+00
      0.355      0.080    13.2269    152.073     43.734  40.777704     6.6600     3.2873     0.3834    17.6391 2.7476e+01    19.9725      0.348      0.505    22.2493 0.0000e+00
      0.376      0.081    13.3115    152.037     43.658  40.631817     6.6600     3.2796     0.3834    17.6391 2.5238e+01    20.6940      0.369      0.535    22.0658 0.0000e+00
      0.397      0.082    13.3598    152.157     43.537  40.457260     6.6600     3.2682     0.3834    17.6391 2.5019e+01    20.6639      0.389      0.565    21.8838 0.0000e+00
      0.418      0.082    13.3812    152.349     43.389  40.262953     6.6600     3.2567     0.3834    17.6391 2.2911e+01    20.6639      0.410      0.594    21.7297 0.0000e+00
      0.439      0.082    13.3947    152.476     43.232  40.060470     6.4800     3.2300     0.3408    16.5816 2.0499e+01    20.6639      0.430      0.624    21.6130 0.0000e+00
      0.460      0.082    13.4137    152.389     43.067  39.851279     6.4800     3.0584     0.3408    16.5816 1.8895e+01    19.7471      0.451      0.655    21.5270 0.0000e+00
      0.482      0.082    13.4426    151.952     42.901  39.639024     6.4800     3.0775     0.3408    16.5816 1.7023e+01    19.5817      0.472      0.685    21.4565 0.0000e+00
      0.503      0.082    13.4767    151.078     42.731  39.422564     6.4800     3.0431     0.3408    16.5816 1.6427e+01    19.6869      0.493      0.715    21.3906 0.0000e+00
      0.523      0.082    13.5049    149.778     42.513  39.162005     6.4800     3.0736     0.3408    16.5816 1.5481e+01    19.6869      0.513      0.744    21.3252 0.0000e+00
      0.543      0.082    13.5145    148.122     42.190  38.799746     6.4800     2.9363     0.3408    15.9048 1.4704e+01    16.8913      0.533      0.773    21.2587 0.0000e+00
      0.564      0.084    13.4934    146.177     41.784  38.350113     6.4800     2.9439     0.3408    15.9048 1.4109e+01    16.9064      0.553      0.802    21.1900 0.0000e+00
      0.585      0.085    13.4339    143.953     41.373  37.885339     6.4800     2.9630     0.3408    15.9048 1.3486e+01    16.9214      0.573      0.832    21.1197 0.0000e+00
      0.607      0.087    13.3363    141.398     40.990  37.441923     6.4800     2.9249     0.3408    15.9048 1.2240e+01    16.9364      0.595      0.863    21.0486 0.0000e+00
      0.630      0.088    13.2082    138.416     40.649  37.042246     6.5700     2.8142     0.3408    15.9894 1.0589e+01    16.3352      0.617      0.895    20.9716 0.0000e+00
      0.653      0.088    13.0577    134.912     40.370  36.708465     6.5700     2.8181     0.3408    15.9894 9.4307e+00    16.0647      0.641      0.929    20.8797 0.0000e+00
      0.676      0.088    12.8855    130.833     40.113  36.407027     6.5700     2.8142     0.3408    15.9894 8.4929e+00    16.1849      0.663      0.962    20.7729 0.0000e+00
      0.699      0.086    12.6842    126.194     39.847  36.107062     6.5700     2.8142     0.3408    15.9894 8.0141e+00    16.1999      0.686      0.994    20.6608 0.0000e+00
      0.720      0.084    12.4427    121.104     39.610  35.837508     5.8500     2.5968     0.1704     9.6021 7.7034e+00    13.3593      0.707      1.025    20.5528 0.0000e+00
      0.741      0.082    12.1507    115.729     39.451  35.641354     5.8500     2.5510     0.1704     9.6021 7.3135e+00    13.3292      0.727      1.054    20.4553 0.0000e+00
      0.762      0.080    11.8025    110.212     39.368  35.517784     5.8500     2.5739     0.1704     9.6021 6.7427e+00    13.3142      0.747      1.084    20.3718 0.0000e+00
      0.782      0.079    11.4001    104.652     39.303  35.416017     5.8500     2.5663     0.1704     9.6021 6.2570e+00    13.3593      0.767      1.112    20.2991 0.0000e+00
      0.802      0.078    10.9547     99.169     39.234  35.310898     5.4900     2.4938     0.2130     7.1064 5.7224e+00     9.8121      0.787      1.141    20.2307 0.0000e+00
      0.822      0.078    10.4818     93.930     39.143  35.178354     5.4900     2.5243     0.2130     7.1064 5.5727e+00     9.7520      0.806      1.169    20.1649 0.0000e+00
      0.841      0.078     9.9939     89.062     39.035  35.010766     5.4900     2.5358     0.2130     7.1064 5.3346e+00     9.8572      0.825      1.196    20.1041 0.0000e+00
      0.861      0.079     9.4996     84.518     38.998  34.878310     5.4900     2.4938     0.2130     7.1064 5.2142e+00     9.8572      0.844      1.224    20.0498 0.0000e+00
      0.881      0.081     9.0109     80.059     39.073  34.824878     5.4900     2.4938     0.2130     7.1064 4.6329e+00     6.6558      0.864      1.253    19.9954 0.0000e+00
      0.902      0.082     8.5450     75.292     39.221  34.830273     5.4000     2.5052     0.2130     7.1064 4.2269e+00     6.7610      0.884      1.282    19.9304 0.0000e+00
      0.923      0.083     8.1153     69.785     39.391  34.860280     5.4000     2.5014     0.2130     7.1064 3.8390e+00     6.7310      0.905      1.313    19.8407 0.0000e+00
      0.945      0.083     7.7191     63.290     39.548  34.889227     5.4000     2.5091     0.2130     7.1064 3.4415e+00     6.7761      0.927      1.344    19.7150 0.0000e+00
      0.967      0.083     7.3329     55.869     39.686  34.916907     5.4000     1.8224     0.2130     7.1064 3.1860e+00     4.6267      0.948      1.375    19.5617 0.0000e+00
      0.988      0.082     6.9171     47.860     39.807  34.946737     5.1300     1.8148     0.1278     4.6107 2.8667e+00     4.5065      0.969      1.405    19.4015 0.0000e+00
      1.009      0.080     6.4297     39.815     39.901  34.966864     5.1300     1.8224     0.1278     4.6107 2.6678e+00     4.5215      0.989      1.435    19.2482 0.0000e+00
      1.029      0.078     5.8467     32.410     39.964  34.974730     5.1300     1.8415     0.1278     4.6107 2.5212e+00     4.5666      1.009      1.464    19.1093 0.0000e+00
      1.049      0.075     5.1728     26.302     40.016  34.984315     5.1300     1.5592     0.1278     4.6107 2.2562e+00     3.8602      1.028      1.492    18.9902 0.0000e+00
      1.068      0.074     4.4396     21.951     40.069  35.002136     4.7700     1.5287     0.1278     2.1150 2.1286e+00     3.8903      1.047      1.518    18.8928 0.0000e+00
      1.086      0.073     3.6991     19.512     40.119  35.021061     4.7700     1.5287     0.1278     2.1150 2.1079e+00     3.8452      1.064      1.544    18.8151 0.0000e+00
      1.103      0.072     3.0150     18.821     40.169  35.042174     4.7700     1.5401     0.1278     2.1150 2.0443e+00     3.8903      1.082      1.569    18.7550 0.0000e+00
      1.121      0.073     2.4495     19.480     40.221  35.067145     4.7700     1.6011     0.1278     2.1150 1.9719e+00     3.5596      1.099      1.594    18.7097 0.0000e+00
      1.140      0.074     2.0465     21.016     40.258  35.082827     4.7700     1.5783     0.1278     2.1150 1.8354e+00     3.6498      1.117      1.621    18.6739 0.0000e+00
      1.159      0.076     1.8211     22.992     40.276  35.085479     4.7700     1.5668     0.1278     2.1996 1.6308e+00     3.6648      1.136      1.648    18.6422 0.0000e+00
      1.179      0.077     1.7583     25.066     40.279  35.079767     4.7700     1.5821     0.1278     2.1996 1.4927e+00     3.6648      1.156      1.677    18.6137 0.0000e+00
      1.199      0.077     1.8214     27.013     40.268  35.064170     4.7700     1.4142     0.1278     2.1996 1.4446e+00     3.1388      1.176      1.705    18.5889 0.0000e+00
      1.219      0.078     1.9663     28.725     40.252  35.042450     4.7700     1.3723     0.1278     2.1996 1.3298e+00     3.1838      1.195      1.734    18.5681 0.0000e+00
      1.239      0.078     2.1520     30.187     40.240  35.020698     4.7700     1.4066     0.1278     1.7766 1.2799e+00     3.2289      1.215      1.762    18.5523 0.0000e+00
      1.258      0.078     2.3467     31.433     40.229  34.993113     4.7700     1.3951     0.1278     1.7766 1.2343e+00     3.1989      1.234      1.789    18.5419 0.0000e+00
      1.277      0.078     2.5294     32.504     40.208  34.952338     4.7700     1.2235     0.1278     1.7766 1.1994e+00     2.7931      1.253      1.817    18.5341 0.0000e+00
      1.297      0.078     2.6902     33.437     40.178  34.899381     4.7700     1.2082     0.1278     1.7766 1.1506e+00     2.7179      1.272      1.845    18.5245 0.0000e+00
      1.317      0.079     2.8281     34.251     40.138  34.835965     4.7700     1.2197     0.0852     1.3959 1.0455e+00     2.8231      1.292      1.873    18.5098 0.0000e+00
      1.337      0.080     2.9461     34.947     40.099  34.770921     4.7700     1.2349     0.0852     1.3959 9.8653e-01     2.7179      1.311      1.902    18.4881 0.0000e+00
      1.357      0.081     3.0484     35.512     40.072  34.712652     4.7700     1.1052     0.0852     1.3959 9.8717e-01     2.5676      1.331      1.931    18.4596 0.0000e+00
      1.378      0.082     3.1380     35.931     40.051  34.651558     4.7700     1.1129     0.0852     1.3959 9.1012e-01     2.5225      1.351      1.959    18.4263 0.0000e+00
      1.398      0.083     3.2167     36.191     40.026  34.579267     4.6800     1.0823     0.0852     1.1421 9.1349e-01     2.5526      1.371      1.989    18.3904 0.0000e+00
      1.420      0.085     3.2847     36.296     40.000  34.500267     4.6800     1.0823     0.0852     1.1421 8.3981e-01     2.5376      1.392      2.019    18.3517 0.0000e+00
      1.442      0.086     3.3407     36.266     39.972  34.419231     4.6800     0.7047     0.0852     1.1421 7.9161e-01     1.8161      1.414      2.051    18.3078 0.0000e+00
      1.464      0.088     3.3837     36.120     39.945  34.342275     4.6800     0.7009     0.0852     1.1421 7.2256e-01     1.8011      1.436      2.083    18.2546 0.0000e+00
      1.487      0.088     3.4125     35.869     39.929  34.278581     4.6800     0.7238     0.0852     1.1421 7.0167e-01     1.7710      1.459      2.115    18.1908 0.0000e+00
      1.510      0.089     3.4273     35.523     39.925  34.230965     4.6800     0.7238     0.0852     0.8037 6.6385e-01     1.8462      1.481      2.148    18.1205 0.0000e+00
      1.532      0.089     3.4294     35.110     39.929  34.196630     4.6800     0.7276     0.0852     0.8037 6.1684e-01     2.0115      1.503      2.180    18.0496 0.0000e+00
      1.555      0.088     3.4202     34.680     39.935  34.170380     4.6800     0.7428     0.0852     0.8037 6.0371e-01     2.0115      1.525      2.212    17.9822 0.0000e+00
      1.578      0.086     3.4007     34.265     39.935  34.145212     4.6800     0.7581     0.0852     0.8037 5.9035e-01     2.1017      1.547      2.244    17.9202 0.0000e+00
      1.600      0.085     3.3717     33.876     39.927  34.118377     4.5000     0.7428     0.0426     0.4653 5.9086e-01     2.0265      1.569      2.276    17.8649 0.0000e+00
      1.621      0.084     3.3358     33.525     39.915  34.090639     4.5000     0.7428     0.0426     0.4653 5.7378e-01     1.8161      1.590      2.306    17.8174 0.0000e+00
      1.642      0.082     3.2976     33.226     39.895  34.054601     4.5000     0.7352     0.0426     0.4653 5.6414e-01     1.8462      1.610      2.336    17.7782 0.0000e+00
      1.662      0.081     3.2602     32.986     39.865  34.004613     4.5000     0.7161     0.0426     0.4653 5.2476e-01     1.7560      1.630      2.365    17.7468 0.0000e+00
      1.683      0.080     3.2249     32.795     39.838  33.951110     4.5000     0.7428     0.0426     0.4653 4.8055e-01     1.8011      1.650      2.393    17.7217 0.0000e+00
      1.703      0.079     3.1930     32.627     39.820  33.899625     4.5000     0.5597     0.0426     0.4653 4.9518e-01     1.5606      1.670      2.423    17.6998 0.0000e+00
      1.724      0.078     3.1661     32.447     39.808  33.852272     4.5000     0.5597     0.0426     0.4653 4.9486e-01     1.6508      1.691      2.452    17.6762 0.0000e+00
      1.744      0.077     3.1451     32.219     39.805  33.816225     4.5000     0.5635     0.0426     0.4653 4.9777e-01     1.5456      1.710      2.481    17.6459 0.0000e+00
      1.764      0.075     3.1294     31.910     39.807  33.789790     4.3200     0.5521     0.0426     0.3807 4.7878e-01     1.5756      1.730      2.509    17.6067 0.0000e+00
      1.783      0.073     3.1163     31.495     39.809  33.765917     4.3200     0.4987     0.0426     0.3807 4.9507e-01     1.1848      1.748      2.535    17.5612 0.0000e+00
      1.801      0.070     3.1020     30.975     39.813  33.744182     4.3200     0.4987     0.0426     0.3807 4.5991e-01     1.4704      1.766      2.561    17.5151 0.0000e+00
      1.818      0.068     3.0829     30.377     39.813  33.720766     4.3200     0.4987     0.0426     0.3807 4.7826e-01     1.1999      1.783      2.586    17.4733 0.0000e+00
      1.835      0.066     3.0556     29.740     39.783  33.675563     4.3200     0.4834     0.0426     0.3807 4.4266e-01     1.3051      1.800      2.610    17.4376 0.0000e+00
      1.851      0.066     3.0178     29.105     39.702  33.586615     4.2300     0.4567     0.0426     0.2538 4.5494e-01     1.3351      1.816      2.633    17.4055 0.0000e+00
      1.867      0.068     2.9699     28.513     39.559  33.434166     4.2300     0.4300     0.0426     0.2538 4.5159e-01     1.3502      1.831      2.656    17.3741 0.0000e+00
      1.883      0.071     2.9144     28.011     39.368  33.219150     4.2300     0.4148     0.0426     0.2538 4.8055e-01     1.2149      1.847      2.678    17.3447 0.0000e+00
      1.900      0.077     2.8547     27.623     39.177  32.977302     4.2300     0.4300     0.0426     0.2538 4.8749e-01     1.2750      1.864      2.703    17.3195 0.0000e+00
      1.920      0.083     2.7952     27.315     39.025  32.747103     4.1400     0.4338     0.0426     0.3807 4.8359e-01     1.0345      1.883      2.730    17.2931 0.0000e+00
      1.943      0.089     2.7406     27.015     38.932  32.560233     4.1400     0.4376     0.0426     0.3807 4.5455e-01     1.0646      1.905      2.763    17.2529 0.0000e+00
      1.968      0.094     2.6962     26.657     38.903  32.434181     4.1400     0.4491     0.0426     0.3807 4.4227e-01     1.0345      1.930      2.799    17.1844 0.0000e+00
      1.994      0.096     2.6646     26.214     38.912  32.357112     4.1400     0.4376     0.0426     0.3807 4.1024e-01     0.9894      1.956      2.837    17.0806 0.0000e+00
      2.020      0.096     2.6420     25.688     38.940  32.312430     4.1400     0.3652     0.0426     0.1269 4.2181e-01     1.3051      1.981      2.874    16.9501 0.0000e+00
      2.045      0.094     2.6205     25.101     38.981  32.292180     4.1400     0.3919     0.0426     0.1269 4.1229e-01     1.3051      2.006      2.909    16.8111 0.0000e+00
      2.069      0.091     2.5928     24.474     39.029  32.285020     4.1400     0.3728     0.0426     0.1269 3.8686e-01     1.2299      2.029      2.943    16.6814 0.0000e+00
      2.091      0.088     2.5554     23.835     39.079  32.283098     4.1400     0.3804     0.0426     0.1269 4.0011e-01     1.2600      2.051      2.975    16.5725 0.0000e+00
      2.113      0.085     2.5088     23.207     39.127  32.277981     3.9600     0.3728     0.0426     0.1692 3.7789e-01     1.6508      2.072      3.005    16.4862 0.0000e+00
      2.133      0.084     2.4550     22.583     39.168  32.260381     3.9600     0.3690     0.0426     0.1692 3.9656e-01     1.6658      2.092      3.035    16.4167 0.0000e+00
      2.154      0.082     2.3966     21.926     39.219  32.239466     3.9600     0.3919     0.0426     0.1692 3.9700e-01     1.6508      2.113      3.064    16.3569 0.0000e+00
      2.175      0.082     2.3367     21.174     39.287  32.223517     3.9600     0.3690     0.0426     0.1692 3.9407e-01     1.5305      2.133      3.094    16.3013 0.0000e+00
      2.196      0.081     2.2777     20.259     39.355  32.208278     3.9600     0.3575     0.0426     0.1692 3.8753e-01     1.7860      2.153      3.124    16.2443 0.0000e+00
      2.217      0.081     2.2194     19.119     39.425  32.199583     3.9600     0.3919     0.0426     0.2115 3.7551e-01     1.7860      2.174      3.153    16.1788 0.0000e+00
      2.238      0.080     2.1583     17.720     39.510  32.205011     3.9600     0.3804     0.0426     0.2115 3.9648e-01     1.8462      2.194      3.183    16.0992 0.0000e+00
      2.258      0.079     2.0881     16.086     39.616  32.216110     3.9600     0.3652     0.0426     0.2115 3.9968e-01     1.8311      2.214      3.211    16.0083 0.0000e+00
      2.278      0.079     2.0014     14.300     39.735  32.225935     3.9600     0.3537     0.0426     0.2115 3.7904e-01     2.2971      2.234      3.240    15.9174 0.0000e+00
      2.297      0.078     1.8917     12.459     39.859  32.239082     3.8700     0.4071     0.0426     0.1692 3.8518e-01     2.3121      2.253      3.268    15.8347 0.0000e+00
      2.317      0.077     1.7558     10.622     39.971  32.255091     3.8700     0.3804     0.0426     0.1692 3.9450e-01     2.2670      2.273      3.296    15.7534 0.0000e+00
      2.337      0.076     1.5966      8.814     40.058  32.266347     3.8700     0.3766     0.0426     0.1692 3.7049e-01     2.2670      2.292      3.325    15.6592 0.0000e+00
      2.357      0.075     1.4222      7.063     40.123  32.271890     3.8700     0.3690     0.0426     0.1692 3.3423e-01     2.4474      2.312      3.353    15.5499 0.0000e+00
      2.376      0.073     1.2418      5.421     40.182  32.279137     3.7800     0.3499     0.0852     0.2115 3.7033e-01     2.4925      2.330      3.380    15.4401 0.0000e+00
      2.395      0.071     1.0607      3.953     40.243  32.292001     3.7800     0.3766     0.0852     0.2115 3.6474e-01     2.4774      2.348      3.406    15.3459 0.0000e+00
      2.412      0.069     0.8815      2.709     40.318  32.317870     3.7800     0.3957     0.0852     0.2115 3.5736e-01     2.4774      2.366      3.432    15.2725 0.0000e+00
      2.429      0.068     0.7072      1.718     40.431  32.369585     3.7800     0.6894     0.0852     0.2115 3.5427e-01     2.8832      2.382      3.456    15.2141 0.0000e+00
      2.446      0.067     0.5432      0.995     40.588  32.451033     3.7800     0.6856     0.0852     0.2115 3.4839e-01     2.8682      2.399      3.480    15.1635 0.0000e+00
      2.463      0.067     0.3964      0.549     40.778  32.554228     3.7800     0.6856     0.0852     0.2115 3.5798e-01     2.9734      2.415      3.504    15.1186 0.0000e+00
      2.480      0.067     0.2718      0.353     40.977  32.659162     3.7800     0.6894     0.0852     0.2115 3.4254e-01     2.9885      2.432      3.528    15.0759 0.0000e+00
      2.497      0.069     0.1723      0.335     41.168  32.754210     3.7800     0.6780     0.0852     0.2115 3.4239e-01     3.4093      2.449      3.552    15.0290 0.0000e+00
      2.514      0.071     0.0998      0.393     41.357  32.842932     3.7800     0.6856     0.0852     0.2115 3.4545e-01     3.3943      2.466      3.576    14.9749 0.0000e+00
      2.532      0.075     0.0550      0.441     41.555  32.929184     3.8700     0.6780     0.1278     0.8037 3.6680e-01     3.4995      2.483      3.602    14.9149 0.0000e+00
      2.551      0.080     0.0355      0.428     41.798  33.039924     3.8700     0.6780     0.1278     0.8037 3.6017e-01     3.3792      2.501      3.628    14.8502 0.0000e+00
      2.571      0.085     0.0338      0.334     42.147  33.226463     3.8700     0.4949     0.1278     0.8037 3.6960e-01     3.6348      2.521      3.657    14.7812 0.0000e+00
      2.594      0.091     0.0398      0.166     42.599  33.494974     3.8700     0.5063     0.1278     0.8037 3.4938e-01     3.5897      2.544      3.689    14.7066 0.0000e+00
      2.618      0.095     0.0448     -0.057     43.107  33.812100     3.8700     0.5292     0.1278     0.3807 3.4321e-01     3.6047      2.568      3.725    14.6220 0.0000e+00
      2.645      0.099     0.0434     -0.305     43.593  34.115855     3.8700     0.4834     0.1278     0.3807 3.0468e-01     3.7851      2.594      3.762    14.5248 0.0000e+00
      2.671      0.100     0.0339     -0.543     43.949  34.322865     3.8700     0.3613     0.1278     0.3807 3.3517e-01     3.4544      2.620      3.799    14.4203 0.0000e+00
      2.698      0.100     0.0167     -0.740     44.136  34.401191     3.8700     0.3499     0.1278     0.3807 3.1361e-01     3.4394      2.645      3.837    14.3176 0.0000e+00
      2.723      0.099    -0.0062     -0.873     44.123  34.326167     3.9600     0.3842     0.0852     0.4230 3.0574e-01     3.3943      2.670      3.874    14.2215 0.0000e+00
      2.748      0.097    -0.0316     -0.932     43.908  34.093627     3.9600     0.3919     0.0852     0.4230 3.1320e-01     3.4694      2.695      3.909    14.1320 0.0000e+00
      2.773      0.095    -0.0562     -0.911     43.585  33.774249     3.9600     0.3156     0.0852     0.4230 2.9832e-01     3.9053      2.719      3.944    14.0484 0.0000e+00
      2.796      0.093    -0.0765     -0.812     43.308  33.484865     3.9600     0.3079     0.0852     0.4230 3.4575e-01     3.8752      2.742      3.977    13.9703 0.0000e+00
      2.819      0.091    -0.0903     -0.647     43.212  33.330497     3.9600     0.3118     0.0852     0.4230 2.9684e-01     3.7550      2.765      4.010    13.8949 0.0000e+00
      2.842      0.089    -0.0964     -0.436     43.305  33.319484     3.9600     0.3156     0.1278     0.3384 2.9845e-01     3.8602      2.787      4.042    13.8191 0.0000e+00
      2.865      0.087    -0.0943     -0.196     43.506  33.393437     3.9600     0.3690     0.1278     0.3384 2.9503e-01     4.1458      2.809      4.074    13.7401 0.0000e+00
      2.887      0.085    -0.0841      0.056     43.727  33.488902     3.9600     0.3842     0.1278     0.3384 2.7083e-01     4.0857      2.831      4.106    13.6546 0.0000e+00
      2.909      0.082    -0.0671      0.304     43.899  33.560038     3.9600     0.3613     0.1278     0.3384 2.7094e-01     4.1758      2.853      4.138    13.5627 0.0000e+00
      2.930      0.079    -0.0451      0.535     44.033  33.615913     3.9600     0.3766     0.0852     0.2538 2.6645e-01     4.1157      2.873      4.167    13.4687 0.0000e+00
      2.950      0.076    -0.0202      0.744     44.182  33.697169     3.9600     0.2927     0.0852     0.2538 2.5368e-01     4.1458      2.893      4.195    13.3767 0.0000e+00
      2.968      0.074     0.0061      0.934     44.371  33.815573     3.9600     0.3308     0.0852     0.2538 2.7552e-01     4.0857      2.911      4.221    13.2925 0.0000e+00
      2.985      0.074     0.0321      1.105     44.617  33.974973     3.9600     0.3156     0.0852     0.2538 2.7390e-01     4.1007      2.927      4.246    13.2229 0.0000e+00
      3.002      0.077     0.0563      1.253     44.911  34.158465     4.1400     0.3194     0.1278     0.2115 2.7094e-01     4.1608      2.944      4.270    13.1703 0.0000e+00
      3.021      0.082     0.0783      1.384     45.165  34.290213     4.1400     0.3041     0.1278     0.2115 2.2108e-01     4.3111      2.963      4.297    13.1327 0.0000e+00
      3.042      0.088     0.0983      1.501     45.332  34.339992     4.1400     0.3079     0.1278     0.2115 2.3150e-01     4.4013      2.983      4.326    13.1036 0.0000e+00
      3.066      0.095     0.1163      1.602     45.459  34.354741     4.1400     0.3079     0.1278     0.2115 2.4474e-01     4.3412      3.006      4.360    13.0728 0.0000e+00
      3.092      0.101     0.1321      1.686     45.550  34.348291     4.1400     0.3003     0.1278     0.2538 2.5925e-01     4.3412      3.032      4.397    13.0276 0.0000e+00
      3.119      0.107     0.1461      1.752     45.576  34.299116     4.1400     0.2545     0.1278     0.2538 2.1478e-01     5.6789      3.059      4.437    12.9599 0.0000e+00
      3.148      0.112     0.1587      1.804     45.536  34.202022     4.1400     0.2545     0.1278     0.2538 2.0458e-01     5.7540      3.087      4.477    12.8741 0.0000e+00
      3.176      0.116     0.1697      1.846     45.443  34.068743     4.1400     0.2507     0.1278     0.2538 1.9355e-01     5.7239      3.115      4.518    12.7845 0.0000e+00
      3.206      0.119     0.1789      1.882     45.346  33.937011     4.1400     0.2851     0.1278     0.2538 1.8228e-01     5.6939      3.144      4.560    12.7018 0.0000e+00
      3.237      0.120     0.1863      1.917     45.296  33.844972     4.2300     0.1859     0.1278     0.1269 1.9317e-01     6.2049      3.175      4.605    12.6255 0.0000e+00
      3.269      0.121     0.1921      1.958     45.293  33.793826     4.2300     0.1897     0.1278     0.1269 1.9380e-01     6.2801      3.206      4.650    12.5522 0.0000e+00
      3.301      0.121     0.1968      2.013     45.319  33.769930     4.2300     0.2164     0.1278     0.1269 2.0925e-01     6.2801      3.237      4.695    12.4822 0.0000e+00
      3.332      0.121     0.2010      2.096     45.363  33.764933     4.2300     0.1592     0.1278     0.1269 1.8415e-01     6.1748      3.267      4.739    12.4167 0.0000e+00
      3.362      0.120     0.2050      2.214     45.420  33.773539     4.1400     0.1897     0.1704     0.1692 1.7156e-01     6.4304      3.297      4.782    12.3569 0.0000e+00
      3.392      0.119     0.2096      2.365     45.499  33.798042     4.1400     0.1782     0.1704     0.1692 1.8244e-01     6.5055      3.327      4.825    12.3032 0.0000e+00
      3.422      0.119     0.2158      2.550     45.617  33.846957     4.1400     0.2088     0.1704     0.1692 1.6696e-01     6.4905      3.356      4.867    12.2554 0.0000e+00
      3.452      0.120     0.2250      2.767     45.777  33.915504     4.1400     0.1706     0.1704     0.1692 1.6084e-01     6.4754      3.385      4.910    12.2140 0.0000e+00
      3.482      0.121     0.2378      3.027     45.950  33.980371     4.1400     0.1744     0.1704     0.0846 1.6624e-01     6.9714      3.415      4.952    12.1770 0.0000e+00
      3.513      0.123     0.2543      3.346     46.103  34.023207     4.1400     0.2011     0.1704     0.0846 1.6091e-01     7.0165      3.445      4.997    12.1397 0.0000e+00
      3.545      0.124     0.2744      3.764     46.219  34.039587     4.1400     0.2011     0.1704     0.0846 1.7067e-01     6.9714      3.477      5.042    12.0972 0.0000e+00
      3.578      0.124     0.2983      4.337     46.297  34.033876     4.1400     0.1935     0.1704     0.0846 1.6105e-01     7.0015      3.509      5.089    12.0430 0.0000e+00
      3.610      0.123     0.3268      5.136     46.354  34.020394     4.1400     0.1515     0.1704     0.0846 1.7268e-01     8.1137      3.541      5.135    11.9742 0.0000e+00
      3.642      0.120     0.3620      6.234     46.394  34.003465     4.1400     0.1363     0.1704     0.0846 1.6703e-01     8.2189      3.572      5.180    11.8976 0.0000e+00
      3.672      0.116     0.4079      7.686     46.394  33.966689     4.1400     0.1210     0.1704     0.0846 1.5494e-01     8.1438      3.601      5.224    11.8227 0.0000e+00
      3.701      0.113     0.4708      9.520     46.353  33.904221     4.1400     0.1134     0.1704     0.0846 1.4440e-01     8.1889      3.630      5.265    11.7540 0.0000e+00
      3.729      0.110     0.5583     11.712     46.287  33.823167     4.1400     0.1210     0.1704     0.0846 1.3438e-01     8.5346      3.657      5.304    11.6938 0.0000e+00
      3.756      0.108     0.6784     14.193     46.208  33.729637     4.1400     0.1134     0.2130     0.1269 1.1673e-01     8.6698      3.684      5.342    11.6443 0.0000e+00
      3.782      0.107     0.8372     16.876     46.130  33.628396     4.1400     0.1058     0.2130     0.1269 1.6091e-01     8.5646      3.709      5.379    11.6041 0.0000e+00
      3.808      0.107     1.0376     19.693     46.056  33.524130     4.1400     0.1515     0.2130     0.1269 1.1813e-01     8.6097      3.735      5.417    11.5687 0.0000e+00
      3.836      0.107     1.2775     22.633     45.992  33.426660     4.1400     0.1630     0.2130     0.1269 1.3535e-01     6.9865      3.762      5.456    11.5338 0.0000e+00
      3.864      0.107     1.5495     25.764     45.924  33.329796     4.0500     0.1439     0.2130     0.1692 1.1623e-01     6.9414      3.789      5.496    11.4942 0.0000e+00
      3.892      0.107     1.8443     29.214     45.820  33.211667     4.0500     0.1363     0.2130     0.1692 1.1602e-01     6.9414      3.817      5.536    11.4463 0.0000e+00
      3.920      0.106     2.1548     33.114     45.689  33.074436     4.0500     0.1592     0.2130     0.1692 1.1617e-01     7.0015      3.844      5.575    11.3918 0.0000e+00
      3.947      0.104     2.4794     37.538     45.581  32.950820     4.0500     0.1592     0.2130     0.1692 1.3189e-01     5.3782      3.870      5.613    11.3360 0.0000e+00
      3.973      0.102     2.8254     42.462     45.528  32.865282     3.9600     0.1554     0.1278     0.1269 1.3204e-01     5.2881      3.896      5.650    11.2841 0.0000e+00
      3.998      0.099     3.2070     47.781     45.519  32.816793     3.9600     0.1286     0.1278     0.1269 1.1602e-01     5.3031      3.921      5.687    11.2376 0.0000e+00
      4.024      0.096     3.6388     53.357     45.535  32.796381     3.9600     0.1210     0.1278     0.1269 1.1623e-01     5.2430      3.946      5.723    11.1920 0.0000e+00
      4.048      0.093     4.1294     59.035     45.544  32.780779     3.9600     0.1172     0.1278     0.1269 1.1602e-01     5.3031      3.970      5.757    11.1424 0.0000e+00
      4.071      0.092     4.6762     64.623     45.519  32.746023     3.7800     0.1019     0.1278     0.0846 1.2234e-01     5.1829      3.992      5.790    11.0905 0.0000e+00
      4.093      0.092     5.2668     69.880     45.483  32.698689     3.7800     0.1210     0.1278     0.0846 1.1605e-01     5.1829      4.014      5.821    11.0442 0.0000e+00
      4.115      0.093     5.8851     74.553     45.463  32.653878     3.7800     0.1248     0.1278     0.0846 1.1633e-01     5.2730      4.035      5.853    11.0094 0.0000e+00
      4.138      0.096     6.5142     78.450     45.459  32.613502     3.7800     0.1630     0.1278     0.0846 1.1612e-01     5.0476      4.058      5.886    10.9860 0.0000e+00
      4.163      0.099     7.1334     81.505     45.459  32.574712     3.7800     0.1477     0.1278     0.0846 1.1605e-01     5.0175      4.083      5.921    10.9670 0.0000e+00
      4.190      0.102     7.7176     83.783     45.458  32.539044     3.7800     0.1096     0.1278     0.1692 1.1607e-01     5.0175      4.109      5.959    10.9433 0.0000e+00
      4.217      0.104     8.2399     85.439     45.464  32.512829     3.7800     0.1439     0.1278     0.1692 1.1625e-01     5.0626      4.135      5.998    10.9098 0.0000e+00
      4.244      0.105     8.6786     86.672     45.474  32.496994     3.7800     0.1096     0.1278     0.1692 1.2247e-01     4.7620      4.162      6.037    10.8689 0.0000e+00
      4.271      0.104     9.0250     87.690     45.480  32.483358     3.7800     0.1210     0.1278     0.1692 1.1617e-01     4.7620      4.189      6.075    10.8264 0.0000e+00
      4.298      0.103     9.2852     88.670     45.476  32.468282     3.7800     0.1439     0.0852     0.1692 1.1612e-01     4.8221      4.215      6.113    10.7873 0.0000e+00
      4.324      0.102     9.4754     89.696     45.470  32.455667     3.7800     0.0943     0.0852     0.1692 1.1617e-01     4.7921      4.240      6.150    10.7544 0.0000e+00
      4.350      0.101     9.6175     90.727     45.469  32.450070     3.7800     0.1515     0.0852     0.1692 1.1620e-01     5.0776      4.265      6.186    10.7286 0.0000e+00
      4.375      0.100     9.7346     91.627     45.474  32.449999     3.7800     0.1439     0.0852     0.1692 1.1620e-01     4.9875      4.290      6.223    10.7095 0.0000e+00
      4.400      0.100     9.8462     92.243     45.473  32.447513     3.7800     0.1210     0.1278     0.1269 1.1623e-01     5.1077      4.315      6.259    10.6961 0.0000e+00
      4.426      0.100     9.9622     92.467     45.474  32.445912     3.7800     0.1363     0.1278     0.1269 1.1623e-01     5.0776      4.340      6.294    10.6869 0.0000e+00
      4.451      0.101    10.0780     92.267     45.487  32.452687     3.7800     0.1325     0.1278     0.1269 1.1617e-01     5.1227      4.365      6.330    10.6808 0.0000e+00
      4.477      0.101    10.1788     91.678     45.497  32.457765     3.7800     0.1554     0.1278     0.1269 1.1610e-01     5.0025      4.390      6.367    10.6772 0.0000e+00
      4.503      0.102    10.2476     90.771     45.490  32.450617     3.7800     0.1248     0.1278     0.1269 1.1612e-01     5.2129      4.416      6.405    10.6750 0.0000e+00
      4.529      0.103    10.2730     89.645     45.480  32.441219     3.7800     0.1477     0.0852     0.1269 1.1610e-01     5.0175      4.442      6.442    10.6727 0.0000e+00
      4.556      0.103    10.2515     88.408     45.481  32.438946     3.7800     0.1363     0.0852     0.1269 1.1605e-01     5.0175      4.468      6.480    10.6700 0.0000e+00
      4.582      0.104    10.1865     87.153     45.485  32.439233     3.7800     0.1363     0.0852     0.1269 1.1623e-01     5.1077      4.494      6.517    10.6675 0.0000e+00
      4.609      0.104    10.0863     85.948     45.486  32.438194     3.7800     0.1286     0.0852     0.1269 1.1617e-01     5.0175      4.520      6.555    10.6652 0.0000e+00
      4.635      0.104     9.9618     84.830     45.484  32.435553     3.7800     0.1210     0.0852     0.0846 1.1623e-01     5.0025      4.546      6.593    10.6628 0.0000e+00
      4.662      0.104     9.8249     83.814     45.477  32.430604     3.7800     0.1401     0.0852     0.0846 1.1605e-01     4.7770      4.572      6.631    10.6598 0.0000e+00
      4.688      0.105     9.6861     82.913     45.472  32.425990     3.7800     0.1363     0.0852     0.0846 1.1628e-01     4.9574      4.598      6.668    10.6569 0.0000e+00
      4.715      0.107     9.5527     82.131     45.479  32.428401     3.7800     0.1401     0.0852     0.0846 1.1615e-01     4.8823      4.624      6.705    10.6548 0.0000e+00
      4.742      0.108     9.4287     81.452     45.491  32.434518     3.8700     0.1363     0.0852     0.0846 1.1612e-01     4.8973      4.650      6.744    10.6537 0.0000e+00
      4.770      0.109     9.3159     80.856     45.500  32.438051     3.8700     0.1401     0.0852     0.0846 1.1605e-01     4.7921      4.678      6.784    10.6532 0.0000e+00
      4.799      0.110     9.2160     80.331     45.513  32.443905     3.8700     0.1554     0.0852     0.0846 1.1617e-01     4.8221      4.706      6.825    10.6521 0.0000e+00
      4.828      0.109     9.1296     79.878     45.524  32.449678     3.8700     0.1058     0.0852     0.0846 1.1607e-01     4.7921      4.734      6.866    10.6498 0.0000e+00
      4.856      0.108     9.0548     79.509     45.521  32.445028     3.7800     0.1019     0.0852     0.2115 1.1617e-01     4.7620      4.762      6.906    10.6468 0.0000e+00
      4.883      0.106     8.9892     79.227     45.508  32.432677     3.7800     0.1286     0.0852     0.2115 1.1623e-01     5.1077      4.788      6.945    10.6434 0.0000e+00
      4.909      0.104     8.9314     79.027     45.502  32.425172     3.7800     0.1363     0.0852     0.2115 1.1612e-01     5.0326      4.814      6.983    10.6402 0.0000e+00
      4.936      0.102     8.8817     78.906     45.505  32.424473     3.7800     0.1325     0.0852     0.2115 1.1605e-01     5.0776      4.840      7.020    10.6372 0.0000e+00
      4.961      0.101     8.8412     78.859     45.506  32.422473     3.7800     0.1363     0.0852     0.2115 1.1610e-01     5.1378      4.865      7.056    10.6345 0.0000e+00
      4.987      0.101     8.8105     78.873     45.505  32.418637     3.7800     0.1515     0.1278     0.1692 1.1607e-01     5.1077      4.890      7.092    10.6316 0.0000e+00
      5.012      0.101     8.7890     78.923     45.511  32.419863     3.7800     0.1134     0.1278     0.1692 1.1612e-01     4.9875      4.915      7.128    10.6283 0.0000e+00
      5.037      0.102     8.7762     78.992     45.524  32.426479     3.7800     0.1210     0.1278     0.1692 1.1600e-01     5.0476      4.940      7.164    10.6250 0.0000e+00
      5.064      0.102     8.7717     79.067     45.530  32.428366     3.7800     0.1134     0.1278     0.1692 1.1612e-01     5.0776      4.966      7.202    10.6218 0.0000e+00
      5.090      0.102     8.7738     79.142     45.523  32.422068     3.7800     0.1210     0.1278     0.1692 1.1612e-01     5.0927      4.992      7.240    10.6186 0.0000e+00
      5.117      0.102     8.7801     79.214     45.520  32.417787     3.7800     0.1325     0.1278     0.1692 1.1605e-01     5.0476      5.018      7.278    10.6153 0.0000e+00
      5.143      0.101     8.7884     79.282     45.528  32.422302     3.7800     0.1439     0.1278     0.1692 1.1612e-01     5.1077      5.043      7.315    10.6123 0.0000e+00
      5.168      0.100     8.7972     79.328     45.539  32.428896     3.7800     0.1248     0.1278     0.1692 1.1607e-01     5.1077      5.068      7.351    10.6098 0.0000e+00
      5.193      0.099     8.8060     79.345     45.544  32.431406     3.7800     0.1058     0.0852     0.0423 1.1602e-01     5.0927      5.093      7.387    10.6078 0.0000e+00
      5.219      0.099     8.8144     79.349     45.550  32.434462     3.7800     0.1210     0.0852     0.0423 1.1623e-01     5.0175      5.118      7.423    10.6062 0.0000e+00
      5.244      0.099     8.8221     79.347     45.553  32.434918     3.7800     0.1592     0.0852     0.0423 1.1605e-01     5.0175      5.142      7.458    10.6047 0.0000e+00
      5.268      0.099     8.8276     79.337     45.546  32.428935     3.7800     0.1515     0.0852     0.0423 1.1612e-01     5.1227      5.166      7.493    10.6032 0.0000e+00
      5.293      0.100     8.8298     79.318     45.545  32.426799     3.7800     0.1134     0.1278     0.1692 1.1612e-01     5.0175      5.191      7.529    10.6017 0.0000e+00
      5.319      0.101     8.8305     79.291     45.559  32.435862     3.7800     0.1286     0.1278     0.1692 1.1612e-01     5.2881      5.216      7.565    10.6004 0.0000e+00
      5.346      0.101     8.8306     79.258     45.581  32.450620     3.7800     0.1248     0.1278     0.1692 1.1615e-01     5.2881      5.242      7.603    10.5991 0.0000e+00
      5.372      0.101     8.8297     79.230     45.595  32.459166     3.7800     0.1286     0.1278     0.1692 1.1595e-01     5.2430      5.268      7.641    10.5978 0.0000e+00
      5.398      0.101     8.8278     79.203     45.597  32.459817     3.7800     0.1286     0.1278     0.1692 1.1610e-01     5.2430      5.294      7.678    10.5964 0.0000e+00
      5.424      0.100     8.8251     79.166     45.605  32.464630     3.7800     0.1477     0.1278     0.1269 1.1610e-01     5.1077      5.319      7.714    10.5951 0.0000e+00
      5.449      0.099     8.8217     79.117     45.621  32.474887     3.7800     0.1477     0.1278     0.1269 1.1623e-01     5.1077      5.343      7.750    10.5939 0.0000e+00
      5.473      0.098     8.8188     79.058     45.626  32.477482     3.7800     0.1172     0.1278     0.1269 1.1605e-01     5.0175      5.367      7.785    10.5927 0.0000e+00
      5.498      0.096     8.8161     78.989     45.620  32.473106     3.7800     0.1134     0.1278     0.1269 1.1600e-01     5.0927      5.392      7.820    10.5916 0.0000e+00
      5.523      0.095     8.8122     78.905     45.613  32.468514     3.7800     0.1363     0.1704     0.2115 1.1620e-01     5.3782      5.417      7.856    10.5905 0.0000e+00
      5.548      0.095     8.8069     78.804     45.604  32.462481     3.7800     0.1172     0.1704     0.2115 1.1605e-01     5.3782      5.440      7.890    10.5895 0.0000e+00
      5.571      0.095     8.8005     78.688     45.591  32.453399     3.7800     0.1363     0.1704     0.2115 1.1623e-01     5.3031      5.463      7.924    10.5888 0.0000e+00
      5.594      0.095     8.7929     78.573     45.582  32.446766     3.7800     0.1592     0.1704     0.2115 1.1623e-01     5.3332      5.486      7.957    10.5884 0.0000e+00
      5.618      0.096     8.7836     78.479     45.584  32.448736     3.8700     0.1248     0.1278     0.1692 1.1628e-01     5.1378      5.510      7.991    10.5884 0.0000e+00
      5.643      0.096     8.7723     78.415     45.589  32.451911     3.8700     0.1286     0.1278     0.1692 1.1612e-01     5.0626      5.534      8.027    10.5888 0.0000e+00
      5.669      0.095     8.7592     78.384     45.591  32.453178     3.8700     0.1363     0.1278     0.1692 1.1610e-01     5.0476      5.559      8.063    10.5893 0.0000e+00
      5.694      0.094     8.7464     78.390     45.590  32.452874     3.8700     0.1019     0.1278     0.1692 1.1610e-01     5.0776      5.584      8.099    10.5896 0.0000e+00
      5.718      0.092     8.7359     78.425     45.587  32.450920     3.7800     0.2088     0.0852     0.0846 1.1612e-01     5.3332      5.607      8.133    10.5895 0.0000e+00
      5.741      0.091     8.7287     78.474     45.586  32.450754     3.7800     0.1668     0.0852     0.0846 1.1617e-01     5.3332      5.630      8.165    10.5894 0.0000e+00
      5.763      0.090     8.7253     78.524     45.588  32.452332     3.7800     0.1782     0.0852     0.0846 1.1630e-01     5.3031      5.651      8.197    10.5894 0.0000e+00
      5.785      0.089     8.7259     78.566     45.594  32.456075     3.7800     0.1630     0.0852     0.0846 1.1620e-01     5.2730      5.673      8.228    10.5896 0.0000e+00
      5.807      0.089     8.7297     78.597     45.593  32.455059     3.7800     0.1897     0.0852     0.0846 1.1623e-01     5.2430      5.695      8.260    10.5899 0.0000e+00
      5.830      0.090     8.7351     78.617     45.585  32.449015     3.8700     0.1897     0.1278     0.0846 1.1605e-01     5.2730      5.718      8.293    10.5903 0.0000e+00
      5.854      0.091     8.7406     78.627     45.585  32.448211     3.8700     0.2011     0.1278     0.0846 1.1623e-01     5.3031      5.741      8.326    10.5906 0.0000e+00
      5.877      0.093     8.7454     78.628     45.592  32.452434     3.8700     0.1859     0.1278     0.0846 1.1617e-01     5.2881      5.763      8.359    10.5906 0.0000e+00
      5.900      0.095     8.7489     78.623     45.601  32.458849     3.8700     0.1668     0.1278     0.0846 1.1620e-01     5.2430      5.786      8.393    10.5903 0.0000e+00
      5.924      0.097     8.7512     78.614     45.611  32.465206     3.7800     0.1821     0.1278     0.2115 1.1597e-01     5.2580      5.810      8.426    10.5897 0.0000e+00
      5.949      0.099     8.7525     78.601     45.612  32.465279     3.7800     0.1782     0.1278     0.2115 1.1633e-01     5.2730      5.834      8.462    10.5890 0.0000e+00
      5.975      0.102     8.7527     78.590     45.598  32.455127     3.7800     0.1706     0.1278     0.2115 1.1615e-01     5.2730      5.860      8.499    10.5882 0.0000e+00
      6.002      0.104     8.7523     78.582     45.583  32.443924     3.7800     0.1935     0.1278     0.2115 1.1605e-01     5.1829      5.887      8.537    10.5875 0.0000e+00
      6.030      0.106     8.7515     78.577     45.579  32.440564     3.8700     0.1935     0.1278     0.1692 1.1605e-01     5.2580      5.913      8.576    10.5869 0.0000e+00
      6.057      0.107     8.7502     78.578     45.579  32.440192     3.8700     0.1821     0.1278     0.1692 1.1612e-01     5.3782      5.940      8.614    10.5864 0.0000e+00
      6.083      0.107     8.7490     78.588     45.578  32.438746     3.8700     0.1897     0.1278     0.1692 1.1628e-01     5.2580      5.966      8.653    10.5859 0.0000e+00
      6.111      0.108     8.7482     78.601     45.574  32.435842     3.8700     0.2011     0.1278     0.1692 1.1628e-01     5.1829      5.993      8.692    10.5854 0.0000e+00
      6.139      0.108     8.7478     78.611     45.573  32.434666     3.7800     0.1935     0.0852     0.1692 1.1623e-01     5.3933      6.020      8.731    10.5850 0.0000e+00
      6.167      0.108     8.7480     78.616     45.574  32.434904     3.7800     0.2011     0.0852     0.1692 1.1640e-01     5.2730      6.047      8.771    10.5845 0.0000e+00
      6.194      0.109     8.7491     78.612     45.577  32.436619     3.7800     0.1592     0.0852     0.1692 1.1615e-01     5.2881      6.074      8.810    10.5839 0.0000e+00
      6.221      0.109     8.7506     78.603     45.588  32.444229     3.7800     0.1325     0.0852     0.1692 1.1605e-01     5.5135      6.101      8.849    10.5834 0.0000e+00
      6.249      0.109     8.7518     78.589     45.599  32.451842     3.7800     0.1210     0.0852     0.1692 1.1612e-01     5.4835      6.128      8.888    10.5830 0.0000e+00
      6.277      0.109     8.7525     78.566     45.601  32.453567     3.7800     0.1286     0.1278     0.2115 1.1600e-01     5.6037      6.156      8.928    10.5826 0.0000e+00
      6.306      0.108     8.7522     78.530     45.596  32.449865     3.7800     0.1363     0.1278     0.2115 1.1615e-01     5.4233      6.184      8.969    10.5823 0.0000e+00
      6.333      0.107     8.7512     78.488     45.588  32.443709     3.7800     0.1515     0.1278     0.2115 1.1612e-01     5.3332      6.211      9.008    10.5820 0.0000e+00
      6.360      0.105     8.7497     78.441     45.586  32.441378     3.7800     0.1477     0.1278     0.2115 1.1605e-01     5.1829      6.238      9.047    10.5817 0.0000e+00
      6.387      0.103     8.7471     78.390     45.587  32.442251     3.7800     0.1363     0.0852     0.1269 1.1615e-01     5.2730      6.264      9.085    10.5814 0.0000e+00
      6.413      0.101     8.7433     78.332     45.588  32.442599     3.7800     0.1401     0.0852     0.1269 1.1623e-01     5.3031      6.289      9.122    10.5812 0.0000e+00
      6.439      0.100     8.7386     78.262     45.588  32.442516     3.7800     0.1515     0.0852     0.1269 1.1615e-01     5.2730      6.314      9.158    10.5808 0.0000e+00
      6.463      0.099     8.7335     78.175     45.588  32.441979     3.7800     0.1363     0.0852     0.1269 1.1615e-01     5.3632      6.339      9.193    10.5804 0.0000e+00
      6.487      0.099     8.7279     78.081     45.586  32.440846     3.7800     0.1019     0.1278     0.1269 1.1615e-01     5.3181      6.362      9.228    10.5801 0.0000e+00
      6.512      0.099     8.7215     77.995     45.583  32.438813     3.7800     0.1363     0.1278     0.1269 1.1623e-01     5.3031      6.386      9.263    10.5798 0.0000e+00
      6.538      0.100     8.7138     77.928     45.572  32.431379     3.7800     0.1286     0.1278     0.1269 1.1620e-01     5.3031      6.411      9.299    10.5796 0.0000e+00
      6.564      0.100     8.7041     77.887     45.556  32.420522     3.7800     0.1630     0.1278     0.1269 1.1617e-01     5.2279      6.437      9.336    10.5795 0.0000e+00
      6.590      0.100     8.6936     77.881     45.549  32.415227     3.7800     0.1248     0.1278     0.1269 1.1612e-01     5.2730      6.463      9.373    10.5796 0.0000e+00
      6.616      0.099     8.6840     77.914     45.547  32.414083     3.7800     0.1554     0.1278     0.0846 1.1612e-01     5.2730      6.488      9.410    10.5798 0.0000e+00
      6.641      0.098     8.6764     77.980     45.545  32.412825     3.7800     0.2011     0.1278     0.0846 1.1610e-01     5.3482      6.512      9.445    10.5802 0.0000e+00
      6.665      0.097     8.6718     78.069     45.543  32.411117     3.7800     0.1706     0.1278     0.0846 1.1612e-01     5.2430      6.536      9.481    10.5805 0.0000e+00
      6.690      0.096     8.6711     78.164     45.539  32.408503     3.7800     0.1859     0.1278     0.0846 1.1602e-01     5.3632      6.561      9.516    10.5806 0.0000e+00
      6.714      0.095     8.6748     78.251     45.539  32.408246     3.8700     0.1973     0.1278     0.1269 1.1620e-01     5.2129      6.585      9.550    10.5806 0.0000e+00
      6.738      0.095     8.6821     78.324     45.547  32.414239     3.8700     0.1286     0.1278     0.1269 1.1610e-01     5.0476      6.608      9.585    10.5805 0.0000e+00
      6.762      0.096     8.6920     78.381     45.555  32.420158     3.8700     0.1172     0.1278     0.1269 1.1620e-01     5.1077      6.631      9.618    10.5805 0.0000e+00
      6.786      0.098     8.7026     78.422     45.555  32.419662     3.8700     0.1515     0.1278     0.1269 1.1620e-01     5.0175      6.655      9.652    10.5805 0.0000e+00
      6.811      0.100     8.7123     78.449     45.550  32.416578     3.7800     0.1210     0.1278     0.1692 1.1605e-01     5.1077      6.679      9.687    10.5805 0.0000e+00
      6.837      0.102     8.7204     78.468     45.547  32.414044     3.7800     0.1286     0.1278     0.1692 1.1605e-01     5.3031      6.705      9.724    10.5806 0.0000e+00
      6.864      0.103     8.7268     78.479     45.543  32.411385     3.7800     0.1363     0.1278     0.1692 1.1617e-01     5.2430      6.732      9.763    10.5806 0.0000e+00
      6.892      0.103     8.7313     78.486     45.544  32.411852     3.7800     0.1515     0.1278     0.1692 1.1605e-01     5.2430      6.759      9.803    10.5807 0.0000e+00
      6.919      0.103     8.7344     78.495     45.554  32.419530     3.8700     0.1363     0.1278     0.1269 1.1595e-01     5.3933      6.785      9.841    10.5808 0.0000e+00
      6.945      0.101     8.7365     78.508     45.572  32.432507     3.8700     0.1210     0.1278     0.1269 1.1623e-01     5.0025      6.811      9.878    10.5808 0.0000e+00
      6.970      0.099     8.7377     78.524     45.586  32.442360     3.8700     0.1439     0.1278     0.1269 1.1600e-01     4.9875      6.836      9.914    10.5807 0.0000e+00
      6.995      0.097     8.7385     78.542     45.594  32.447758     3.8700     0.1439     0.1278     0.1269 1.1610e-01     5.0927      6.860      9.949    10.5807 0.0000e+00
      7.020      0.097     8.7395     78.560     45.603  32.454099     3.8700     0.1325     0.1278     0.1269 1.1617e-01     5.0326      6.884      9.984    10.5807 0.0000e+00
      7.044      0.097     8.7409     78.575     45.604  32.455154     3.7800     0.1210     0.1278     0.1269 1.1607e-01     5.2129      6.908     10.018    10.5807 0.0000e+00
      7.068      0.098     8.7426     78.587     45.599  32.451204     3.7800     0.1592     0.1278     0.1269 1.1620e-01     5.2730      6.931     10.052    10.5808 0.0000e+00
      7.092      0.100     8.7447     78.592     45.602  32.453077     3.7800     0.1515     0.1278     0.1269 1.1600e-01     5.2730      6.955     10.087    10.5808 0.0000e+00
      7.118      0.101     8.7467     78.584     45.609  32.457313     3.7800     0.1401     0.1278     0.1269 1.1607e-01     5.3181      6.980     10.124    10.5807 0.0000e+00
      7.145      0.103     8.7483     78.564     45.609  32.457119     3.8700     0.1286     0.0852     0.1269 1.1610e-01     5.3181      7.006     10.162    10.5806 0.0000e+00
      7.172      0.104     8.7497     78.533     45.603  32.452443     3.8700     0.1401     0.0852     0.1269 1.1602e-01     5.3031      7.033     10.201    10.5805 0.0000e+00
      7.199      0.105     8.7504     78.493     45.594  32.446000     3.8700     0.1363     0.0852     0.1269 1.1620e-01     5.2730      7.060     10.240    10.5802 0.0000e+00
      7.226      0.105     8.7496     78.447     45.592  32.443991     3.8700     0.1286     0.0852     0.1269 1.1620e-01     5.2730      7.086     10.278    10.5799 0.0000e+00
      7.252      0.105     8.7474     78.392     45.594  32.445883     3.7800     0.1935     0.1278     0.1269 1.1607e-01     5.2730      7.112     10.315    10.5795 0.0000e+00
      7.279      0.105     8.7440     78.330     45.592  32.444257     3.7800     0.1782     0.1278     0.1269 1.1610e-01     5.3482      7.138     10.352    10.5791 0.0000e+00
      7.305      0.106     8.7397     78.271     45.579  32.434720     3.7800     0.1706     0.1278     0.1269 1.1620e-01     5.2580      7.164     10.390    10.5787 0.0000e+00
      7.332      0.109     8.7346     78.224     45.561  32.422650     3.7800     0.1859     0.1278     0.1269 1.1612e-01     5.2730      7.190     10.428    10.5784 0.0000e+00
      7.359      0.113     8.7285     78.193     45.552  32.416709     3.7800     0.1439     0.0852     0.0846 1.1605e-01     4.9424      7.217     10.466    10.5783 0.0000e+00
      7.387      0.117     8.7216     78.179     45.550  32.415313     3.7800     0.1401     0.0852     0.0846 1.1612e-01     5.0326      7.245     10.507    10.5783 0.0000e+00
      7.418      0.122     8.7150     78.178     45.548  32.414130     3.7800     0.1477     0.0852     0.0846 1.1605e-01     4.9875      7.275     10.551    10.5785 0.0000e+00
      7.451      0.125     8.7096     78.190     45.540  32.408883     3.7800     0.1286     0.0852     0.0846 1.1617e-01     4.9574      7.307     10.598    10.5788 0.0000e+00
      7.485      0.127     8.7062     78.209     45.531  32.402134     3.7800     0.1935     0.0852     0.0846 1.1610e-01     5.3181      7.340     10.645    10.5792 0.0000e+00
      7.518      0.128     8.7045     78.231     45.533  32.403965     3.7800     0.1935     0.0852     0.2538 1.1623e-01     5.3632      7.373     10.693    10.5796 0.0000e+00
      7.551      0.127     8.7044     78.254     45.537  32.406943     3.7800     0.1782     0.0852     0.2538 1.1607e-01     5.3332      7.405     10.740    10.5799 0.0000e+00
      7.583      0.127     8.7057     78.274     45.538  32.407902     3.7800     0.1897     0.0852     0.2538 1.1623e-01     5.2730      7.436     10.785    10.5802 0.0000e+00
      7.615      0.127     8.7077     78.290     45.548  32.415017     3.7800     0.1439     0.0852     0.2538 1.1612e-01     5.3632      7.467     10.830    10.5803 0.0000e+00
      7.646      0.127     8.7102     78.310     45.559  32.422266     3.7800     0.1363     0.1278     0.1692 1.1612e-01     5.2430      7.498     10.875    10.5804 0.0000e+00
      7.678      0.127     8.7127     78.340     45.561  32.423661     3.7800     0.1248     0.1278     0.1692 1.1620e-01     5.2730      7.529     10.921    10.5804 0.0000e+00
      7.711      0.128     8.7149     78.377     45.567  32.427494     3.7800     0.1401     0.1278     0.1692 1.1612e-01     5.3332      7.562     10.968    10.5804 0.0000e+00
      7.745      0.128     8.7167     78.415     45.583  32.438748     3.7800     0.1515     0.1278     0.1692 1.1617e-01     5.3031      7.595     11.015    10.5803 0.0000e+00
      7.778      0.128     8.7189     78.444     45.602  32.452503     3.8700     0.1058     0.0852     0.1692 1.1612e-01     5.2881      7.627     11.063    10.5803 0.0000e+00
      7.811      0.127     8.7222     78.458     45.625  32.468466     3.8700     0.1096     0.0852     0.1692 1.1610e-01     5.3181      7.660     11.110    10.5803 0.0000e+00
      7.843      0.124     8.7265     78.462     45.647  32.482974     3.8700     0.1248     0.0852     0.1692 1.1615e-01     5.3482      7.692     11.156    10.5802 0.0000e+00
      7.875      0.122     8.7307     78.460     45.667  32.495934     3.8700     0.2011     0.0852     0.1692 1.1612e-01     5.4384      7.722     11.201    10.5800 0.0000e+00
      7.905      0.119     8.7340     78.449     45.690  32.510803     3.8700     0.1706     0.1278     0.1692 1.1605e-01     5.5586      7.752     11.244    10.5797 0.0000e+00
      7.935      0.116     8.7357     78.417     45.715  32.527584     3.8700     0.2011     0.1278     0.1692 1.1617e-01     5.5135      7.782     11.287    10.5791 0.0000e+00
      7.965      0.113     8.7364     78.353     45.757  32.554713     3.8700     0.1630     0.1278     0.1692 1.1623e-01     5.6187      7.810     11.328    10.5781 0.0000e+00
      7.993      0.109     8.7364     78.246     45.825  32.599425     3.8700     0.0981     0.1278     0.1692 1.1620e-01     7.1969      7.839     11.369    10.5768 0.0000e+00
      8.022      0.104     8.7354     78.085     45.914  32.657800     3.8700     0.1210     0.1278     0.1692 1.1612e-01     7.1969      7.867     11.409    10.5754 0.0000e+00
      8.048      0.098     8.7321     77.854     46.008  32.717681     3.8700     0.1515     0.0852     0.0846 1.1617e-01     7.1518      7.893     11.447    10.5738 0.0000e+00
      8.073      0.090     8.7256     77.529     46.091  32.769291     3.8700     0.1592     0.0852     0.0846 1.1612e-01     7.2720      7.917     11.482    10.5713 0.0000e+00
      8.095      0.082     8.7145     77.075     46.159  32.810551     3.8700     0.7161     0.0852     0.0846 1.1607e-01    51.0699      7.939     11.514    10.5672 0.0000e+00
      8.115      0.072     8.6977     76.453     46.222  32.850482     3.8700     0.7161     0.0852     0.0846 1.1617e-01    50.9045      7.958     11.542    10.5613 0.0000e+00
      8.132      0.063     8.6735     75.630     46.306  32.907655     3.8700     0.7238     0.1704     0.2115 1.1612e-01    50.9647      7.975     11.567    10.5539 0.0000e+00
      8.147      0.054     8.6389     74.598     46.425  32.993354     3.8700     0.7314     0.1704     0.2115 1.1610e-01    50.9797      7.989     11.588    10.5457 0.0000e+00
      8.159      0.045     8.5898     73.384     46.569  33.098748     3.8700     3.1156     0.1704     0.2115 1.1620e-01   264.8736      8.001     11.605    10.5383 0.0000e+00
      8.169      0.037     8.5216     72.057     46.717  33.208374     3.8700     3.1194     0.1704     0.2115 1.1628e-01   264.9036      8.011     11.619    10.5330 0.0000e+00
      8.177      0.031     8.4304     70.729     46.872  33.321762     4.2300     3.1118     0.8520     0.7191 1.1610e-01   264.9337      8.019     11.631    10.5306 0.0000e+00
      8.184      0.025     8.3152     69.527     47.049  33.449344     4.2300     3.1156     0.8520     0.7191 1.1612e-01   264.8736      8.025     11.640    10.5315 0.0000e+00
      8.189      0.020     8.1792     68.550     47.222  33.573654     4.2300     3.8862     0.8520     0.7191 1.1605e-01   502.1092      8.031     11.648    10.5352 0.0000e+00
      8.193      0.016     8.0304     67.852     47.313  33.640701     4.2300     3.8519     0.8520     0.7191 1.1628e-01   502.2896      8.035     11.654    10.5397 0.0000e+00
      8.196      0.012     7.8818     67.434     47.309  33.640642     4.8600     3.8633     2.8968     3.1725 1.1623e-01   502.0942      8.038     11.658    10.5432 0.0000e+00
      8.199      0.009     7.7474     67.251     47.261  33.611086     4.8600     3.8671     2.8968     3.1725 1.1615e-01   502.2144      8.040     11.662    10.5451 0.0000e+00
      8.201      0.007     7.6383     67.246     47.188  33.563958     4.8600     2.3946     2.8968     3.1725 1.1612e-01   482.1793      8.042     11.665    10.5464 0.0000e+00
      8.202      0.004     7.5602     67.360     47.091  33.500553     4.8600     2.3794     2.8968     3.1725 1.1607e-01   482.1492      8.043     11.666    10.5484 0.0000e+00
      8.203      0.002     7.5130     67.550     46.996  33.437629     4.8600     2.3717     2.8968     3.1725 1.1612e-01   482.1342      8.044     11.667    10.5516 0.0000e+00
      8.203      0.000     7.4918     67.808     46.913  33.382171     4.5000     2.3870     3.6636     5.2452 1.1615e-01   482.2544      8.044     11.668    10.5563 0.0000e+00
      8.203     -0.002     7.4902     68.152     46.831  33.327313     4.5000     1.8148     3.6636     5.2452 1.1610e-01   530.8168      8.044     11.667    10.5618 0.0000e+00
      8.202     -0.004     7.5019     68.619     46.766  33.284170     4.5000     1.8148     3.6636     5.2452 1.1623e-01   530.8619      8.044     11.666    10.5674 0.0000e+00
      8.201     -0.006     7.5223     69.232     46.721  33.255099     4.5000     1.8377     3.6636     5.2452 1.1617e-01   530.6966      8.043     11.665    10.5725 0.0000e+00
      8.199     -0.009     7.5502     69.990     46.674  33.224428     4.4100     1.8186     3.2376     5.1183 1.1628e-01   530.6665      8.041     11.662    10.5766 0.0000e+00
      8.197     -0.012     7.5880     70.868     46.625  33.191900     4.4100     2.1238     3.2376     5.1183 1.1617e-01   698.5231      8.039     11.659    10.5801 0.0000e+00
      8.194     -0.016     7.6394     71.822     46.565  33.150819     4.4100     2.1695     3.2376     5.1183 1.1605e-01   698.6283      8.036     11.654    10.5833 0.0000e+00
      8.190     -0.020     7.7071     72.795     46.477  33.090233     4.4100     2.1200     3.2376     5.1183 1.1628e-01   698.7786      8.031     11.649    10.5866 0.0000e+00
      8.184     -0.025     7.7908     73.728     46.382  33.025668     4.5000     2.1238     3.5784     3.8070 1.1617e-01   698.6433      8.026     11.641    10.5895 0.0000e+00
      8.178     -0.031     7.8881     74.578     46.332  32.993378     4.5000     1.0938     3.5784     3.8070 1.1617e-01   146.8569      8.020     11.631    10.5920 0.0000e+00
      8.169     -0.038     7.9940     75.318     46.338  33.000594     4.5000     1.1090     3.5784     3.8070 1.1623e-01   146.8118      8.011     11.620    10.5941 0.0000e+00
      8.159     -0.046     8.1018     75.948     46.346  33.007654     4.5000     1.0938     3.5784     3.8070 1.1605e-01   146.7968      8.001     11.605    10.5963 0.0000e+00
      8.147     -0.056     8.2052     76.485     46.309  32.982775     4.5000     1.0938     3.5784     3.8070 1.1620e-01   146.8118      7.990     11.588    10.5992 0.0000e+00
      8.133     -0.069     8.2990     76.949     46.220  32.921303     4.0500     1.0938     1.2780     1.0152 1.1617e-01    90.9749      7.976     11.568    10.6026 0.0000e+00
      8.116     -0.086     8.3808     77.354     46.099  32.838531     4.0500     1.0862     1.2780     1.0152 1.1617e-01    90.8997      7.959     11.543    10.6056 0.0000e+00
      8.094     -0.105     8.4506     77.701     45.991  32.767835     4.0500     1.0900     1.2780     1.0152 1.1605e-01    90.9899      7.938     11.512    10.6076 0.0000e+00
      8.066     -0.127     8.5100     77.989     45.912  32.720067     4.0500     1.0823     1.2780     1.0152 1.1612e-01    90.9598      7.911     11.473    10.6090 0.0000e+00
      8.031     -0.149     8.5613     78.230     45.847  32.682491     3.8700     0.1935     0.5112     0.4230 1.1610e-01     8.6999      7.876     11.423    10.6111 0.0000e+00
      7.988     -0.167     8.6055     78.444     45.789  32.649047     3.8700     0.2240     0.5112     0.4230 1.1607e-01     8.6097      7.833     11.361    10.6150 0.0000e+00
      7.938     -0.179     8.6428     78.648     45.741  32.618738     3.8700     0.1973     0.5112     0.4230 1.1605e-01     8.6999      7.785     11.291    10.6216 0.0000e+00
      7.886     -0.185     8.6730     78.854     45.708  32.595364     3.8700     0.1935     0.5112     0.4230 1.1595e-01     8.6097      7.733     11.216    10.6306 0.0000e+00
      7.834     -0.185     8.6978     79.069     45.701  32.588534     3.8700     0.2584     0.1704     0.2538 1.1615e-01    12.6528      7.683     11.143    10.6405 0.0000e+00
      7.787     -0.182     8.7199     79.300     45.721  32.600387     3.8700     0.2622     0.1704     0.2538 1.1615e-01    12.6829      7.636     11.075    10.6487 0.0000e+00
      7.743     -0.178     8.7417     79.539     45.760  32.626161     3.8700     0.2660     0.1704     0.2538 1.1628e-01    12.6077      7.594     11.014    10.6533 0.0000e+00
      7.702     -0.176     8.7645     79.766     45.803  32.656889     3.8700     0.2622     0.1704     0.2538 1.1612e-01    12.6378      7.553     10.955    10.6538 0.0000e+00
      7.660     -0.174     8.7888     79.956     45.827  32.675021     4.3200     0.2431     0.2982     0.1692 1.1620e-01    17.6579      7.512     10.895    10.6514 0.0000e+00
      7.615     -0.174     8.8151     80.089     45.828  32.675490     4.3200     0.2507     0.2982     0.1692 1.1615e-01    17.7180      7.468     10.832    10.6486 0.0000e+00
      7.568     -0.172     8.8421     80.148     45.832  32.676245     4.3200     0.2584     0.2982     0.1692 1.1615e-01    17.6278      7.422     10.765    10.6470 0.0000e+00
      7.521     -0.170     8.8673     80.123     45.858  32.691348     4.3200     0.2660     0.2982     0.1692 1.1623e-01    17.5827      7.376     10.698    10.6470 0.0000e+00
      7.477     -0.168     8.8882     80.013     45.881  32.703043     4.3200     0.1744     0.2982     0.1692 1.1615e-01     8.7300      7.332     10.635    10.6476 0.0000e+00
      7.436     -0.166     8.9030     79.838     45.863  32.686725     4.3200     0.1897     0.3408     0.3384 1.1610e-01     8.6248      7.293     10.577    10.6475 0.0000e+00
      7.398     -0.167     8.9101     79.618     45.826  32.657846     4.3200     0.2049     0.3408     0.3384 1.1617e-01     8.5045      7.255     10.523    10.6453 0.0000e+00
      7.360     -0.172     8.9081     79.373     45.802  32.640388     4.3200     0.1897     0.3408     0.3384 1.1617e-01     8.4895      7.218     10.468    10.6413 0.0000e+00
      7.317     -0.180     8.8969     79.118     45.785  32.627716     4.3200     0.1439     0.3408     0.3384 1.1605e-01     8.4594      7.176     10.408    10.6366 0.0000e+00
      7.269     -0.187     8.8782     78.877     45.764  32.612491     4.5000     0.1325     0.4260     0.5076 1.1623e-01     8.2340      7.129     10.339    10.6327 0.0000e+00
      7.217     -0.192     8.8543     78.675     45.740  32.594614     4.5000     0.1477     0.4260     0.5076 1.1612e-01     8.4143      7.077     10.264    10.6302 0.0000e+00
      7.162     -0.192     8.8273     78.524     45.719  32.577238     4.5000     0.1134     0.4260     0.5076 1.1610e-01     8.4143      7.023     10.186    10.6292 0.0000e+00
      7.109     -0.188     8.7989     78.422     45.703  32.563651     4.5000     0.1325     0.4260     0.5076 1.1623e-01     6.5055      6.971     10.111    10.6292 0.0000e+00
      7.061     -0.181     8.7721     78.359     45.688  32.550229     4.2300     0.1401     0.2982     0.3384 1.1600e-01     6.4153      6.925     10.044    10.6289 0.0000e+00
      7.019     -0.174     8.7499     78.327     45.672  32.537354     4.2300     0.1592     0.2982     0.3384 1.1625e-01     6.5356      6.883      9.984    10.6277 0.0000e+00
      6.980     -0.168     8.7336     78.311     45.657  32.525553     4.2300     0.1401     0.2982     0.3384 1.1638e-01     6.5055      6.845      9.928    10.6254 0.0000e+00
      6.940     -0.163     8.7228     78.305     45.649  32.519601     4.2300     0.1286     0.2982     0.3384 1.1597e-01     8.4143      6.806      9.871    10.6225 0.0000e+00
      6.898     -0.159     8.7164     78.310     45.653  32.521871     3.9600     0.1363     0.1704     0.2115 1.1635e-01     8.3392      6.765      9.812    10.6199 0.0000e+00
      6.855     -0.154     8.7131     78.321     45.659  32.525046     3.9600     0.1401     0.1704     0.2115 1.1617e-01     8.3242      6.722      9.750    10.6181 0.0000e+00
      6.813     -0.148     8.7115     78.336     45.668  32.529974     3.9600     0.1134     0.1704     0.2115 1.1615e-01     8.4444      6.681      9.690    10.6171 0.0000e+00
      6.774     -0.140     8.7110     78.349     45.683  32.537969     3.9600     0.1859     0.1704     0.2115 1.1612e-01     7.4825      6.643      9.635    10.6165 0.0000e+00
      6.741     -0.133     8.7116     78.360     45.693  32.543240     3.9600     0.1782     0.1704     0.2115 1.1617e-01     7.3472      6.611      9.588    10.6159 0.0000e+00
      6.712     -0.129     8.7132     78.370     45.700  32.547195     3.9600     0.2011     0.1704     0.1269 1.1617e-01     7.3773      6.583      9.547    10.6147 0.0000e+00
      6.684     -0.130     8.7152     78.379     45.711  32.554847     3.9600     0.1859     0.1704     0.1269 1.1625e-01     7.3472      6.555      9.508    10.6128 0.0000e+00
      6.655     -0.135     8.7171     78.380     45.722  32.564278     3.9600     0.1782     0.1704     0.1269 1.1617e-01    10.4284      6.526      9.465    10.6104 0.0000e+00
      6.620     -0.144     8.7188     78.370     45.722  32.566120     3.9600     0.1668     0.1704     0.1269 1.1605e-01    10.4133      6.492      9.416    10.6082 0.0000e+00
      6.581     -0.153     8.7202     78.355     45.701  32.552944     3.8700     0.1744     0.1704     0.2115 1.1612e-01    10.4584      6.453      9.360    10.6069 0.0000e+00
      6.537     -0.158     8.7211     78.340     45.672  32.533117     3.8700     0.1973     0.1704     0.2115 1.1612e-01    10.4133      6.410      9.298    10.6070 0.0000e+00
      6.491     -0.159     8.7210     78.326     45.655  32.521157     3.8700     0.2049     0.1704     0.2115 1.1607e-01     8.2791      6.366      9.233    10.6084 0.0000e+00
      6.447     -0.156     8.7195     78.315     45.652  32.517834     3.8700     0.1782     0.1704     0.2115 1.1630e-01     8.3392      6.323      9.171    10.6105 0.0000e+00
      6.408     -0.151     8.7174     78.301     45.648  32.514340     3.8700     0.1821     0.1278     0.0846 1.1612e-01     8.4143      6.284      9.115    10.6125 0.0000e+00
      6.373     -0.146     8.7154     78.285     45.649  32.513703     3.8700     0.1782     0.1278     0.0846 1.1612e-01     8.3843      6.250      9.065    10.6136 0.0000e+00
      6.340     -0.144     8.7140     78.273     45.657  32.519716     3.8700     0.1515     0.1278     0.0846 1.1628e-01    10.4885      6.218      9.018    10.6136 0.0000e+00
      6.307     -0.146     8.7130     78.277     45.665  32.526061     3.8700     0.1935     0.1278     0.0846 1.1607e-01    10.5336      6.185      8.971    10.6125 0.0000e+00
      6.270     -0.150     8.7117     78.303     45.669  32.530468     3.8700     0.1859     0.1278     0.1269 1.1623e-01    10.5035      6.149      8.919    10.6112 0.0000e+00
      6.230     -0.153     8.7100     78.349     45.666  32.530153     3.8700     0.1859     0.1278     0.1269 1.1605e-01    10.5035      6.110      8.862    10.6103 0.0000e+00
      6.187     -0.154     8.7087     78.405     45.658  32.525032     3.8700     0.1325     0.1278     0.1269 1.1628e-01     8.1438      6.067      8.800    10.6102 0.0000e+00
      6.144     -0.150     8.7090     78.464     45.649  32.517700     3.8700     0.1592     0.1278     0.1269 1.1623e-01     8.0536      6.025      8.739    10.6111 0.0000e+00
      6.103     -0.142     8.7116     78.523     45.640  32.510162     3.8700     0.1286     0.1278     0.1269 1.1607e-01     8.1288      5.985      8.681    10.6128 0.0000e+00
      6.068     -0.132     8.7164     78.575     45.635  32.504369     3.8700     0.1248     0.0852     0.0846 1.1612e-01     8.0837      5.951      8.631    10.6146 0.0000e+00
      6.038     -0.124     8.7224     78.612     45.630  32.498775     3.8700     0.1859     0.0852     0.0846 1.1612e-01     8.1588      5.922      8.589    10.6155 0.0000e+00
      6.012     -0.119     8.7291     78.636     45.628  32.495850     3.8700     0.1973     0.0852     0.0846 1.1625e-01     8.1889      5.895      8.551    10.6150 0.0000e+00
      5.986     -0.120     8.7360     78.646     45.628  32.494813     3.8700     0.2011     0.0852     0.0846 1.1617e-01     8.2340      5.870      8.514    10.6132 0.0000e+00
      5.958     -0.127     8.7422     78.638     45.629  32.495388     3.8700     0.1973     0.1704     0.1269 1.1610e-01     8.2039      5.843      8.474    10.6108 0.0000e+00
      5.926     -0.137     8.7469     78.615     45.631  32.497727     3.8700     0.1744     0.1704     0.1269 1.1612e-01     8.4143      5.812      8.429    10.6086 0.0000e+00
      5.889     -0.148     8.7499     78.581     45.625  32.494535     3.8700     0.1782     0.1704     0.1269 1.1623e-01     8.4745      5.776      8.377    10.6069 0.0000e+00
      5.848     -0.156     8.7511     78.541     45.610  32.484960     3.8700     0.1821     0.1704     0.1269 1.1607e-01     8.3392      5.735      8.318    10.6061 0.0000e+00
      5.803     -0.159     8.7502     78.503     45.600  32.478330     3.8700     0.1897     0.1278     0.1692 1.1612e-01     8.3993      5.691      8.254    10.6061 0.0000e+00
      5.758     -0.156     8.7475     78.479     45.605  32.480799     3.8700     0.1210     0.1278     0.1692 1.1612e-01     6.2801      5.646      8.189    10.6068 0.0000e+00
      5.715     -0.149     8.7435     78.472     45.614  32.485103     3.8700     0.1210     0.1278     0.1692 1.1617e-01     6.2951      5.605      8.129    10.6081 0.0000e+00
      5.679     -0.140     8.7388     78.484     45.616  32.484470     3.8700     0.1363     0.1278     0.1692 1.1620e-01     6.2199      5.569      8.077    10.6093 0.0000e+00
      5.647     -0.133     8.7346     78.509     45.609  32.478730     3.8700     0.1096     0.1278     0.1692 1.1623e-01     6.1899      5.538      8.032    10.6094 0.0000e+00
      5.619     -0.130     8.7321     78.541     45.598  32.470313     3.8700     0.1286     0.1278     0.1692 1.1605e-01     9.5717      5.510      7.991    10.6082 0.0000e+00
      5.589     -0.131     8.7318     78.573     45.591  32.464896     3.8700     0.1401     0.1278     0.1692 1.1617e-01     9.5717      5.481      7.950    10.6062 0.0000e+00
      5.558     -0.137     8.7334     78.597     45.590  32.464995     3.8700     0.1363     0.1278     0.1692 1.1605e-01     9.5115      5.450      7.905    10.6044 0.0000e+00
      5.522     -0.144     8.7365     78.607     45.589  32.466676     3.8700     0.1134     0.1278     0.1692 1.1610e-01     9.5717      5.415      7.854    10.6030 0.0000e+00
      5.482     -0.149     8.7402     78.611     45.580  32.462466     4.0500     0.1325     0.1704     0.1692 1.1612e-01     6.6258      5.376      7.797    10.6022 0.0000e+00
      5.439     -0.149     8.7438     78.618     45.563  32.451243     4.0500     0.1210     0.1704     0.1692 1.1620e-01     6.6558      5.334      7.736    10.6022 0.0000e+00
      5.396     -0.144     8.7462     78.632     45.551  32.441896     4.0500     0.1172     0.1704     0.1692 1.1605e-01     6.7761      5.292      7.675    10.6032 0.0000e+00
      5.357     -0.133     8.7470     78.654     45.550  32.439853     4.0500     0.1286     0.1704     0.1692 1.1605e-01     6.7159      5.253      7.619    10.6052 0.0000e+00
      5.324     -0.119     8.7469     78.682     45.554  32.440608     3.8700     0.1248     0.1704     0.1269 1.1605e-01     5.7239      5.221      7.573    10.6075 0.0000e+00
      5.298     -0.104     8.7474     78.713     45.556  32.440403     3.8700     0.1286     0.1704     0.1269 1.1617e-01     5.8141      5.195      7.536    10.6088 0.0000e+00
      5.277     -0.093     8.7491     78.750     45.562  32.443143     3.8700     0.1286     0.1704     0.1269 1.1612e-01     5.7239      5.175      7.505    10.6084 0.0000e+00
      5.258     -0.086     8.7519     78.794     45.573  32.449559     3.8700     0.1286     0.1704     0.1269 1.1615e-01     5.7239      5.156      7.478    10.6067 0.0000e+00
      5.239     -0.086     8.7554     78.833     45.580  32.453441     3.8700     0.1096     0.1278     0.1269 1.1617e-01     5.7239      5.138      7.452    10.6044 0.0000e+00
      5.219     -0.091     8.7593     78.852     45.579  32.451863     3.8700     0.1325     0.1278     0.1269 1.1617e-01     5.7540      5.118      7.423    10.6022 0.0000e+00
      5.197     -0.102     8.7638     78.852     45.573  32.448364     3.8700     0.1592     0.1278     0.1269 1.1607e-01     5.7991      5.097      7.392    10.6003 0.0000e+00
      5.172     -0.116     8.7691     78.837     45.573  32.449933     3.8700     0.1401     0.1278     0.1269 1.1612e-01     5.7690      5.072      7.356    10.5988 0.0000e+00
      5.141     -0.132     8.7736     78.812     45.574  32.453029     3.8700     0.1477     0.1278     0.1269 1.1623e-01     5.2430      5.042      7.312    10.5977 0.0000e+00
      5.105     -0.146     8.7758     78.779     45.572  32.454516     3.8700     0.1325     0.1278     0.2115 1.1607e-01     5.2279      5.006      7.261    10.5973 0.0000e+00
      5.063     -0.155     8.7757     78.737     45.569  32.454790     3.8700     0.1515     0.1278     0.2115 1.1628e-01     5.3482      4.965      7.201    10.5978 0.0000e+00
      5.017     -0.159     8.7737     78.699     45.554  32.446005     3.8700     0.1515     0.1278     0.2115 1.1602e-01     5.2430      4.920      7.136    10.5995 0.0000e+00
      4.971     -0.156     8.7704     78.687     45.536  32.433738     3.8700     0.1515     0.1278     0.2115 1.1612e-01     5.2279      4.875      7.070    10.6022 0.0000e+00
      4.929     -0.148     8.7661     78.698     45.526  32.426601     3.7800     0.1439     0.1278     0.1692 1.1620e-01     5.2279      4.834      7.011    10.6054 0.0000e+00
      4.893     -0.137     8.7608     78.710     45.520  32.422689     3.7800     0.1363     0.1278     0.1692 1.1600e-01     5.3181      4.798      6.960    10.6082 0.0000e+00
      4.863     -0.128     8.7562     78.711     45.517  32.420961     3.7800     0.1325     0.1278     0.1692 1.1612e-01     5.3332      4.769      6.916    10.6101 0.0000e+00
      4.835     -0.123     8.7547     78.692     45.521  32.424914     3.7800     0.1286     0.1278     0.1692 1.1617e-01     5.8592      4.742      6.878    10.6109 0.0000e+00
      4.808     -0.123     8.7558     78.649     45.534  32.435604     3.8700     0.1439     0.1278     0.0846 1.1605e-01     5.7540      4.715      6.839    10.6110 0.0000e+00
      4.779     -0.128     8.7572     78.588     45.542  32.444000     3.8700     0.1363     0.1278     0.0846 1.1602e-01     5.7841      4.687      6.798    10.6111 0.0000e+00
      4.747     -0.137     8.7573     78.504     45.551  32.452340     3.8700     0.1439     0.1278     0.0846 1.1615e-01     5.7390      4.655      6.752    10.6115 0.0000e+00
      4.710     -0.146     8.7549     78.396     45.568  32.466810     3.8700     0.1363     0.1278     0.0846 1.1617e-01     5.1077      4.619      6.699    10.6126 0.0000e+00
      4.669     -0.151     8.7498     78.276     45.577  32.475426     3.8700     0.1439     0.1278     0.0846 1.1602e-01     5.0175      4.579      6.641    10.6144 0.0000e+00
      4.626     -0.152     8.7424     78.165     45.571  32.472564     3.8700     0.1096     0.1278     0.0846 1.1605e-01     5.0476      4.536      6.579    10.6168 0.0000e+00
      4.583     -0.146     8.7326     78.072     45.560  32.465383     3.8700     0.1554     0.1278     0.0846 1.1620e-01     5.0927      4.494      6.518    10.6194 0.0000e+00
      4.543     -0.136     8.7200     77.996     45.545  32.455928     3.8700     0.1439     0.1278     0.0846 1.1623e-01     5.0175      4.455      6.462    10.6219 0.0000e+00
      4.510     -0.123     8.7063     77.937     45.530  32.445638     3.8700     0.1248     0.1278     0.0846 1.1617e-01     5.0025      4.422      6.414    10.6242 0.0000e+00
      4.482     -0.111     8.6936     77.886     45.521  32.439692     3.8700     0.1515     0.1278     0.0846 1.1617e-01     5.0476      4.395      6.375    10.6259 0.0000e+00
      4.459     -0.103     8.6830     77.830     45.521  32.440463     3.8700     0.1363     0.1278     0.0846 1.1605e-01     5.0175      4.373      6.342    10.6270 0.0000e+00
      4.438     -0.101     8.6744     77.761     45.525  32.444196     3.8700     0.1325     0.1278     0.0846 1.1612e-01     5.1378      4.352      6.312    10.6276 0.0000e+00
      4.416     -0.106     8.6678     77.670     45.526  32.447926     3.8700     0.1134     0.1278     0.0846 1.1633e-01     5.0175      4.330      6.280    10.6281 0.0000e+00
      4.390     -0.117     8.6620     77.559     45.528  32.452649     3.8700     0.1210     0.1278     0.0846 1.1617e-01     5.0476      4.305      6.244    10.6285 0.0000e+00
      4.360     -0.131     8.6556     77.434     45.537  32.463585     3.8700     0.1515     0.1278     0.0846 1.1628e-01     5.0776      4.276      6.201    10.6294 0.0000e+00
      4.325     -0.147     8.6475     77.301     45.557  32.483649     3.8700     0.1172     0.1278     0.0846 1.1605e-01     5.0476      4.241      6.151    10.6310 0.0000e+00
      4.284     -0.160     8.6369     77.161     45.578  32.506312     3.8700     0.1439     0.1278     0.0846 1.1600e-01     4.9724      4.201      6.093    10.6337 0.0000e+00
      4.238     -0.167     8.6238     77.012     45.598  32.529695     3.8700     0.1248     0.1278     0.1269 1.1617e-01     5.0776      4.156      6.027    10.6377 0.0000e+00
      4.189     -0.168     8.6089     76.846     45.618  32.556073     3.8700     0.1439     0.1278     0.1269 1.1620e-01     4.9574      4.108      5.958    10.6429 0.0000e+00
      4.142     -0.163     8.5928     76.644     45.637  32.584561     3.8700     0.1248     0.1278     0.1269 1.1612e-01     5.8292      4.062      5.891    10.6493 0.0000e+00
      4.099     -0.153     8.5756     76.378     45.659  32.618795     3.8700     0.1210     0.1278     0.1269 1.1623e-01     5.7540      4.019      5.829    10.6574 0.0000e+00
      4.062     -0.142     8.5571     75.998     45.702  32.671864     3.8700     0.1210     0.1278     0.1269 1.1617e-01     5.6939      3.983      5.777    10.6679 0.0000e+00
      4.031     -0.133     8.5360     75.452     45.771  32.750000     3.8700     0.1363     0.1278     0.1269 1.1610e-01     5.7841      3.952      5.732    10.6811 0.0000e+00
      4.002     -0.128     8.5105     74.690     45.833  32.832452     3.8700     0.1210     0.1278     0.1269 1.1633e-01     6.2951      3.924      5.692    10.6975 0.0000e+00
      3.974     -0.129     8.4770     73.660     45.842  32.885762     3.8700     0.1439     0.1278     0.1269 1.1610e-01     6.2500      3.897      5.652    10.7176 0.0000e+00
      3.943     -0.136     8.4303     72.286     45.804  32.902365     3.8700     0.1286     0.1278     0.1269 1.1615e-01     6.2500      3.867      5.608    10.7420 0.0000e+00
      3.908     -0.144     8.3638     70.440     45.776  32.914414     3.8700     0.1363     0.1278     0.0846 1.1615e-01     6.2500      3.832      5.559    10.7731 0.0000e+00
      3.868     -0.152     8.2715     67.982     45.795  32.952847     3.8700     0.1058     0.1278     0.0846 1.3184e-01     6.7159      3.793      5.502    10.8150 0.0000e+00
      3.825     -0.156     8.1481     64.887     45.849  33.019993     3.8700     0.1172     0.1278     0.0846 1.1623e-01     6.7310      3.751      5.440    10.8657 0.0000e+00
      3.780     -0.154     7.9875     61.315     45.911  33.102072     3.8700     0.1248     0.1278     0.0846 1.3221e-01     6.7460      3.707      5.377    10.9137 0.0000e+00
      3.738     -0.146     7.7773     57.544     45.953  33.179386     3.9600     0.1363     0.1278     0.2115 1.5507e-01     6.7009      3.665      5.316    10.9493 0.0000e+00
      3.700     -0.136     7.5017     53.821     45.955  33.232947     3.9600     0.1859     0.1278     0.2115 1.6380e-01     6.2049      3.628      5.262    10.9763 0.0000e+00
      3.668     -0.124     7.1558     50.266     45.929  33.263177     3.9600     0.2011     0.1278     0.2115 1.2678e-01     6.1448      3.597      5.217    11.0065 0.0000e+00
      3.641     -0.115     6.7561     46.896     45.902  33.286062     3.9600     0.1515     0.1278     0.2115 1.2274e-01     6.2951      3.571      5.179    11.0475 0.0000e+00
      3.617     -0.111     6.3336     43.679     45.869  33.299784     3.9600     0.1782     0.1704     0.1692 1.2642e-01     6.2801      3.547      5.144    11.0989 0.0000e+00
      3.592     -0.113     5.9163     40.579     45.827  33.300082     3.9600     0.2469     0.1704     0.1692 1.3212e-01     5.4684      3.523      5.110    11.1554 0.0000e+00
      3.566     -0.121     5.5187     37.556     45.801  33.302879     3.9600     0.2660     0.1704     0.1692 1.3447e-01     5.4985      3.497      5.072    11.2089 0.0000e+00
      3.536     -0.133     5.1429     34.625     45.797  33.316845     3.9600     0.2393     0.1704     0.1692 1.4639e-01     5.5436      3.467      5.029    11.2555 0.0000e+00
      3.500     -0.145     4.7855     31.914     45.796  33.333819     3.9600     0.2622     0.1278     0.1269 1.3138e-01     5.5135      3.433      4.978    11.2963 0.0000e+00
      3.459     -0.155     4.4422     29.656     45.780  33.346448     3.9600     0.2622     0.1278     0.1269 1.4890e-01     5.4835      3.392      4.920    11.3296 0.0000e+00
      3.414     -0.159     4.1088     28.080     45.741  33.346216     3.9600     0.2393     0.1278     0.1269 1.5844e-01     5.5436      3.348      4.856    11.3533 0.0000e+00
      3.368     -0.158     3.7863     27.295     45.678  33.325144     3.9600     0.2507     0.1278     0.1269 1.7022e-01     5.4534      3.303      4.791    11.3716 0.0000e+00
      3.325     -0.152     3.4881     27.254     45.620  33.299397     3.9600     0.2355     0.1278     0.1269 1.6487e-01     5.6187      3.260      4.729    11.3914 0.0000e+00
      3.287     -0.143     3.2393     27.799     45.594  33.297755     3.8700     0.3346     0.1704     0.1269 1.7914e-01     5.3482      3.223      4.674    11.4176 0.0000e+00
      3.254     -0.135     3.0647     28.764     45.584  33.323739     3.8700     0.2736     0.1704     0.1269 1.8808e-01     5.2730      3.191      4.628    11.4484 0.0000e+00
      3.225     -0.129     2.9769     30.034     45.556  33.360514     3.8700     0.3156     0.1704     0.1269 1.8467e-01     5.3782      3.162      4.586    11.4754 0.0000e+00
      3.196     -0.127     2.9707     31.527     45.500  33.392145     3.8700     0.3194     0.1704     0.1269 1.6886e-01     5.3632      3.134      4.545    11.4941 0.0000e+00
      3.166     -0.130     3.0284     33.128     45.420  33.407269     3.9600     0.2355     0.1704     0.2115 1.9592e-01     5.3782      3.105      4.502    11.5130 0.0000e+00
      3.133     -0.136     3.1304     34.673     45.316  33.401998     3.9600     0.2431     0.1704     0.2115 2.0232e-01     5.3031      3.072      4.455    11.5498 0.0000e+00
      3.096     -0.140     3.2636     35.982     45.182  33.374931     3.9600     0.2355     0.1704     0.2115 2.2643e-01     5.3632      3.036      4.403    11.6130 0.0000e+00
      3.057     -0.142     3.4194     36.904     44.992  33.314888     3.9600     0.2774     0.1704     0.2115 2.0511e-01     5.3031      2.998      4.348    11.6928 0.0000e+00
      3.017     -0.139     3.5865     37.333     44.741  33.217744     3.9600     0.2393     0.1278     0.1269 2.4677e-01     4.5817      2.959      4.291    11.7747 0.0000e+00
      2.979     -0.134     3.7472     37.218     44.462  33.103145     3.9600     0.2584     0.1278     0.1269 2.2320e-01     4.5666      2.922      4.238    11.8534 0.0000e+00
      2.946     -0.126     3.8821     36.583     44.194  32.999945     3.9600     0.2584     0.1278     0.1269 2.2041e-01     4.5666      2.889      4.190    11.9334 0.0000e+00
      2.917     -0.120     3.9740     35.565     43.977  32.936075     3.9600     0.2698     0.1278     0.1269 2.0807e-01     4.5666      2.861      4.149    12.0232 0.0000e+00
      2.891     -0.118     4.0117     34.401     43.852  32.926193     3.9600     0.2584     0.1278     0.1269 2.5018e-01     4.9123      2.835      4.112    12.1229 0.0000e+00
      2.865     -0.122     3.9905     33.333     43.828  32.963709     4.0500     0.1706     0.1704     0.2538 2.0816e-01     5.0476      2.810      4.075    12.2271 0.0000e+00
      2.837     -0.132     3.9134     32.522     43.874  33.030903     4.0500     0.2011     0.1704     0.2538 1.9562e-01     4.9574      2.782      4.035    12.3360 0.0000e+00
      2.804     -0.146     3.7953     32.029     43.942  33.104106     4.0500     0.1821     0.1704     0.2538 2.3571e-01     5.0175      2.750      3.989    12.4469 0.0000e+00
      2.765     -0.163     3.6632     31.819     43.959  33.149370     4.0500     0.1821     0.1704     0.2538 2.2930e-01     5.0476      2.712      3.933    12.5417 0.0000e+00
      2.720     -0.178     3.5442     31.796     43.866  33.147078     3.9600     0.2355     0.1704     0.0846 2.3855e-01     4.7921      2.667      3.868    12.6051 0.0000e+00
      2.669     -0.188     3.4548     31.817     43.669  33.116421     3.9600     0.2393     0.1704     0.0846 2.6015e-01     4.7921      2.617      3.795    12.6418 0.0000e+00
      2.614     -0.191     3.4003     31.700     43.409  33.076955     3.9600     0.2469     0.1704     0.0846 2.8310e-01     4.7921      2.564      3.718    12.6673 0.0000e+00
      2.561     -0.187     3.3752     31.222     43.138  33.035988     3.9600     0.2355     0.1704     0.0846 3.0561e-01     4.8372      2.511      3.642    12.7050 0.0000e+00
      2.511     -0.178     3.3668     30.184     42.918  33.010329     4.0500     0.3003     0.1278     0.2961 3.1029e-01     2.9283      2.462      3.571    12.7840 0.0000e+00
      2.467     -0.167     3.3591     28.474     42.765  32.991163     4.0500     0.3461     0.1278     0.2961 3.0680e-01     2.8832      2.419      3.509    12.9209 0.0000e+00
      2.429     -0.157     3.3336     26.135     42.631  32.955557     4.0500     0.3346     0.1278     0.2961 2.8920e-01     2.8231      2.382      3.455    13.1028 0.0000e+00
      2.395     -0.151     3.2699     23.411     42.479  32.919757     4.0500     0.3079     0.1278     0.2961 3.0734e-01     2.8532      2.348      3.406    13.2949 0.0000e+00
      2.361     -0.150     3.1501     20.686     42.317  32.907881     4.0500     0.3079     0.1278     0.2538 3.4283e-01     2.4925      2.315      3.358    13.4606 0.0000e+00
      2.325     -0.153     2.9648     18.324     42.169  32.920730     4.0500     0.3270     0.1278     0.2538 3.3437e-01     2.5075      2.280      3.306    13.5745 0.0000e+00
      2.285     -0.158     2.7175     16.566     42.044  32.945894     4.0500     0.3041     0.1278     0.2538 3.0962e-01     2.4173      2.241      3.250    13.6532 0.0000e+00
      2.242     -0.162     2.4302     15.530     41.938  32.970287     4.0500     0.3079     0.1278     0.2538 3.4605e-01     2.5225      2.198      3.188    13.7491 0.0000e+00
      2.196     -0.162     2.1418     15.225     41.837  32.988536     4.0500     0.3232     0.1278     0.2538 3.8285e-01     1.7710      2.154      3.124    13.8833 0.0000e+00
      2.151     -0.157     1.8909     15.561     41.738  33.001547     3.9600     0.3079     0.1278     0.2538 4.1553e-01     1.7710      2.110      3.060    14.0348 0.0000e+00
      2.110     -0.149     1.7036     16.370     41.641  33.016755     3.9600     0.3156     0.1278     0.2538 4.3136e-01     1.7560      2.069      3.000    14.1796 0.0000e+00
      2.073     -0.140     1.5916     17.444     41.547  33.038216     3.9600     0.3003     0.1278     0.2538 4.1589e-01     1.7710      2.033      2.948    14.3080 0.0000e+00
      2.041     -0.132     1.5552     18.587     41.463  33.059776     3.9600     0.3881     0.1278     0.2538 4.1770e-01     1.3051      2.001      2.903    14.4243 0.0000e+00
      2.012     -0.129     1.5848     19.679     41.404  33.087190     3.9600     0.3728     0.0852     0.2115 3.9134e-01     1.2450      1.973      2.862    14.5332 0.0000e+00
      1.984     -0.132     1.6625     20.685     41.366  33.127769     3.9600     0.3804     0.0852     0.2115 4.1229e-01     1.3351      1.946      2.822    14.6431 0.0000e+00
      1.953     -0.141     1.7668     21.605     41.323  33.168570     3.9600     0.3728     0.0852     0.2115 4.2199e-01     1.2750      1.916      2.778    14.7584 0.0000e+00
      1.918     -0.154     1.8782     22.427     41.260  33.208595     3.9600     0.3766     0.0852     0.2115 4.2642e-01     1.3351      1.881      2.728    14.8643 0.0000e+00
      1.876     -0.167     1.9846     23.148     41.178  33.260499     3.9600     0.3690     0.0426     0.2115 4.6292e-01     1.2750      1.840      2.669    14.9545 0.0000e+00
      1.829     -0.177     2.0824     23.790     41.082  33.330204     3.9600     0.3804     0.0426     0.2115 5.0716e-01     1.3652      1.794      2.601    15.0399 0.0000e+00
      1.778     -0.181     2.1708     24.390     40.986  33.422444     3.9600     0.3232     0.0426     0.2115 6.1697e-01     1.2750      1.743      2.528    15.1313 0.0000e+00
      1.726     -0.177     2.2480     24.993     40.883  33.520235     3.9600     0.5673     0.0426     0.2115 6.9500e-01     1.5305      1.692      2.454    15.2418 0.0000e+00
      1.677     -0.167     2.3131     25.646     40.767  33.600156     4.0500     0.5788     0.0852     0.2538 7.8852e-01     1.4854      1.645      2.386    15.3856 0.0000e+00
      1.636     -0.154     2.3681     26.380     40.668  33.667686     4.0500     0.5521     0.0852     0.2538 7.8051e-01     1.5907      1.604      2.327    15.5653 0.0000e+00
      1.601     -0.141     2.4171     27.209     40.587  33.726974     4.0500     0.5445     0.0852     0.2538 7.8034e-01     1.5606      1.570      2.277    15.7725 0.0000e+00
      1.570     -0.132     2.4652     28.130     40.506  33.768089     4.0500     0.4987     0.0852     0.2538 7.7123e-01     1.6508      1.540      2.234    15.9951 0.0000e+00
      1.542     -0.127     2.5182     29.109     40.426  33.782199     4.0500     0.5025     0.0852     0.2538 7.7459e-01     1.8011      1.512      2.193    16.2092 0.0000e+00
      1.513     -0.128     2.5804     30.084     40.373  33.779009     4.3200     0.4949     0.0426     0.4230 7.9058e-01     1.8462      1.483      2.152    16.3921 0.0000e+00
      1.481     -0.134     2.6529     30.995     40.383  33.797279     4.3200     0.5139     0.0426     0.4230 8.0113e-01     1.7109      1.452      2.107    16.5474 0.0000e+00
      1.446     -0.140     2.7353     31.788     40.444  33.857718     4.3200     0.5445     0.0426     0.4230 8.2731e-01     1.7259      1.418      2.057    16.6810 0.0000e+00
      1.408     -0.145     2.8250     32.417     40.506  33.944755     4.3200     0.5673     0.0426     0.4230 1.0190e+00     1.8011      1.381      2.002    16.7804 0.0000e+00
      1.367     -0.146     2.9168     32.866     40.552  34.051895     4.5000     0.5635     0.0852     0.3807 1.2148e+00     1.8612      1.341      1.944    16.8312 0.0000e+00
      1.326     -0.143     3.0047     33.166     40.577  34.176025     4.5000     0.5521     0.0852     0.3807 1.4568e+00     1.7710      1.300      1.886    16.8430 0.0000e+00
      1.288     -0.136     3.0809     33.407     40.570  34.300740     4.5000     0.7352     0.0852     0.3807 1.6311e+00     2.0115      1.263      1.832    16.8543 0.0000e+00
      1.254     -0.129     3.1390     33.709     40.518  34.399892     4.5000     0.7161     0.0852     0.3807 1.6027e+00     2.0115      1.230      1.784    16.8976 0.0000e+00
      1.225     -0.123     3.1768     34.173     40.406  34.440518     4.5900     0.7161     0.0852     0.6768 1.5462e+00     2.1017      1.201      1.742    16.9823 0.0000e+00
      1.198     -0.122     3.1973     34.867     40.256  34.419596     4.5900     0.7161     0.0852     0.6768 1.4992e+00     1.9664      1.175      1.704    17.1094 0.0000e+00
      1.171     -0.127     3.2097     35.807     40.111  34.365219     4.5900     0.6665     0.0852     0.6768 1.4744e+00     2.3271      1.149      1.666    17.2706 0.0000e+00
      1.141     -0.137     3.2266     36.966     39.989  34.304477     4.5900     0.7009     0.0852     0.6768 1.4882e+00     2.2520      1.119      1.623    17.4477 0.0000e+00
      1.106     -0.151     3.2595     38.285     39.875  34.252856     4.6800     0.6398     0.0852     1.1421 1.5964e+00     2.2520      1.085      1.573    17.6165 0.0000e+00
      1.065     -0.166     3.3164     39.707     39.752  34.218373     4.6800     0.6932     0.0852     1.1421 1.8704e+00     2.2971      1.044      1.515    17.7497 0.0000e+00
      1.018     -0.176     3.3997     41.233     39.627  34.211640     4.6800     1.1129     0.0852     1.1421 2.4292e+00     2.8832      0.998      1.448    17.8354 0.0000e+00
      0.966     -0.181     3.5055     42.964     39.524  34.236808     4.6800     1.0900     0.0852     1.1421 3.5034e+00     2.9734      0.948      1.375    17.8901 0.0000e+00
      0.915     -0.178     3.6258     45.089     39.453  34.286732     4.6800     1.0747     0.0852     1.1421 5.4660e+00     2.9434      0.897      1.301    17.9480 0.0000e+00
      0.866     -0.170     3.7530     47.787     39.412  34.350967     4.7700     1.1014     0.1278     1.6497 7.2565e+00     2.8231      0.850      1.232    18.0382 0.0000e+00
      0.824     -0.159     3.8865     51.110     39.389  34.424860     4.7700     1.6584     0.1278     1.6497 7.2628e+00     4.4614      0.808      1.172    18.1649 0.0000e+00
      0.787     -0.149     4.0372     54.952     39.382  34.516235     4.7700     1.6202     0.1278     1.6497 6.8743e+00     4.3111      0.772      1.120    18.3090 0.0000e+00
      0.755     -0.141     4.2242     59.137     39.405  34.637580     4.7700     1.6469     0.1278     1.6497 6.4112e+00     4.3712      0.740      1.074    18.4491 0.0000e+00
      0.723     -0.139     4.4650     63.541     39.506  34.825220     5.2200     1.6507     0.2130     4.7376 6.4854e+00     4.3111      0.709      1.029    18.5755 0.0000e+00
      0.690     -0.140     4.7635     68.162     39.727  35.123254     5.2200     1.8644     0.2130     4.7376 7.1299e+00     6.4454      0.677      0.982    18.6935 0.0000e+00
      0.654     -0.144     5.1083     73.106     40.031  35.514116     5.2200     1.8949     0.2130     4.7376 8.6776e+00     6.4003      0.642      0.931    18.8159 0.0000e+00
      0.615     -0.146     5.4829     78.544     40.331  35.921818     5.2200     1.8949     0.2130     4.7376 1.1712e+01     6.5656      0.603      0.875    18.9430 0.0000e+00
      0.574     -0.146     5.8761     84.767     40.602  36.312488     5.4900     1.8949     0.2556     7.7832 1.7112e+01     6.5055      0.563      0.816    19.0666 0.0000e+00
      0.534     -0.141     6.2864     92.149     40.885  36.711091     5.4900     2.3946     0.2556     7.7832 2.4449e+01    10.3232      0.523      0.759    19.1948 0.0000e+00
      0.497     -0.133     6.7209    100.908     41.182  37.114993     5.4900     2.4061     0.2556     7.7832 2.6815e+01    10.2029      0.487      0.706    19.3458 0.0000e+00
      0.465     -0.124     7.1946    110.903     41.472  37.507125     5.4900     2.3565     0.2556     7.7832 2.6566e+01    10.2330      0.455      0.660    19.5212 0.0000e+00
      0.437     -0.116     7.7356    121.663     41.730  37.861336     6.0300     2.3717     0.2982    12.4785 2.5491e+01    10.2781      0.428      0.621    19.7047 0.0000e+00
      0.411     -0.111     8.3794    132.572     41.946  38.169088     6.0300     2.8715     0.2982    12.4785 2.4760e+01    15.4484      0.403      0.585    19.8820 0.0000e+00
      0.386     -0.111     9.1460    143.006     42.190  38.492646     6.0300     2.8715     0.2982    12.4785 2.4391e+01    15.4935      0.379      0.549    20.0496 0.0000e+00
      0.360     -0.114    10.0220    152.404     42.492  38.868774     6.0300     2.8791     0.2982    12.4785 2.5216e+01    15.4484      0.353      0.511    20.2070 0.0000e+00
      0.330     -0.118    10.9648    160.321     42.760  39.223463     6.0300     2.8448     0.2982    12.4785 3.0576e+01    15.4484      0.323      0.469    20.3534 0.0000e+00
      0.297     -0.118    11.9195    166.516     42.901  39.465101     6.5700     3.1499     0.3408    15.4395 4.2728e+01    17.6729      0.291      0.422    20.4867 0.0000e+00
      0.262     -0.114    12.8301    171.001     42.946  39.608610     6.5700     3.1499     0.3408    15.4395 6.4288e+01    17.6428      0.257      0.373    20.6075 0.0000e+00
      0.229     -0.105    13.6442    173.955     43.024  39.765556     6.5700     3.1232     0.3408    15.4395 9.8466e+01    17.6128      0.224      0.326    20.7267 0.0000e+00
      0.201     -0.090    14.3196    175.574     43.274  40.074857     6.5700     3.1080     0.3408    15.4395 9.8960e+01    17.7781      0.197      0.286    20.8552 0.0000e+00
      0.180     -0.074    14.8375    175.994     43.653  40.521925     6.7500     3.3140     0.3408    17.5545 9.6770e+01    19.5066      0.177      0.256    20.9869 0.0000e+00
      0.166     -0.058    15.2047    175.414     43.944  40.926854     6.7500     3.3216     0.3408    17.5545 8.8156e+01    19.4615      0.163      0.236    21.1055 0.0000e+00
      0.157     -0.046    15.4401    174.193     44.092  41.233210     6.7500     3.3216     0.3408    17.5545 7.6744e+01    19.4465      0.154      0.223    21.2044 0.0000e+00
      0.150     -0.040    15.5588    172.787     44.187  41.500907     6.7500     3.2911     0.3408    17.5545 6.8529e+01    19.4465      0.147      0.214    21.2944 0.0000e+00
      0.144     -0.041    15.5648    171.520     44.255  41.728042     7.2000     3.3597     0.4686    18.7389 5.7657e+01    21.5356      0.141      0.205    21.4042 0.0000e+00
      0.136     -0.048    15.4688    170.436     44.321  41.919723     7.2000     3.3788     0.4686    18.7389 5.6002e+01    21.7912      0.133      0.194    21.5580 0.0000e+00
      0.124     -0.062    15.3053    169.409     44.487  42.172635     7.2000     3.3674     0.4686    18.7389 5.8540e+01    21.6108      0.122      0.177    21.7496 0.0000e+00
      0.108     -0.080    15.1228    168.351     44.839  42.583940     7.2000     3.3712     0.4686    18.7389 6.1903e+01    21.5958      0.106      0.154    21.9521 0.0000e+00
      0.087     -0.100    14.9586    167.261     45.348  43.152373     7.2000     3.4818     0.4686    18.7389 5.9593e+01    20.3934      0.085      0.123    22.1361 0.0000e+00
      0.059     -0.119    14.8220    166.211     45.934  43.825458     7.2000     3.4933     0.4686    19.7541 5.9710e+01    20.4384      0.058      0.084    22.2821 0.0000e+00
      0.024     -0.133    14.7024    165.319     46.467  44.487475     7.2000     3.4780     0.4686    19.7541 9.3605e+01    20.4084      0.024      0.034    22.3884 0.0000e+00
     -0.018     -0.140    14.5868    164.697     46.769  44.950396     7.2000     3.5009     0.4686    19.7541 2.1459e+02    20.3332     -0.017     -0.025    22.4729 0.0000e+00
     -0.062     -0.137    14.4668    164.383     46.862  45.200965     7.2000     2.9439     0.4686    19.7541 3.6768e+02    21.4004     -0.061     -0.088    22.5652 0.0000e+00
     -0.102     -0.127    14.3419    164.309     46.991  45.450655     6.9300     2.9249     0.4260    18.1044 3.6592e+02    21.2952     -0.100     -0.145    22.6901 0.0000e+00
     -0.134     -0.111    14.2199    164.368     47.288  45.843332     6.9300     2.9325     0.4260    18.1044 3.5235e+02    21.3703     -0.132     -0.191    22.8559 0.0000e+00
     -0.158     -0.093    14.1155    164.515     47.680  46.335099     6.9300     2.9478     0.4260    18.1044 3.3942e+02    21.4304     -0.155     -0.224    23.0443 0.0000e+00
     -0.174     -0.077    14.0423    164.747     48.001  46.775720     6.9300     2.7151     0.4260    18.1044 3.4372e+02    21.3703     -0.171     -0.248    23.2168 0.0000e+00
     -0.188     -0.067    14.0001    165.002     48.111  47.015186     6.7500     2.6998     0.5112    18.3159 3.3707e+02    21.4755     -0.184     -0.267    23.3507 0.0000e+00
     -0.200     -0.065    13.9755    165.147     47.980  46.994503     6.7500     2.6998     0.5112    18.3159 3.4164e+02    21.4304     -0.196     -0.285    23.4613 0.0000e+00
     -0.214     -0.071    13.9569    165.022     47.676  46.761667     6.7500     2.7227     0.5112    18.3159 3.3119e+02    21.3703     -0.210     -0.304    23.5787 0.0000e+00
     -0.230     -0.084    13.9408    164.497     47.314  46.428977     6.7500     2.5167     0.5112    18.3159 3.2954e+02    21.6409     -0.225     -0.327    23.7143 0.0000e+00
     -0.250     -0.103    13.9262    163.474     46.949  46.072185     6.5700     2.5396     0.4260    17.6391 2.6813e+02    21.6859     -0.245     -0.355    23.8526 0.0000e+00
     -0.276     -0.126    13.9087    161.888     46.450  45.590199     6.5700     2.5510     0.4260    17.6391 2.7882e+02    21.6108     -0.271     -0.393    23.9664 0.0000e+00
     -0.310     -0.148    13.8803    159.708     45.491  44.678123     6.5700     2.4938     0.4260    17.6391 3.2896e+02    21.5507     -0.305     -0.441    24.0356 0.0000e+00
     -0.353     -0.168    13.8299    156.952     43.687  42.946100     6.5700     2.8104     0.4260    17.6391 3.7478e+02    23.3242     -0.346     -0.502    24.0599 0.0000e+00
     -0.403     -0.179    13.7438    153.682     40.621  39.961987     6.5700     2.8219     0.4260    17.6391 3.6696e+02    23.4445     -0.395     -0.573    24.0609 0.0000e+00
     -0.456     -0.182    13.6084    150.039     35.609  35.042979     6.4800     2.8295     0.3408    17.7237 3.2379e+02    23.3092     -0.447     -0.649    24.0698 0.0000e+00
     -0.508     -0.174    13.4175    146.281     28.188  27.739099     6.4800     2.8104     0.3408    17.7237 2.6860e+02    23.3242     -0.499     -0.723    24.1009 0.0000e+00
     -0.554     -0.159    13.1758    142.793     20.046  19.721861     6.4800    -0.1231     0.3408    17.7237 2.1459e+02    -0.4084     -0.543     -0.788    24.1419 0.0000e+00
     -0.590     -0.139    12.8943    139.994     13.903  13.672924     6.4800    -0.1002     0.3408    17.7237 1.4851e+02    -0.3783     -0.579     -0.840    24.1702 0.0000e+00
     -0.619     -0.117    12.5875    138.165     10.189  10.013584     8.0100    -0.1308     0.2556    10.6173 1.1635e+02    -0.3933     -0.607     -0.880    24.1733 0.0000e+00
     -0.640     -0.098    12.2763    137.313      7.972   7.827340     8.0100    -0.1117     0.2556    10.6173 1.0501e+02    -0.4084     -0.628     -0.911    24.1548 0.0000e+00
     -0.657     -0.082    11.9906    137.189      6.640   6.513395     8.0100    -0.1269     0.2556    10.6173 9.5040e+01    -0.3633     -0.645     -0.935    24.1241 0.0000e+00
     -0.670     -0.071    11.7640    137.440      5.845   5.729270     8.0100    -0.1346     0.2556    10.6173 7.9615e+01    -0.3482     -0.657     -0.953    24.0864 0.0000e+00
     -0.680     -0.065    11.6196    137.747      5.517   5.404284     0.0000    -0.1079     0.5538     0.4230 6.0691e+01    -0.5436     -0.667     -0.967    24.0448 0.0000e+00
     -0.687     -0.063    11.5569    137.879      5.470   5.356858     0.0000    -0.1002     0.5538     0.4230 4.6104e+01    -0.4084     -0.674     -0.977    24.0043 0.0000e+00
     -0.692 -9.990e-29    11.5542 -9.990e-29 -9.990e-29 -9.990e-29     0.0000 -9.990e-29     0.5538     0.4230 4.0778e+01 -9.990e-29     -0.679     -0.984    23.9692 0.0000e+00
     -0.695 -9.990e-29    11.5815 -9.990e-29 -9.990e-29 -9.990e-29     0.0000 -9.990e-29     0.5538     0.4230 3.8138e+01 -9.990e-29     -0.682     -0.989    23.9415 0.0000e+00
     -0.697 -9.990e-29    11.6114 -9.990e-29 -9.990e-29 -9.990e-29     0.0000 -9.990e-29    -0.2556     0.1269 3.6619e+01 -9.990e-29     -0.684     -0.992    23.9227 0.0000e+00
     -0.698 -9.990e-29    11.6241 -9.990e-29 -9.990e-29 -9.990e-29     0.0000 -9.990e-29    -0.2556     0.1269 3.6255e+01 -9.990e-29     -0.685     -0.993    23.9158 0.0000e+00
