* Sea-Bird SBE19plus  Data File:
* FileName = C:\R\Reservoirs\Data\DataNotYetUploadedToEDI\Raw_CTD\RawDownloads\062623_fcr50_S8188_0006.hex
* Software version 2.8.0.119
* Temperature SN = 8188
* Conductivity SN = 8188
* System UpLoad Time = Jul 03 2023 16:32:16
* <ApplicationData>
* <Seaterm232>
* <SoftwareVersion>2.8.0.119</SoftwareVersion>
* <BuildDate>07-Nov-2018</BuildDate>
* </Seaterm232>
* </ApplicationData>
* <InstrumentState>
* <HardwareData DeviceType='SBE19plus' SerialNumber='01908188'>
*
*    <Manufacturer>Sea-Bird Electronics, Inc.</Manufacturer>
*
*    <FirmwareVersion>3.1.8</FirmwareVersion>
*
*    <FirmwareDate>Mar  9 2016 16:22:29</FirmwareDate>
*
*    <CommandSetVersion>1.4</CommandSetVersion>
*
*    <PCBAssembly PCBSerialNum='260079' AssemblyNum='41054K'/>
*
*    <PCBAssembly PCBSerialNum='260083' AssemblyNum='41059E'/>
*
*    <PCBAssembly PCBSerialNum='260085' AssemblyNum='41606B'/>
*
*    <PCBAssembly PCBSerialNum='260081' AssemblyNum='41967C'/>
*
*    <MfgDate>30 Mar 2022</MfgDate>
*
*    <InternalSensors>
*
*       <Sensor id='Main Temperature'>
*
*          <type>temperature0</type>
*
*          <SerialNumber>01908188</SerialNumber>
*
*       </Sensor>
*
*       <Sensor id='Main Conductivity'>
*
*          <type>conductivity-0</type>
*
*          <SerialNumber>01908188</SerialNumber>
*
*       </Sensor>
*
*       <Sensor id='Main Pressure'>
*
*          <type>strain-0</type>
*
*          <SerialNumber>12220741</SerialNumber>
*
*       </Sensor>
*
*    </InternalSensors>
*
*    <ExternalSensors>
*
*       <Sensor id='volt 0'>
*
*          <type>CHL</type>
*
*          <SerialNumber>FLNTURT-7096</SerialNumber>
*
*       </Sensor>
*
*       <Sensor id='volt 1'>
*
*          <type>NTU</type>
*
*          <SerialNumber>FLNTURT-7096</SerialNumber>
*
*       </Sensor>
*
*       <Sensor id='volt 2'>
*
*          <type>OXY</type>
*
*          <SerialNumber>43-4269</SerialNumber>
*
*       </Sensor>
*
*       <Sensor id='volt 3'>
*
*          <type>not assigned</type>
*
*          <SerialNumber>not assigned</SerialNumber>
*
*       </Sensor>
*
*       <Sensor id='volt 4'>
*
*          <type>PAR</type>
*
*          <SerialNumber>PARLOGICSW-2209</SerialNumber>
*
*       </Sensor>
*
*       <Sensor id='volt 5'>
*
*          <type>not assigned</type>
*
*          <SerialNumber>not assigned</SerialNumber>
*
*       </Sensor>
*
*       <Sensor id='serial'>
*
*          <type>WETLABS</type>
*
*          <SerialNumber>FL3-7350</SerialNumber>
*
*       </Sensor>
*
*    </ExternalSensors>
*
* </HardwareData>
* <StatusData DeviceType='SBE19plus' SerialNumber='01908188'>
*
*    <DateTime>2023-07-03T16:29:20</DateTime>
*
*    <LoggingState>not logging</LoggingState>
*
*    <EventSummary numEvents='0'/>
*
*    <Power>
*
*       <vMain>12.2</vMain>
*
*       <vLith>8.8</vLith>
*
*       <iMain>61.8</iMain>
*
*       <iPump>48.2</iPump>
*
*       <iExt01>22.4</iExt01>
*
*       <iExt2345>20.3</iExt2345>
*
*       <iSerial>45.4</iSerial>
*
*    </Power>
*
*    <MemorySummary>
*
*       <Bytes>665325</Bytes>
*
*       <Samples>26613</Samples>
*
*       <SamplesFree>2605312</SamplesFree>
*
*       <SampleLength>25</SampleLength>
*
*       <Profiles>25</Profiles>
*
*    </MemorySummary>
*
* </StatusData>
* <ConfigurationData DeviceType='SBE19plus' SerialNumber='01908188'>
*
*    <ProfileMode>
*
*       <ScansToAverage>1</ScansToAverage>
*
*       <MinimumCondFreq>5</MinimumCondFreq>
*
*       <PumpDelay>40</PumpDelay>
*
*       <AutoRun>no</AutoRun>
*
*       <IgnoreSwitch>no</IgnoreSwitch>
*
*    </ProfileMode>
*
*    <Battery>
*
*       <Type>alkaline</Type>
*
*       <CutOff>7.5</CutOff>
*
*    </Battery>
*
*    <DataChannels>
*
*       <ExtVolt0>yes</ExtVolt0>
*
*       <ExtVolt1>yes</ExtVolt1>
*
*       <ExtVolt2>yes</ExtVolt2>
*
*       <ExtVolt3>no</ExtVolt3>
*
*       <ExtVolt4>yes</ExtVolt4>
*
*       <ExtVolt5>no</ExtVolt5>
*
*       <SBE38>no</SBE38>
*
*       <WETLABS>yes</WETLABS>
*
*       <OPTODE>no</OPTODE>
*
*       <SBE63>no</SBE63>
*
*       <SeaFET>no</SeaFET>
*
*       <GTD>no</GTD>
*
*    </DataChannels>
*
*    <EchoCharacters>yes</EchoCharacters>
*
*    <OutputExecutedTag>yes</OutputExecutedTag>
*
*    <OutputFormat>raw HEX</OutputFormat>
*
* </ConfigurationData>
* <CalibrationCoefficients DeviceType='SBE19plus' SerialNumber='01908188'>
*
*    <Calibration format='TEMP1' id='Main Temperature'>
*
*       <SerialNum>01908188</SerialNum>
*
*       <CalDate>21-Aug-22</CalDate>
*
*       <TA0>1.265284e-03</TA0>
*
*       <TA1>2.691806e-04</TA1>
*
*       <TA2>-5.655711e-07</TA2>
*
*       <TA3>1.602369e-07</TA3>
*
*       <TOFFSET>0.000000e+00</TOFFSET>
*
*    </Calibration>
*
*    <Calibration format='WBCOND0' id='Main Conductivity'>
*
*       <SerialNum>01908188</SerialNum>
*
*       <CalDate>21-Aug-22</CalDate>
*
*       <G>-1.009562e+00</G>
*
*       <H>1.439229e-01</H>
*
*       <I>-4.343583e-04</I>
*
*       <J>5.328694e-05</J>
*
*       <CPCOR>-9.570000e-08</CPCOR>
*
*       <CTCOR>3.250000e-06</CTCOR>
*
*       <CSLOPE>1.000000e+00</CSLOPE>
*
*    </Calibration>
*
*    <Calibration format='STRAIN0' id='Main Pressure'>
*
*       <SerialNum>12220741</SerialNum>
*
*       <CalDate>11-Aug-22</CalDate>
*
*       <PA0>1.627942e-01</PA0>
*
*       <PA1>4.835849e-04</PA1>
*
*       <PA2>-3.975488e-12</PA2>
*
*       <PTCA0>5.244803e+05</PTCA0>
*
*       <PTCA1>2.817194e+01</PTCA1>
*
*       <PTCA2>-5.842684e-01</PTCA2>
*
*       <PTCB0>2.522087e+01</PTCB0>
*
*       <PTCB1>5.750000e-04</PTCB1>
*
*       <PTCB2>0.000000e+00</PTCB2>
*
*       <PTEMPA0>-5.709556e+01</PTEMPA0>
*
*       <PTEMPA1>5.248567e+01</PTEMPA1>
*
*       <PTEMPA2>-2.281498e-01</PTEMPA2>
*
*       <POFFSET>-4.700000e-02</POFFSET>
*
*       <PRANGE>1.600000e+02</PRANGE>
*
*    </Calibration>
*
*    <Calibration format='VOLT0' id='Volt 0'>
*
*       <OFFSET>-4.657200e-02</OFFSET>
*
*       <SLOPE>1.248989e+00</SLOPE>
*
*    </Calibration>
*
*    <Calibration format='VOLT0' id='Volt 1'>
*
*       <OFFSET>-4.600800e-02</OFFSET>
*
*       <SLOPE>1.249849e+00</SLOPE>
*
*    </Calibration>
*
*    <Calibration format='VOLT0' id='Volt 2'>
*
*       <OFFSET>-4.668000e-02</OFFSET>
*
*       <SLOPE>1.250379e+00</SLOPE>
*
*    </Calibration>
*
*    <Calibration format='VOLT0' id='Volt 3'>
*
*       <OFFSET>-4.643200e-02</OFFSET>
*
*       <SLOPE>1.251002e+00</SLOPE>
*
*    </Calibration>
*
*    <Calibration format='VOLT0' id='Volt 4'>
*
*       <OFFSET>-4.606100e-02</OFFSET>
*
*       <SLOPE>1.249962e+00</SLOPE>
*
*    </Calibration>
*
*    <Calibration format='VOLT0' id='Volt 5'>
*
*       <OFFSET>-4.642700e-02</OFFSET>
*
*       <SLOPE>1.248530e+00</SLOPE>
*
*    </Calibration>
*
*    <Calibration format='FREQ0' id='external frequency channel'>
*
*       <EXTFREQSF>1.000018e+00</EXTFREQSF>
*
*    </Calibration>
*
* </CalibrationCoefficients>
* <EventCounters DeviceType='SBE19plus' SerialNumber='01908188'>
*
*    <EventSummary numEvents='0'/>
*
* </EventCounters></InstrumentState>
* <Headers>
*
* cast   6 27 Jun 2023 13:22:52 samples 7566 to 8545, avg = 1, stop = mag switch
*
# nquan = 16
# nvalues = 980                         
# units = specified
# name 0 = depFM: Depth [fresh water, m]
# name 1 = dz/dtM: Descent Rate [m/s]
# name 2 = sbeox0Mg/L: Oxygen, SBE 43 [mg/l]
# name 3 = sbeox0PS: Oxygen, SBE 43 [% saturation]
# name 4 = specc: Specific Conductance [uS/cm]
# name 5 = c0uS/cm: Conductivity [uS/cm]
# name 6 = wetCDOM: Fluorescence, WET Labs CDOM [mg/m^3]
# name 7 = flECO-AFL: Fluorescence, WET Labs ECO-AFL/FL [mg/m^3]
# name 8 = flECO-AFL1: Fluorescence, WET Labs ECO-AFL/FL, 2 [mg/m^3]
# name 9 = flECO-AFL2: Fluorescence, WET Labs ECO-AFL/FL, 3 [mg/m^3]
# name 10 = par/sat/log: PAR/Logarithmic, Satlantic
# name 11 = turbWETntu0: Turbidity, WET Labs ECO [NTU]
# name 12 = prdM: Pressure, Strain Gauge [db]
# name 13 = prdE: Pressure, Strain Gauge [psi]
# name 14 = tv290C: Temperature [ITS-90, deg C]
# name 15 = flag:  0.000e+00
# span 0 =     -0.717,      6.855       
# span 1 =     -0.548,      0.107       
# span 2 =     0.0675,    13.4426       
# span 3 =      0.644,    163.587       
# span 4 =    -16.682,     47.743       
# span 5 = -14.313824,  47.761875       
# span 6 =    -4.5000,     7.0200       
# span 7 =    -0.1498,     2.7761       
# span 8 =    -2.1300,     1.2780       
# span 9 =    -2.0304,    19.6272       
# span 10 = 1.1592e-01, 5.5888e+02      
# span 11 =    -0.5136,   397.7249      
# span 12 =     -0.703,      6.723      
# span 13 =     -1.020,      9.751      
# span 14 =    10.5830,    25.2955      
# span 15 = 0.0000e+00, 0.0000e+00      
# interval = seconds: 0.25
# start_time = Jun 27 2023 13:22:52 [Instrument's time stamp, header]
# bad_flag = -9.990e-29
# <Sensors count="10" >
#   <sensor Channel="1" >
#     <!-- Count, Temperature -->
#     <TemperatureSensor SensorID="58" >
#       <SerialNumber>8188</SerialNumber>
#       <CalibrationDate>21-Aug-22</CalibrationDate>
#       <A0>1.26528397e-003</A0>
#       <A1>2.69180636e-004</A1>
#       <A2>-5.65571102e-007</A2>
#       <A3>1.60236871e-007</A3>
#       <Slope>1.00000000</Slope>
#       <Offset>0.0000</Offset>
#     </TemperatureSensor>
#   </sensor>
#   <sensor Channel="2" >
#     <!-- Frequency 0, Conductivity -->
#     <ConductivitySensor SensorID="3" >
#       <SerialNumber>8188</SerialNumber>
#       <CalibrationDate>21-Aug-22</CalibrationDate>
#       <UseG_J>1</UseG_J>
#       <!-- Cell const and series R are applicable only for wide range sensors. -->
#       <SeriesR>0.0000</SeriesR>
#       <CellConst>2000.0000</CellConst>
#       <ConductivityType>0</ConductivityType>
#       <Coefficients equation="0" >
#         <A>0.00000000e+000</A>
#         <B>0.00000000e+000</B>
#         <C>0.00000000e+000</C>
#         <D>0.00000000e+000</D>
#         <M>0.0</M>
#         <CPcor>-9.57000000e-008</CPcor>
#       </Coefficients>
#       <Coefficients equation="1" >
#         <G>-1.00956200e+000</G>
#         <H>1.43922862e-001</H>
#         <I>-4.34358337e-004</I>
#         <J>5.32869425e-005</J>
#         <CPcor>-9.57000000e-008</CPcor>
#         <CTcor>3.2500e-006</CTcor>
#         <!-- WBOTC not applicable unless ConductivityType = 1. -->
#         <WBOTC>0.00000000e+000</WBOTC>
#       </Coefficients>
#       <Slope>1.00000000</Slope>
#       <Offset>0.00000</Offset>
#     </ConductivitySensor>
#   </sensor>
#   <sensor Channel="3" >
#     <!-- Count, Pressure, Strain Gauge -->
#     <PressureSensor SensorID="46" >
#       <SerialNumber>8188</SerialNumber>
#       <CalibrationDate>11-Aug-22</CalibrationDate>
#       <PA0>1.62794185e-001</PA0>
#       <PA1>4.83584930e-004</PA1>
#       <PA2>-3.97548787e-012</PA2>
#       <PTEMPA0>-5.70955636e+001</PTEMPA0>
#       <PTEMPA1>5.24856726e+001</PTEMPA1>
#       <PTEMPA2>-2.28149804e-001</PTEMPA2>
#       <PTCA0>5.24480263e+005</PTCA0>
#       <PTCA1>2.81719406e+001</PTCA1>
#       <PTCA2>-5.84268386e-001</PTCA2>
#       <PTCB0>2.52208750e+001</PTCB0>
#       <PTCB1>5.75000000e-004</PTCB1>
#       <PTCB2>0.00000000e+000</PTCB2>
#       <Offset>0.000000</Offset>
#     </PressureSensor>
#   </sensor>
#   <sensor Channel="4" >
#     <!-- A/D voltage 0, Fluorometer, WET Labs ECO-AFL/FL -->
#     <FluoroWetlabECO_AFL_FL_Sensor SensorID="20" >
#       <SerialNumber>FLNTURT-7096</SerialNumber>
#       <CalibrationDate>01-Sep-2022</CalibrationDate>
#       <ScaleFactor>5.00000000e+001</ScaleFactor>
#       <!-- Dark output -->
#       <Vblank>0.0680</Vblank>
#     </FluoroWetlabECO_AFL_FL_Sensor>
#   </sensor>
#   <sensor Channel="5" >
#     <!-- A/D voltage 1, Turbidity Meter, WET Labs, ECO-NTU -->
#     <TurbidityMeter SensorID="67" >
#       <SerialNumber>FLNTURT-7096</SerialNumber>
#       <CalibrationDate>01-Sep-2022</CalibrationDate>
#       <ScaleFactor>197.000000</ScaleFactor>
#       <!-- Dark output -->
#       <DarkVoltage>0.067000</DarkVoltage>
#     </TurbidityMeter>
#   </sensor>
#   <sensor Channel="6" >
#     <!-- A/D voltage 2, Oxygen, SBE 43 -->
#     <OxygenSensor SensorID="38" >
#       <SerialNumber>4269</SerialNumber>
#       <CalibrationDate>16-Aug-22</CalibrationDate>
#       <Use2007Equation>1</Use2007Equation>
#       <CalibrationCoefficients equation="0" >
#         <!-- Coefficients for Owens-Millard equation. -->
#         <Boc>0.0000</Boc>
#         <Soc>0.0000e+000</Soc>
#         <offset>0.0000</offset>
#         <Pcor>0.00e+000</Pcor>
#         <Tcor>0.0000</Tcor>
#         <Tau>0.0</Tau>
#       </CalibrationCoefficients>
#       <CalibrationCoefficients equation="1" >
#         <!-- Coefficients for Sea-Bird equation - SBE calibration in 2007 and later. -->
#         <Soc>4.2506e-001</Soc>
#         <offset>-0.4922</offset>
#         <A>-4.5893e-003</A>
#         <B> 1.8653e-004</B>
#         <C>-2.0781e-006</C>
#         <D0> 2.5826e+000</D0>
#         <D1> 1.92634e-004</D1>
#         <D2>-4.64803e-002</D2>
#         <E> 3.6000e-002</E>
#         <Tau20> 2.3100</Tau20>
#         <H1>-3.3000e-002</H1>
#         <H2> 5.0000e+003</H2>
#         <H3> 1.4500e+003</H3>
#       </CalibrationCoefficients>
#     </OxygenSensor>
#   </sensor>
#   <sensor Channel="7" >
#     <!-- A/D voltage 3, PAR/Logarithmic, Satlantic -->
#     <PARLog_SatlanticSensor SensorID="76" >
#       <SerialNumber>2209</SerialNumber>
#       <CalibrationDate>14-Jan-2022</CalibrationDate>
#       <a0>9.8861e-001</a0>
#       <a1>8.0845e-001</a1>
#       <Im>1.3589e+000</Im>
#       <Multiplier>1.0000e+000</Multiplier>
#     </PARLog_SatlanticSensor>
#   </sensor>
#   <sensor Channel="8" >
#     <!-- Serial RS-232, Fluorometer, WET Labs ECO-AFL/FL, 2 -->
#     <FluoroWetlabECO_AFL_FL_Sensor SensorID="20" >
#       <SerialNumber>FL3-7350</SerialNumber>
#       <CalibrationDate>10-Mar-2022</CalibrationDate>
#       <ScaleFactor>4.26000000e-002</ScaleFactor>
#       <!-- Dark output -->
#       <Vblank>50.0000</Vblank>
#     </FluoroWetlabECO_AFL_FL_Sensor>
#   </sensor>
#   <sensor Channel="9" >
#     <!-- Serial RS-232, Fluorometer, WET Labs ECO-AFL/FL, 3 -->
#     <FluoroWetlabECO_AFL_FL_Sensor SensorID="20" >
#       <SerialNumber>FL3-7350</SerialNumber>
#       <CalibrationDate>10-Mar-2022</CalibrationDate>
#       <ScaleFactor>4.23000000e-002</ScaleFactor>
#       <!-- Dark output -->
#       <Vblank>48.0000</Vblank>
#     </FluoroWetlabECO_AFL_FL_Sensor>
#   </sensor>
#   <sensor Channel="10" >
#     <!-- Serial RS-232, Fluorometer, WET Labs ECO CDOM -->
#     <FluoroWetlabCDOM_Sensor SensorID="19" >
#       <SerialNumber>FL3-7350</SerialNumber>
#       <CalibrationDate>10-Mar-2022</CalibrationDate>
#       <ScaleFactor>0.090</ScaleFactor>
#       <!-- Dark output -->
#       <Vblank>50.000</Vblank>
#     </FluoroWetlabCDOM_Sensor>
#   </sensor>
# </Sensors>
# datcnv_date = Jul 03 2023 16:59:38, 7.26.7.129 [datcnv_vars = 15]
# datcnv_in = C:\R\Reservoirs\Data\DataNotYetUploadedToEDI\Raw_CTD\RawDownloads\062723_fcrXX_S8188006.hex C:\R\Reservoirs\Data\DataNotYetUploadedToEDI\Raw_CTD\RawDownloads\SBE19plusV2_8188_start20221003.xmlcon
# datcnv_skipover = 0
# datcnv_ox_hysteresis_correction = yes
# datcnv_ox_tau_correction = yes
# filter_date = Jul 03 2023 17:00:14, 7.26.7.129
# filter_in = C:\R\Reservoirs\Data\DataNotYetUploadedToEDI\Raw_CTD\RawDownloads\062723_fcrXX_S8188006.cnv
# filter_low_pass_tc_A = 0.500
# filter_low_pass_tc_B = 1.000
# filter_low_pass_A_vars = sbeox0Mg/L sbeox0PS specc c0uS/cm tv290C
# filter_low_pass_B_vars = depFM dz/dtM prdM prdE
# alignctd_date = Jul 03 2023 17:00:42, 7.26.7.129
# alignctd_in = C:\R\Reservoirs\Data\DataNotYetUploadedToEDI\Raw_CTD\RawDownloads\062723_fcrXX_S8188006.cnv
# alignctd_adv = dz/dtM 1.000, sbeox0PS 1.000, specc 1.000, c0uS/cm 1.000, flECO-AFL 1.000, turbWETntu0 1.000                                                                                                                        
# file_type = ascii
*END*
     -0.715 1.2741e-12     8.7492     92.386      0.722   0.620751    -4.5000    -0.0850    -2.1300    -2.0304 2.4549e+02    -0.4084     -0.701     -1.017    17.9752 0.0000e+00
     -0.715 1.6382e-12     8.7496     92.386      0.571   0.490936    -4.5000    -0.1002    -2.1300    -2.0304 2.4640e+02    -0.3482     -0.701     -1.017    17.9736 0.0000e+00
     -0.715 2.1063e-12     8.7502     92.380      0.427   0.366514    -4.5000    -0.0583    -2.1300    -2.0304 2.5137e+02    -0.3783     -0.701     -1.017    17.9714 0.0000e+00
     -0.715 2.7082e-12     8.7510     92.372      0.236   0.202443     0.0000    -0.1079     0.0000    -0.0423 2.5197e+02    -0.3482     -0.701     -1.017    17.9691 0.0000e+00
     -0.715 3.4819e-12     8.7518     92.368      0.316   0.271282     0.0000    -0.1269     0.0000    -0.0423 2.5263e+02    -0.3332     -0.701     -1.017    17.9666 0.0000e+00
     -0.715 4.4768e-12     8.7523     92.369      0.836   0.717895     0.0000    -0.1117     0.0000    -0.0423 2.5066e+02    -0.4534     -0.701     -1.017    17.9641 0.0000e+00
     -0.715 5.7559e-12     8.7522     92.368      1.456   1.250162     0.0000    -0.1346     0.0000    -0.0423 2.5170e+02    -0.5136     -0.701     -1.017    17.9616 0.0000e+00
     -0.715 7.4005e-12     8.7520     92.365      2.662   2.286778     0.0000    -0.0735     0.0000    -0.0423 2.5357e+02     0.0726     -0.701     -1.017    17.9592 0.0000e+00
     -0.715 9.5149e-12     8.7520     92.366      4.273   3.670783     0.0000    -0.0545     0.0000     0.0423 2.5412e+02     0.0726     -0.701     -1.017    17.9570 0.0000e+00
     -0.715 1.2233e-11     8.7524     92.372      4.755   4.084462     0.0000    -0.0354     0.0000     0.0423 2.7659e+02     0.0426     -0.701     -1.017    17.9549 0.0000e+00
     -0.716 1.5729e-11     8.7527     92.384      4.314   3.705716     0.0000    -0.0506     0.0000     0.0423 2.8273e+02     0.0576     -0.702     -1.018    17.9529 0.0000e+00
     -0.716 2.0223e-11     8.7527     92.395      3.816   3.278114     0.0000    -0.1155     0.0000     0.0423 2.9657e+02    -0.1829     -0.702     -1.018    17.9509 0.0000e+00
     -0.716 2.6000e-11     8.7530     92.399      3.401   2.920951     0.0000    -0.0850     0.0000    -0.0423 3.0362e+02    -0.1679     -0.702     -1.018    17.9490 0.0000e+00
     -0.716 3.3429e-11     8.7540     92.396      3.506   3.011543     0.0000    -0.1193     0.0000    -0.0423 3.0322e+02    -0.2581     -0.702     -1.018    17.9470 0.0000e+00
     -0.716 4.2980e-11     8.7554     92.391      3.196   2.745198     0.0000    -0.1231     0.0000    -0.0423 2.9748e+02    -0.2130     -0.702     -1.018    17.9452 0.0000e+00
     -0.716 5.5261e-11     8.7568     92.388      1.915   1.644902     0.0000    -0.1269     0.0000    -0.0423 2.9127e+02     0.7490     -0.702     -1.018    17.9434 0.0000e+00
     -0.716 7.1049e-11     8.7575     92.385      1.032   0.886427     0.0000    -0.1193     0.0426     0.0846 2.9102e+02     0.8391     -0.702     -1.019    17.9417 0.0000e+00
     -0.716 9.1349e-11     8.7576     92.379      0.213   0.183131     0.0000    -0.1269     0.0426     0.0846 2.7147e+02     0.7790     -0.702     -1.019    17.9400 0.0000e+00
     -0.716 1.1745e-10     8.7575     92.368     -0.919  -0.788726     0.0000    -0.1193     0.0426     0.0846 2.6895e+02     0.7339     -0.702     -1.019    17.9384 0.0000e+00
     -0.716 1.5101e-10     8.7575     92.351     -1.613  -1.384766     0.0000     0.2088     0.0426     0.0846 2.6402e+02     6.9865     -0.702     -1.019    17.9366 0.0000e+00
     -0.716 1.9415e-10     8.7575     92.335     -1.596  -1.370554     0.0000     0.1859     0.0426     0.2538 2.7557e+02     6.8512     -0.702     -1.019    17.9348 0.0000e+00
     -0.717 2.4962e-10     8.7573     92.323     -0.777  -0.667222     0.0000     0.1782     0.0426     0.2538 2.5175e+02     6.8963     -0.703     -1.019    17.9330 0.0000e+00
     -0.717 3.2094e-10     8.7566     92.313      0.202   0.173450     0.0000     0.1859     0.0426     0.2538 2.3808e+02     7.0165     -0.703     -1.019    17.9312 0.0000e+00
     -0.717 4.1264e-10     8.7554     92.304      0.822   0.705500     0.0000    -0.1117     0.0426     0.2538 2.3464e+02     8.2039     -0.703     -1.019    17.9295 0.0000e+00
     -0.717 5.3054e-10     8.7541     92.297      1.151   0.987768     0.0000    -0.1155     0.0426     0.2538 2.2427e+02     8.2189     -0.703     -1.019    17.9279 0.0000e+00
     -0.717 6.8212e-10     8.7532     92.295      1.230   1.055977     0.0000    -0.1269    -0.0426     0.0000 2.2276e+02     8.1137     -0.703     -1.019    17.9263 0.0000e+00
     -0.717 8.7701e-10     8.7525     92.298      1.206   1.035088     0.0000    -0.1269    -0.0426     0.0000 2.0685e+02     8.1588     -0.703     -1.019    17.9249 0.0000e+00
     -0.717 1.1276e-09     8.7518     92.303      1.189   1.020371     0.0000    -0.1155    -0.0426     0.0000 1.9819e+02     5.3031     -0.703     -1.019    17.9235 0.0000e+00
     -0.717 1.4497e-09     8.7514     92.307      1.137   0.976265     0.0000    -0.1231    -0.0426     0.0000 1.9536e+02     5.2580     -0.703     -1.020    17.9222 0.0000e+00
     -0.717 1.8640e-09     8.7514     92.308      1.036   0.889031     0.0000    -0.1155     0.0000     0.0846 1.9498e+02     5.2129     -0.703     -1.020    17.9210 0.0000e+00
     -0.717 2.3965e-09     8.7519     92.310      0.970   0.832287     0.0000    -0.1155     0.0000     0.0846 1.9519e+02     5.3332     -0.703     -1.019    17.9199 0.0000e+00
     -0.717 3.0812e-09     8.7526     92.316      0.944   0.810671     0.0000    -0.0850     0.0000     0.0846 1.9469e+02     5.0776     -0.703     -1.019    17.9188 0.0000e+00
     -0.717 3.9616e-09     8.7531     92.323      0.979   0.840162     0.0000    -0.1155     0.0000     0.0846 1.9409e+02     5.0776     -0.703     -1.019    17.9177 0.0000e+00
     -0.717 5.0935e-09     8.7534     92.327      1.098   0.942455     0.0000    -0.1498     0.0000     0.0423 1.9562e+02     5.0025     -0.703     -1.019    17.9167 0.0000e+00
     -0.717 6.5488e-09     8.7538     92.333      1.066   0.915483     0.0000    -0.1231     0.0000     0.0423 1.9592e+02     5.0776     -0.703     -1.019    17.9157 0.0000e+00
     -0.717 8.4198e-09     8.7546     92.341      0.795   0.682862     0.0000    -0.1117     0.0000     0.0423 1.9600e+02     4.9875     -0.703     -1.019    17.9147 0.0000e+00
     -0.717 1.0826e-08     8.7554     92.351      0.524   0.449471     0.0000    -0.1079     0.0000     0.0423 1.9592e+02     4.9875     -0.703     -1.019    17.9138 0.0000e+00
     -0.717 1.3919e-08     8.7560     92.360      0.423   0.362647     0.0000    -0.1079    -0.0852    -0.2538 1.9875e+02     5.0175     -0.703     -1.019    17.9130 0.0000e+00
     -0.717 1.7895e-08     8.7567     92.368      0.392   0.335971     0.0000    -0.1269    -0.0852    -0.2538 1.9634e+02     5.0927     -0.703     -1.019    17.9121 0.0000e+00
     -0.717 2.3008e-08     8.7576     92.372      0.450   0.386054     0.0000    -0.0964    -0.0852    -0.2538 1.9050e+02     4.5516     -0.703     -1.019    17.9113 0.0000e+00
     -0.717 2.9582e-08     8.7587     92.374      0.795   0.682436     0.0000    -0.1155    -0.0852    -0.2538 1.8632e+02     4.5366     -0.703     -1.019    17.9105 0.0000e+00
     -0.717 3.8034e-08     8.7598     92.373      1.400   1.201348     0.0000    -0.1155    -0.0852    -0.2538 1.8467e+02     4.6117     -0.703     -1.020    17.9098 0.0000e+00
     -0.717 4.8901e-08     8.7606     92.364      2.153   1.847872     0.0000    -0.1155     0.0426     0.0000 1.8339e+02     4.4915     -0.703     -1.020    17.9090 0.0000e+00
     -0.717 6.2872e-08     8.7611     92.354      2.963   2.543314     0.0000    -0.0888     0.0426     0.0000 1.8129e+02     4.3111     -0.703     -1.020    17.9084 0.0000e+00
     -0.717 8.0836e-08     8.7614     92.347      3.468   2.976798     0.0000    -0.0888     0.0426     0.0000 1.8200e+02     4.3111     -0.703     -1.020    17.9077 0.0000e+00
     -0.717 1.0393e-07     8.7613     92.342      2.554   2.191989     0.0000    -0.1117     0.0426     0.0000 1.8331e+02     4.2660     -0.703     -1.020    17.9071 0.0000e+00
     -0.717 1.3363e-07     8.7605     92.339      0.339   0.291633     0.0000    -0.1231    -0.0426    -0.1269 1.8467e+02     4.4163     -0.703     -1.020    17.9065 0.0000e+00
     -0.717 1.7181e-07     8.7596     92.343     -1.254  -1.075800     0.0000    -0.1002    -0.0426    -0.1269 1.8335e+02     4.3111     -0.703     -1.020    17.9059 0.0000e+00
     -0.717 2.2089e-07     8.7592     92.355     -1.743  -1.495601     0.0000    -0.1269    -0.0426    -0.1269 1.8192e+02     4.4013     -0.703     -1.020    17.9054 0.0000e+00
     -0.717 2.8401e-07     8.7588     92.371     -1.843  -1.581769     0.0000    -0.1231    -0.0426    -0.1269 1.8252e+02     4.4314     -0.703     -1.020    17.9048 0.0000e+00
     -0.717 3.6515e-07     8.7588     92.381     -1.787  -1.533225     0.0000    -0.0926     0.0000     0.1269 1.8415e+02     4.4163     -0.703     -1.020    17.9043 0.0000e+00
     -0.717 4.6948e-07     8.7593     92.381     -1.510  -1.295504     0.0000    -0.1308     0.0000     0.1269 1.8515e+02     4.3412     -0.703     -1.020    17.9038 0.0000e+00
     -0.717 6.0362e-07     8.7606     92.376     -1.222  -1.048376     0.0000    -0.1269     0.0000     0.1269 1.8722e+02     4.3111     -0.703     -1.020    17.9033 0.0000e+00
     -0.717 7.7608e-07     8.7621     92.371     -1.627  -1.396169     0.0000    -0.1346     0.0000     0.1269 1.9021e+02     4.4314     -0.703     -1.020    17.9028 0.0000e+00
     -0.717 9.9781e-07     8.7631     92.365     -2.392  -2.052234     0.0000    -0.0926     0.0426    -0.0846 1.9566e+02     4.2810     -0.703     -1.020    17.9024 0.0000e+00
     -0.717      0.000     8.7632     92.358     -2.503  -2.147784     0.0000    -0.1002     0.0426    -0.0846 2.1241e+02     6.2049     -0.703     -1.020    17.9020 0.0000e+00
     -0.717      0.000     8.7628     92.354     -2.528  -2.168748     0.0000    -0.1269     0.0426    -0.0846 2.2845e+02     6.2049     -0.703     -1.020    17.9016 0.0000e+00
     -0.717      0.000     8.7624     92.353     -3.356  -2.879731     0.0000    -0.1002     0.0426    -0.0846 2.4331e+02     6.3402     -0.703     -1.020    17.9012 0.0000e+00
     -0.717      0.000     8.7618     92.356     -4.894  -4.199486     0.0000    -0.1384     0.0426    -0.0846 2.3730e+02     6.2801     -0.703     -1.020    17.9009 0.0000e+00
     -0.717      0.000     8.7613     92.363     -6.711  -5.758413     0.0000    -0.1079    -0.0852    -0.0423 2.3337e+02     6.0245     -0.703     -1.020    17.9005 0.0000e+00
     -0.717      0.000     8.7610     92.369     -9.047  -7.762715     0.0000    -0.1422    -0.0852    -0.0423 2.3387e+02     6.0396     -0.703     -1.020    17.9002 0.0000e+00
     -0.717      0.000     8.7610     92.373    -13.303 -11.415026     0.0000    -0.1079    -0.0852    -0.0423 2.3901e+02     6.0095     -0.703     -1.020    17.8999 0.0000e+00
     -0.717      0.000     8.7613     92.379    -16.682 -14.313824     0.0000    -0.1422    -0.0852    -0.0423 2.3834e+02     5.9945     -0.703     -1.020    17.8996 0.0000e+00
     -0.717      0.000     8.7620     92.383    -14.663 -12.581792     0.0000    -0.1041     0.0000     0.0846 2.3736e+02     6.2049     -0.703     -1.020    17.8993 0.0000e+00
     -0.717      0.000     8.7626     92.384     -9.448  -8.106768     0.0000    -0.1002     0.0000     0.0846 2.3705e+02     6.2049     -0.703     -1.020    17.8991 0.0000e+00
     -0.717      0.000     8.7631     92.383     -4.788  -4.108681     0.0000    -0.0697     0.0000     0.0846 2.3170e+02     6.2650     -0.703     -1.020    17.8989 0.0000e+00
     -0.717      0.000     8.7637     92.375     -2.151  -1.846128     0.0000    -0.1346     0.0000     0.0846 2.3428e+02     6.3702     -0.703     -1.020    17.8987 0.0000e+00
     -0.717      0.000     8.7640     92.363     -1.709  -1.466947     0.0000    -0.1079     0.0000     0.1269 2.3658e+02     6.3101     -0.703     -1.020    17.8985 0.0000e+00
     -0.717      0.000     8.7642     92.352     -2.598  -2.229328     0.0000    -0.1079     0.0000     0.1269 2.4063e+02     6.3402     -0.703     -1.020    17.8983 0.0000e+00
     -0.717      0.000     8.7640     92.343     -3.706  -3.180186     0.0000    -0.0888     0.0000     0.1269 2.3705e+02     6.3402     -0.703     -1.020    17.8982 0.0000e+00
     -0.717      0.000     8.7632     92.338     -3.706  -3.179547     0.0000    -0.1269     0.0000     0.1269 2.3236e+02     6.2500     -0.703     -1.020    17.8980 0.0000e+00
     -0.717      0.000     8.7621     92.338     -2.743  -2.353543     0.0000    -0.1384     0.0000     0.0423 2.3772e+02     6.2951     -0.703     -1.020    17.8979 0.0000e+00
     -0.717      0.000     8.7611     92.343     -1.727  -1.482008     0.0000    -0.1079     0.0000     0.0423 2.3715e+02     6.2801     -0.703     -1.020    17.8978 0.0000e+00
     -0.717      0.000     8.7604     92.352     -1.037  -0.890010     0.0000    -0.1231     0.0000     0.0423 2.3571e+02     6.2049     -0.703     -1.020    17.8977 0.0000e+00
     -0.717      0.000     8.7599     92.362     -0.731  -0.627260     0.0000    -0.1155     0.0000     0.0423 2.3195e+02     6.2049     -0.703     -1.020    17.8977 0.0000e+00
     -0.717      0.000     8.7599     92.371     -0.722  -0.619736     0.0000    -0.1269     0.0000     0.0423 2.3085e+02     5.7841     -0.703     -1.020    17.8976 0.0000e+00
     -0.717      0.000     8.7603     92.376     -1.009  -0.865434     0.0000    -0.0964     0.0000     0.0000 2.3160e+02     6.0396     -0.703     -1.020    17.8975 0.0000e+00
     -0.717      0.000     8.7610     92.377     -1.602  -1.374514     0.0000    -0.1155     0.0000     0.0000 2.3938e+02     5.9494     -0.703     -1.020    17.8975 0.0000e+00
     -0.717      0.000     8.7620     92.377     -2.573  -2.207604     0.0000    -0.1193     0.0000     0.0000 2.4506e+02     5.9644     -0.703     -1.020    17.8976 0.0000e+00
     -0.717      0.001     8.7629     92.380     -2.638  -2.262898     0.0000    -0.1002     0.0000     0.0000 2.3932e+02     5.9494     -0.703     -1.019    17.8976 0.0000e+00
     -0.717      0.001     8.7634     92.384     -1.065  -0.913426     0.0000    -0.1422     0.0000    -0.1269 2.3296e+02     5.9795     -0.703     -1.019    17.8977 0.0000e+00
     -0.716      0.001     8.7635     92.384      0.339   0.291337     0.0000    -0.1460     0.0000    -0.1269 2.2726e+02     6.0396     -0.702     -1.019    17.8978 0.0000e+00
     -0.716      0.001     8.7635     92.383      1.239   1.064552     0.0000    -0.1155     0.0000    -0.1269 2.2040e+02     5.9193     -0.702     -1.019    17.8979 0.0000e+00
     -0.716      0.001     8.7637     92.381      1.854   1.592684     0.0000    -0.1231     0.0000    -0.1269 2.1329e+02     2.9434     -0.702     -1.018    17.8980 0.0000e+00
     -0.716      0.002     8.7640     92.379      1.637   1.407517     0.0000    -0.1079     0.0000     0.2961 2.1112e+02     2.9283     -0.702     -1.018    17.8982 0.0000e+00
     -0.715      0.002     8.7640     92.373      1.247   1.074660     0.0000    -0.0926     0.0000     0.2961 2.0663e+02     2.9283     -0.701     -1.017    17.8984 0.0000e+00
     -0.715      0.003     8.7638     92.358      1.132   0.977983     0.0000    -0.1308     0.0000     0.2961 2.1389e+02     2.8382     -0.701     -1.017    17.8988 0.0000e+00
     -0.714      0.004     8.7635     92.339      1.084   0.941447     0.0000    -0.1079     0.0000     0.2961 2.0206e+02    -0.2130     -0.700     -1.016    17.8994 0.0000e+00
     -0.713      0.005     8.7632     92.321      0.947   0.830749     0.0000    -0.1002     0.0000     0.2961 1.9918e+02    -0.2430     -0.699     -1.014    17.9005 0.0000e+00
     -0.712      0.007     8.7623     92.301      0.757   0.679631     0.0000    -0.1079     0.0000    -0.1269 2.1661e+02    -0.1528     -0.698     -1.012    17.9023 0.0000e+00
     -0.710      0.008     8.7604     92.283      0.951   0.866925     0.0000    -0.0850     0.0000    -0.1269 2.2050e+02    -0.1228     -0.696     -1.010    17.9053 0.0000e+00
     -0.708      0.011     8.7577     92.271      1.784   1.616558     0.0000    -0.1002     0.0000    -0.1269 2.3155e+02    -0.3933     -0.694     -1.006    17.9102 0.0000e+00
     -0.705      0.014     8.7546     92.264      3.134   2.831882     0.0000    -0.0926     0.0000    -0.1269 2.1854e+02    -0.4384     -0.691     -1.003    17.9185 0.0000e+00
     -0.701      0.018     8.7505     92.259      5.083   4.599743     0.0000    -0.1079     0.0852    -0.2538 2.1912e+02    -0.4084     -0.688     -0.998    17.9323 0.0000e+00
     -0.697      0.023     8.7449     92.260      7.820   7.106848     0.0000    -0.1269     0.0852    -0.2538 2.4000e+02    -0.3783     -0.683     -0.991    17.9553 0.0000e+00
     -0.691      0.030     8.7373     92.268     11.814  10.798328     0.0000     1.4524     0.0852    -0.2538 2.7846e+02    16.4104     -0.677     -0.983    17.9937 0.0000e+00
     -0.683      0.038     8.7258     92.289     18.176  16.698124     0.0000     1.4638     0.0852    -0.2538 2.9484e+02    16.3352     -0.670     -0.972    18.0578 0.0000e+00
     -0.673      0.048     8.7075     92.328     26.493  24.521616     0.0000     1.4753     0.0000    -0.7614 3.0527e+02    16.4855     -0.660     -0.958    18.1645 0.0000e+00
     -0.660      0.058     8.6778     92.384     33.979  31.825152     0.0000     1.4714     0.0000    -0.7614 2.9445e+02    16.5005     -0.648     -0.940    18.3424 0.0000e+00
     -0.644      0.069     8.6289     92.456     38.917  36.949426     0.0000     2.0856     0.0000    -0.7614 2.8982e+02    20.6188     -0.632     -0.917    18.6389 0.0000e+00
     -0.625      0.078     8.5482     92.543     41.762  40.145799     0.0000     2.0856     0.0000    -0.7614 3.3817e+02    20.6038     -0.612     -0.888    19.1324 0.0000e+00
     -0.602      0.084     8.4268     92.644     43.327  42.078447     1.3500     2.0780     0.2130     4.2300 3.7356e+02    20.6639     -0.590     -0.856    19.8842 0.0000e+00
     -0.577      0.087     8.2781     92.765     44.142  43.213233     1.3500     2.1009     0.2130     4.2300 4.3673e+02    20.6940     -0.566     -0.821    20.8217 0.0000e+00
     -0.553      0.086     8.1325     92.908     44.512  43.836930     1.3500     2.1543     0.2130     4.2300 4.6081e+02    22.0767     -0.542     -0.786    21.7664 0.0000e+00
     -0.529      0.082     8.0103     93.063     44.616  44.131720     1.3500     2.1505     0.2130     4.2300 4.8738e+02    22.2120     -0.519     -0.753    22.5888 0.0000e+00
     -0.508      0.076     7.9166     93.218     44.559  44.211885     1.3500     2.1505     0.2130     4.2300 4.8369e+02    22.1819     -0.499     -0.723    23.2479 0.0000e+00
     -0.490      0.069     7.8500     93.367     44.388  44.136453     6.0300     2.1657     0.4686    13.7475 4.8432e+02    22.1068     -0.481     -0.697    23.7494 0.0000e+00
     -0.475      0.062     7.8062     93.506     44.209  44.020041     6.0300     2.0742     0.4686    13.7475 4.9690e+02    19.6569     -0.466     -0.676    24.1180 0.0000e+00
     -0.461      0.055     7.7798     93.632     44.113  43.966338     6.0300     2.0665     0.4686    13.7475 5.0561e+02    19.6418     -0.452     -0.656    24.3803 0.0000e+00
     -0.448      0.049     7.7656     93.740     44.037  43.921398     6.0300     2.0780     0.4686    13.7475 5.0036e+02    19.5968     -0.439     -0.637    24.5625 0.0000e+00
     -0.436      0.044     7.7597     93.823     43.944  43.853425     5.8500     2.0665     0.4260    14.2974 4.9345e+02    19.6418     -0.427     -0.619    24.6858 0.0000e+00
     -0.425      0.040     7.7594     93.883     43.908  43.835433     5.8500     2.1047     0.4260    14.2974 5.0167e+02    19.3262     -0.416     -0.604    24.7662 0.0000e+00
     -0.416      0.036     7.7620     93.923     43.941  43.882437     5.8500     2.0780     0.4260    14.2974 5.1091e+02    19.5517     -0.407     -0.591    24.8191 0.0000e+00
     -0.408      0.034     7.7652     93.942     44.014  43.967348     5.8500     2.0856     0.4260    14.2974 5.1526e+02    19.4765     -0.400     -0.581    24.8580 0.0000e+00
     -0.401      0.034     7.7677     93.945     44.133  44.098938     5.9400     2.0551     0.4260    14.5512 5.1258e+02    19.4915     -0.393     -0.571    24.8880 0.0000e+00
     -0.393      0.036     7.7696     93.944     44.309  44.288524     5.9400     2.1810     0.4260    14.5512 5.0682e+02    20.3934     -0.386     -0.559    24.9095 0.0000e+00
     -0.384      0.040     7.7706     93.947     44.511  44.505428     5.9400     2.1352     0.4260    14.5512 4.9917e+02    20.4384     -0.377     -0.546    24.9254 0.0000e+00
     -0.374      0.044     7.7701     93.966     44.691  44.702481     5.9400     2.1276     0.4260    14.5512 4.9003e+02    20.4986     -0.366     -0.531    24.9398 0.0000e+00
     -0.361      0.049     7.7683     94.007     44.841  44.866846     5.9400     2.1505     0.3834    14.2974 4.9485e+02    20.3483     -0.354     -0.514    24.9545 0.0000e+00
     -0.348      0.053     7.7659     94.065     44.955  44.990838     5.9400     2.1276     0.3834    14.2974 4.9324e+02    20.5887     -0.341     -0.495    24.9700 0.0000e+00
     -0.334      0.058     7.7636     94.144     44.996  45.036191     5.9400     2.1505     0.3834    14.2974 5.0726e+02    20.5737     -0.327     -0.474    24.9875 0.0000e+00
     -0.319      0.063     7.7626     94.251     44.945  44.981315     5.9400     2.1390     0.3834    14.2974 5.1965e+02    20.4986     -0.312     -0.453    25.0059 0.0000e+00
     -0.302      0.069     7.7636     94.395     44.817  44.841298     5.9400     2.1238     0.3834    14.2974 5.3129e+02    20.6639     -0.296     -0.430    25.0222 0.0000e+00
     -0.285      0.077     7.7668     94.597     44.608  44.610506     5.9400     2.1390     0.4260    14.6358 5.3593e+02    22.1819     -0.279     -0.405    25.0335 0.0000e+00
     -0.265      0.084     7.7727     94.885     44.362  44.324480     5.9400     2.1428     0.4260    14.6358 5.4842e+02    22.0617     -0.260     -0.377    25.0380 0.0000e+00
     -0.243      0.091     7.7821     95.279     44.212  44.114987     5.9400     2.1428     0.4260    14.6358 5.5888e+02    22.0617     -0.238     -0.345    25.0341 0.0000e+00
     -0.217      0.095     7.7959     95.788     44.223  44.060888     5.9400     2.1581     0.4260    14.6358 3.8351e+02    22.1218     -0.213     -0.308    25.0209 0.0000e+00
     -0.189      0.095     7.8163     96.410     44.362  44.153693     6.0300     2.1428     0.4260    14.9319 1.3415e+02    20.6489     -0.185     -0.268    24.9960 0.0000e+00
     -0.161      0.091     7.8465     97.152     44.607  44.390407     6.0300     2.1467     0.4260    14.9319 1.3267e+02    20.6489     -0.158     -0.229    24.9513 0.0000e+00
     -0.137      0.084     7.8889     98.067     44.940  44.754901     6.0300     2.1505     0.4260    14.9319 1.3709e+02    20.6639     -0.134     -0.194    24.8838 0.0000e+00
     -0.117      0.074     7.9419     99.283     45.285  45.158130     6.0300     2.1581     0.4260    14.9319 1.4108e+02    20.6338     -0.114     -0.166    24.8098 0.0000e+00
     -0.100      0.064     8.0010    101.026     45.555  45.495617     6.2100     2.1581     0.5112    14.9319 1.4235e+02    20.6188     -0.098     -0.143    24.7574 0.0000e+00
     -0.087      0.054     8.0636    103.407     45.728  45.734513     6.2100     2.1276     0.5112    14.9319 1.5128e+02    20.6188     -0.085     -0.124    24.7487 0.0000e+00
     -0.075      0.046     8.1336    106.237     45.825  45.888992     6.2100     2.1581     0.5112    14.9319 1.5326e+02    20.6338     -0.073     -0.107    24.7855 0.0000e+00
     -0.064      0.039     8.2242    109.258     45.865  45.976471     6.2100     2.1428     0.5112    14.9319 1.4065e+02    20.6489     -0.063     -0.091    24.8513 0.0000e+00
     -0.055      0.034     8.3566    112.268     45.873  46.020281     6.0300     2.1581     0.5112    15.1011 1.3523e+02    19.6869     -0.054     -0.078    24.9266 0.0000e+00
     -0.047      0.030     8.5421    114.996     45.886  46.059846     6.0300     2.1352     0.5112    15.1011 1.3594e+02    19.6418     -0.046     -0.067    24.9990 0.0000e+00
     -0.041      0.028     8.7656    117.164     45.917  46.109682     6.0300     2.1543     0.5112    15.1011 1.4315e+02    19.6569     -0.040     -0.058    25.0624 0.0000e+00
     -0.036      0.028     9.0065    118.614     45.935  46.141466     6.0300     2.1505     0.5112    15.1011 1.4050e+02    19.6569     -0.035     -0.051    25.1144 0.0000e+00
     -0.030      0.030     9.2480    119.358     45.918  46.131972     6.0300     2.1428     0.5112    15.1011 1.3853e+02    20.8443     -0.030     -0.043    25.1543 0.0000e+00
     -0.023      0.033     9.4680    119.504     45.861  46.078666     6.0300     2.1505     0.4260    14.9742 1.3926e+02    20.9344     -0.023     -0.033    25.1833 0.0000e+00
     -0.014      0.036     9.6431    119.153     45.786  46.003001     6.0300     2.1695     0.4260    14.9742 1.3166e+02    20.8593     -0.013     -0.020    25.2039 0.0000e+00
     -0.003      0.038     9.7601    118.410     45.727  45.942263     6.0300     2.1428     0.4260    14.9742 1.2617e+02    20.9946     -0.003     -0.004    25.2182 0.0000e+00
      0.009      0.038     9.8198    117.405     45.706  45.921867     6.0300     2.2153     0.4260    14.9742 1.1992e+02    21.4455      0.008      0.012    25.2270 0.0000e+00
      0.019      0.036     9.8313    116.229     45.733  45.952225     6.0300     2.2001     0.4260    15.4818 1.0620e+02    21.4304      0.019      0.028    25.2307 0.0000e+00
      0.029      0.033     9.8025    114.911     45.797  46.021619     6.0300     2.1962     0.4260    15.4818 9.9911e+01    21.4154      0.028      0.041    25.2307 0.0000e+00
      0.037      0.029     9.7416    113.466     45.866  46.097034     6.0300     2.2077     0.4260    15.4818 9.8338e+01    21.3252      0.036      0.052    25.2295 0.0000e+00
      0.043      0.024     9.6590    111.919     45.921  46.156970     6.0300     2.2153     0.4260    15.4818 9.9240e+01    20.3633      0.042      0.061    25.2297 0.0000e+00
      0.048      0.020     9.5617    110.337     45.961  46.199576     6.0300     2.2039     0.3834    15.6087 1.0011e+02    20.3633      0.047      0.069    25.2329 0.0000e+00
      0.052      0.017     9.4523    108.799     45.988  46.226308     6.0300     2.2153     0.3834    15.6087 9.9369e+01    20.3633      0.051      0.075    25.2388 0.0000e+00
      0.056      0.014     9.3323    107.371     46.009  46.246275     6.0300     2.1962     0.3834    15.6087 9.8360e+01    20.4384      0.055      0.080    25.2452 0.0000e+00
      0.059      0.012     9.2043    106.147     46.035  46.270746     6.0300     2.2039     0.3834    15.6087 9.5953e+01    20.9946      0.058      0.084    25.2502 0.0000e+00
      0.062      0.010     9.0738    105.279     46.067  46.300301     6.0300     2.2077     0.3834    15.6087 9.6643e+01    20.8893      0.061      0.088    25.2527 0.0000e+00
      0.064      0.009     8.9473    104.951     46.105  46.336878     6.0300     2.1886     0.4260    15.3126 9.8125e+01    20.8593      0.063      0.091    25.2529 0.0000e+00
      0.066      0.008     8.8300    105.354     46.166  46.396175     6.0300     2.2229     0.4260    15.3126 9.7954e+01    20.9044      0.065      0.094    25.2516 0.0000e+00
      0.068      0.008     8.7296    106.705     46.274  46.503911     6.0300     2.2001     0.4260    15.3126 9.8702e+01    20.4685      0.066      0.096    25.2496 0.0000e+00
      0.069      0.007     8.6585    109.262     46.466  46.696742     6.0300     2.2077     0.4260    15.3126 9.9132e+01    20.4384      0.068      0.099    25.2474 0.0000e+00
      0.071      0.007     8.6319    113.294     46.732  46.966643     5.9400     2.2039     0.4260    15.1434 9.9046e+01    20.3633      0.070      0.101    25.2450 0.0000e+00
      0.073      0.007     8.6653    118.967     46.987  47.229043     5.9400     2.2268     0.4260    15.1434 9.7466e+01    20.4835      0.072      0.104    25.2430 0.0000e+00
      0.075      0.007     8.7765    126.197     47.168  47.419165     5.9400     2.2153     0.4260    15.1434 9.6749e+01    20.6940      0.073      0.106    25.2419 0.0000e+00
      0.077      0.007     8.9867    134.494     47.273  47.534205     5.9400     2.2115     0.4260    15.1434 9.6455e+01    20.6188      0.075      0.109    25.2423 0.0000e+00
      0.079      0.007     9.3177    143.007     47.326  47.596914     6.0300     2.2001     0.4260    15.3549 9.3544e+01    20.6940      0.077      0.112    25.2452 0.0000e+00
      0.081      0.007     9.7830    150.789     47.354  47.631943     6.0300     2.2039     0.4260    15.3549 9.4587e+01    20.6188      0.079      0.115    25.2513 0.0000e+00
      0.083      0.007    10.3758    157.056     47.369  47.652596     6.0300     2.2344     0.4260    15.3549 9.5288e+01    20.6188      0.081      0.117    25.2603 0.0000e+00
      0.084      0.007    11.0559    161.320     47.379  47.664380     6.0300     2.1924     0.4260    15.3549 9.4813e+01    21.0847      0.083      0.120    25.2704 0.0000e+00
      0.086      0.006    11.7538    163.436     47.393  47.678364     6.0300     2.2229     0.4260    15.6087 9.3870e+01    21.1900      0.084      0.122    25.2799 0.0000e+00
      0.088      0.006    12.3918    163.587     47.415  47.698279     6.0300     2.1924     0.4260    15.6087 9.1912e+01    21.1449      0.086      0.124    25.2876 0.0000e+00
      0.089      0.006    12.9057    162.206     47.432  47.713580     6.0300     2.2077     0.4260    15.6087 9.2112e+01    21.1148      0.087      0.126    25.2929 0.0000e+00
      0.091      0.006    13.2555    159.886     47.441  47.720421     6.0300     2.2229     0.4260    15.6087 9.3138e+01    20.3934      0.089      0.128    25.2955 0.0000e+00
      0.092      0.005    13.4296    157.220     47.444  47.720626     6.0300     2.2153     0.4260    15.6087 9.4607e+01    20.4384      0.090      0.130    25.2954 0.0000e+00
      0.093      0.005    13.4426    154.637     47.448  47.722177     6.1200     2.2115     0.4260    15.4395 9.2735e+01    20.4234      0.091      0.132    25.2933 0.0000e+00
      0.095      0.005    13.3297    152.367     47.460  47.733414     6.1200     2.2039     0.4260    15.4395 9.2252e+01    20.3032      0.093      0.134    25.2906 0.0000e+00
      0.096      0.005    13.1397    150.491     47.475  47.749405     6.1200     2.2153     0.4260    15.4395 9.1992e+01    20.9795      0.094      0.136    25.2881 0.0000e+00
      0.097      0.004    12.9213    149.002     47.482  47.760544     6.1200     2.1924     0.4260    15.4395 9.1713e+01    20.9645      0.095      0.138    25.2855 0.0000e+00
      0.098      0.004    12.7095    147.854     47.481  47.761875     6.0300     2.2077     0.3408    15.6087 9.2775e+01    20.9344      0.096      0.139    25.2831 0.0000e+00
      0.099      0.004    12.5232    146.977     47.473  47.753753     6.0300     2.2306     0.3408    15.6087 9.3219e+01    20.8443      0.097      0.140    25.2818 0.0000e+00
      0.100      0.004    12.3688    146.297     47.463  47.737977     6.0300     2.1924     0.3408    15.6087 9.4279e+01    20.9044      0.098      0.141    25.2831 0.0000e+00
      0.100      0.004    12.2456    145.768     47.450  47.716284     6.0300     2.2153     0.3408    15.6087 9.5371e+01    20.9044      0.098      0.142    25.2870 0.0000e+00
      0.101      0.004    12.1505    145.368     47.433  47.686853     6.1200     2.2077     0.3834    15.6087 9.5267e+01    20.9795      0.099      0.144    25.2902 0.0000e+00
      0.102      0.004    12.0786    145.067     47.405  47.641833     6.1200     2.2001     0.3834    15.6087 9.3361e+01    20.8743      0.100      0.145    25.2893 0.0000e+00
      0.103      0.004    12.0239    144.815     47.369  47.585074     6.1200     2.1428     0.3834    15.6087 9.2413e+01    20.6338      0.101      0.146    25.2837 0.0000e+00
      0.104      0.005    11.9825    144.574     47.341  47.533144     6.1200     2.1352     0.3834    15.6087 9.1613e+01    20.5887      0.102      0.148    25.2746 0.0000e+00
      0.106      0.005    11.9524    144.355     47.329  47.495973     6.1200     2.1428     0.3834    15.7356 9.1077e+01    20.7691      0.104      0.150    25.2620 0.0000e+00
      0.107      0.006    11.9314    144.190     47.337  47.479503     6.1200     2.1390     0.3834    15.7356 9.0800e+01    20.6639      0.105      0.152    25.2445 0.0000e+00
      0.108      0.007    11.9156    144.077     47.360  47.479339     6.1200     2.2077     0.3834    15.7356 9.0939e+01    20.2881      0.106      0.154    25.2221 0.0000e+00
      0.110      0.008    11.9013    144.034     47.377  47.475620     6.1200     2.2115     0.3834    15.7356 9.0603e+01    20.1980      0.108      0.156    25.1969 0.0000e+00
      0.112      0.010    11.8890    144.118     47.378  47.459427     6.1200     2.2001     0.3834    15.7356 9.0820e+01    20.1829      0.110      0.159    25.1706 0.0000e+00
      0.115      0.012    11.8811    144.367     47.369  47.438331     6.0300     2.2001     0.4260    15.5664 8.9956e+01    20.0777      0.113      0.163    25.1445 0.0000e+00
      0.118      0.014    11.8773    144.774     47.359  47.418594     6.0300     2.2115     0.4260    15.5664 8.9858e+01    21.2050      0.116      0.167    25.1198 0.0000e+00
      0.122      0.016    11.8785    145.300     47.345  47.398918     6.0300     2.2001     0.4260    15.5664 8.4591e+01    21.1298      0.119      0.173    25.0980 0.0000e+00
      0.126      0.018    11.8893    145.873     47.333  47.381982     6.0300     2.1848     0.4260    15.5664 7.7785e+01    21.0847      0.124      0.179    25.0804 0.0000e+00
      0.131      0.019    11.9127    146.421     47.334  47.375159     6.2100     2.1734     0.4260    16.0740 7.5143e+01    21.1298      0.129      0.187    25.0671 0.0000e+00
      0.137      0.019    11.9485    146.888     47.341  47.372667     6.2100     2.3870     0.4260    16.0740 7.0477e+01    22.8282      0.134      0.194    25.0575 0.0000e+00
      0.142      0.019    11.9933    147.240     47.347  47.365913     6.2100     2.3908     0.4260    16.0740 6.6303e+01    22.8282      0.139      0.202    25.0510 0.0000e+00
      0.147      0.018    12.0419    147.482     47.355  47.357061     6.2100     2.3717     0.4260    16.0740 6.3566e+01    22.7831      0.144      0.209    25.0454 0.0000e+00
      0.151      0.017    12.0888    147.646     47.368  47.347712     6.3000     2.3870     0.4260    16.2855 6.2538e+01    22.7982      0.149      0.216    25.0379 0.0000e+00
      0.155      0.016    12.1296    147.760     47.380  47.331408     6.3000     2.4442     0.4260    16.2855 6.2389e+01    21.4154      0.153      0.221    25.0274 0.0000e+00
      0.159      0.015    12.1618    147.841     47.392  47.305784     6.3000     2.4480     0.4260    16.2855 6.1234e+01    21.2651      0.156      0.227    25.0137 0.0000e+00
      0.163      0.014    12.1858    147.907     47.410  47.277876     6.3000     2.4518     0.4260    16.2855 5.9425e+01    21.4304      0.160      0.232    24.9961 0.0000e+00
      0.166      0.014    12.2044    147.988     47.436  47.252128     6.3000     2.4556     0.4260    16.2855 6.0480e+01    21.4004      0.163      0.237    24.9733 0.0000e+00
      0.170      0.014    12.2206    148.131     47.471  47.235545     6.3000     2.6006     0.4260    16.7085 5.9813e+01    21.3553      0.167      0.242    24.9430 0.0000e+00
      0.174      0.015    12.2364    148.397     47.512  47.229644     6.3000     2.6655     0.4260    16.7085 5.5941e+01    21.4304      0.170      0.247    24.9033 0.0000e+00
      0.178      0.015    12.2528    148.838     47.541  47.224922     6.3000     2.6426     0.4260    16.7085 5.4917e+01    21.3102      0.174      0.253    24.8548 0.0000e+00
      0.182      0.016    12.2717    149.485     47.558  47.224081     6.3000     2.6311     0.4260    16.7085 5.5361e+01    21.3252      0.178      0.259    24.8006 0.0000e+00
      0.186      0.016    12.2961    150.335     47.572  47.234825     6.4800     2.7608     0.4260    17.6391 5.4513e+01    22.6779      0.183      0.264    24.7458 0.0000e+00
      0.190      0.016    12.3293    151.313     47.581  47.250108     6.4800     2.7570     0.4260    17.6391 5.1195e+01    22.6028      0.187      0.270    24.6972 0.0000e+00
      0.194      0.016    12.3739    152.283     47.577  47.258157     6.4800     2.7418     0.4260    17.6391 5.1373e+01    22.6328      0.191      0.277    24.6619 0.0000e+00
      0.199      0.016    12.4319    153.105     47.568  47.261117     6.4800     2.7723     0.4260    17.6391 5.0008e+01    22.4675      0.195      0.283    24.6433 0.0000e+00
      0.203      0.015    12.5034    153.650     47.560  47.261760     6.6600     2.7570     0.4260    18.4851 5.0149e+01    23.2491      0.199      0.288    24.6397 0.0000e+00
      0.207      0.015    12.5831    153.818     47.550  47.256297     6.6600     2.7608     0.4260    18.4851 4.9392e+01    23.4144      0.203      0.294    24.6466 0.0000e+00
      0.210      0.014    12.6609    153.568     47.543  47.249214     6.6600     2.7723     0.4260    18.4851 4.9221e+01    23.2491      0.206      0.299    24.6587 0.0000e+00
      0.214      0.014    12.7263    152.944     47.542  47.244569     6.6600     2.7685     0.4260    18.4851 4.9317e+01    23.2791      0.209      0.304    24.6711 0.0000e+00
      0.217      0.014    12.7694    152.051     47.548  47.245084     6.7500     2.6006     0.3834    19.1196 4.9039e+01    21.8513      0.213      0.309    24.6805 0.0000e+00
      0.221      0.014    12.7822    150.998     47.561  47.254860     6.7500     2.5739     0.3834    19.1196 4.6750e+01    21.8362      0.216      0.314    24.6854 0.0000e+00
      0.224      0.015    12.7614    149.897     47.578  47.272541     6.7500     2.5777     0.3834    19.1196 4.5735e+01    21.9264      0.220      0.319    24.6855 0.0000e+00
      0.228      0.015    12.7105    148.913     47.592  47.288969     6.7500     2.5701     0.3834    19.1196 4.8742e+01    21.8362      0.224      0.325    24.6817 0.0000e+00
      0.232      0.015    12.6376    148.256     47.602  47.298620     6.7500     2.6426     0.3834    19.1196 5.0818e+01    21.5356      0.228      0.330    24.6760 0.0000e+00
      0.236      0.016    12.5511    148.051     47.614  47.304065     6.9300     2.6502     0.4686    18.4005 4.8288e+01    21.6859      0.232      0.336    24.6721 0.0000e+00
      0.240      0.016    12.4595    148.258     47.622  47.304776     6.9300     2.6426     0.4686    18.4005 4.8425e+01    21.5356      0.236      0.342    24.6728 0.0000e+00
      0.244      0.016    12.3769    148.744     47.634  47.312830     6.9300     2.6311     0.4686    18.4005 5.0008e+01    21.6559      0.240      0.348    24.6761 0.0000e+00
      0.248      0.016    12.3224    149.390     47.661  47.344246     6.9300     2.5701     0.4686    18.4005 5.0885e+01    20.6639      0.243      0.353    24.6756 0.0000e+00
      0.252      0.017    12.3068    150.091     47.698  47.397493     6.5700     2.5777     0.4260    19.6272 4.9942e+01    20.7240      0.247      0.359    24.6690 0.0000e+00
      0.256      0.017    12.3258    150.758     47.731  47.461008     6.5700     2.5854     0.4260    19.6272 4.8288e+01    20.6789      0.251      0.364    24.6608 0.0000e+00
      0.261      0.018    12.3671    151.346     47.743  47.512098     6.5700     2.5854     0.4260    19.6272 4.6831e+01    20.6338      0.256      0.371    24.6569 0.0000e+00
      0.265      0.020    12.4197    151.835     47.728  47.532685     6.5700     2.5205     0.4260    19.6272 4.6984e+01    20.2731      0.260      0.377    24.6615 0.0000e+00
      0.270      0.022    12.4739    152.201     47.699  47.528262     6.8400     2.5014     0.4260    18.6543 4.8163e+01    20.1529      0.265      0.385    24.6791 0.0000e+00
      0.276      0.025    12.5219    152.394     47.676  47.513503     6.8400     2.5281     0.4260    18.6543 4.9156e+01    20.2431      0.271      0.392    24.7113 0.0000e+00
      0.282      0.028    12.5613    152.367     47.662  47.492399     6.8400     2.5014     0.4260    18.6543 4.9964e+01    20.3633      0.277      0.402    24.7518 0.0000e+00
      0.290      0.032    12.5931    152.117     47.647  47.459322     6.8400     2.7532     0.4260    18.6543 4.8509e+01    22.8583      0.284      0.412    24.7894 0.0000e+00
      0.298      0.035    12.6176    151.711     47.621  47.409414     7.0200     2.7456     0.4686    19.6272 4.8731e+01    22.7982      0.293      0.425    24.8146 0.0000e+00
      0.308      0.038    12.6317    151.253     47.577  47.337291     7.0200     2.7570     0.4686    19.6272 4.9553e+01    22.8583      0.303      0.439    24.8230 0.0000e+00
      0.319      0.039    12.6313    150.846     47.512  47.231646     7.0200     2.7456     0.4686    19.6272 4.1502e+01    22.8282      0.313      0.454    24.8152 0.0000e+00
      0.330      0.040    12.6151    150.550     47.411  47.076197     7.0200     2.7646     0.4686    19.6272 4.1385e+01    22.8583      0.324      0.470    24.7959 0.0000e+00
      0.341      0.039    12.5873    150.389     47.255  46.845341     7.0200     2.7303     0.4686    19.6272 4.0583e+01    22.7531      0.335      0.485    24.7709 0.0000e+00
      0.351      0.037    12.5566    150.376     47.012  46.503277     6.6600     2.7761     0.3834    17.3007 4.0057e+01    22.7982      0.344      0.499    24.7397 0.0000e+00
      0.360      0.034    12.5330    150.476     46.644  46.002378     6.6600     2.7608     0.3834    17.3007 3.9832e+01    22.8583      0.353      0.512    24.6962 0.0000e+00
      0.368      0.031    12.5225    150.583     46.152  45.335889     6.6600     2.5854     0.3834    17.3007 3.9659e+01    20.6188      0.361      0.524    24.6360 0.0000e+00
      0.376      0.028    12.5283    150.574     45.646  44.613386     6.6600     2.5854     0.3834    17.3007 3.8387e+01    20.7541      0.369      0.535    24.5543 0.0000e+00
      0.383      0.025    12.5532    150.365     45.248  43.979029     6.3000     2.5815     0.3408    15.9471 3.8959e+01    20.6338      0.376      0.545    24.4435 0.0000e+00
      0.388      0.022    12.5969    149.961     44.954  43.463757     6.3000     2.5701     0.3408    15.9471 3.9350e+01    20.6489      0.381      0.553    24.2937 0.0000e+00
      0.393      0.019    12.6528    149.479     44.669  42.993552     6.3000     2.7151     0.3408    15.9471 3.9953e+01    18.9204      0.386      0.560    24.0949 0.0000e+00
      0.398      0.017    12.7107    149.036     44.340  42.512362     6.3000     2.6883     0.3408    15.9471 4.0241e+01    19.0106      0.390      0.566    23.8475 0.0000e+00
      0.401      0.016    12.7574    148.651     43.955  41.992907     5.9400     2.7036     0.2982    12.8169 4.0451e+01    19.0106      0.394      0.571    23.5770 0.0000e+00
      0.405      0.015    12.7839    148.247     43.484  41.397700     5.9400     2.6998     0.2982    12.8169 4.0920e+01    19.0707      0.397      0.576    23.3227 0.0000e+00
      0.409      0.015    12.7948    147.679     42.926  40.716600     5.9400     2.5663     0.2982    12.8169 4.1035e+01    15.9144      0.401      0.581    23.1056 0.0000e+00
      0.412      0.016    12.8017    146.744     42.279  39.936365     5.9400     2.5815     0.2982    12.8169 4.1367e+01    15.9895      0.405      0.587    22.9194 0.0000e+00
      0.416      0.016    12.8101    145.222     41.520  39.025238     5.9400     2.5701     0.2982    12.8169 4.1116e+01    15.9144      0.409      0.592    22.7470 0.0000e+00
      0.421      0.017    12.8160    142.938     40.764  38.084914     5.7600     2.5663     0.2130    12.4785 3.9358e+01    15.9444      0.413      0.599    22.5771 0.0000e+00
      0.426      0.017    12.8094    139.758     40.223  37.328129     5.7600     2.2535     0.2130    12.4785 3.8437e+01    12.1869      0.418      0.606    22.3992 0.0000e+00
      0.430      0.016    12.7757    135.593     39.933  36.820455     5.7600     2.2992     0.2130    12.4785 3.8196e+01    12.1418      0.422      0.612    22.1993 0.0000e+00
      0.435      0.016    12.6990    130.443     39.771  36.472054     5.7600     2.2649     0.2130    12.4785 3.7415e+01    12.1719      0.427      0.618    21.9632 0.0000e+00
      0.439      0.015    12.5650    124.457     39.662  36.215757     5.6700     2.2992     0.2556    11.1249 3.7676e+01    12.2019      0.430      0.624    21.6827 0.0000e+00
      0.442      0.014    12.3573    117.947     39.619  36.058475     5.6700     1.8377     0.2556    11.1249 3.7873e+01     9.5717      0.434      0.629    21.3744 0.0000e+00
      0.445      0.013    12.0563    111.388     39.654  36.005794     5.6700     1.8300     0.2556    11.1249 3.7497e+01     9.6017      0.437      0.634    21.0812 0.0000e+00
      0.448      0.012    11.6535    105.290     39.689  35.984247     5.6700     1.8224     0.2556    11.1249 3.7383e+01     9.5416      0.440      0.638    20.8360 0.0000e+00
      0.451      0.011    11.1609    100.051     39.627  35.895000     5.4900     1.8567     0.2130     9.4752 3.6947e+01     9.5416      0.443      0.642    20.6434 0.0000e+00
      0.454      0.011    10.6085     95.945     39.479  35.732082     5.4900     1.7194     0.2130     9.4752 3.6635e+01     8.3392      0.446      0.646    20.4965 0.0000e+00
      0.456      0.011    10.0406     93.158     39.331  35.562959     5.4900     1.7003     0.2130     9.4752 3.6595e+01     8.3843      0.448      0.649    20.3921 0.0000e+00
      0.459      0.011     9.5048     91.733     39.217  35.417790     5.4900     1.6889     0.2130     9.4752 3.6508e+01     8.4143      0.451      0.653    20.3262 0.0000e+00
      0.461      0.011     9.0405     91.470     39.109  35.277666     5.3100     1.6889     0.2130     8.0793 3.6540e+01     8.4143      0.453      0.656    20.2853 0.0000e+00
      0.464      0.012     8.6768     91.943     38.983  35.121063     5.3100     1.7270     0.2130     8.0793 3.6651e+01     8.2039      0.456      0.660    20.2488 0.0000e+00
      0.467      0.013     8.4331     92.664     38.855  34.961671     5.3100     1.7270     0.2130     8.0793 3.6603e+01     8.2039      0.458      0.665    20.2037 0.0000e+00
      0.471      0.014     8.3135     93.243     38.763  34.834222     5.3100     1.7308     0.2130     8.0793 3.6168e+01     8.1288      0.462      0.670    20.1509 0.0000e+00
      0.475      0.015     8.2992     93.430     38.705  34.742357     5.3100     1.7232     0.2130     8.0793 3.4427e+01     8.1137      0.466      0.676    20.0962 0.0000e+00
      0.480      0.016     8.3517     93.074     38.672  34.679400     5.2200     1.5439     0.2130     7.5717 3.3100e+01     7.3622      0.470      0.682    20.0412 0.0000e+00
      0.484      0.016     8.4269     92.103     38.659  34.642424     5.2200     1.5210     0.2130     7.5717 3.2742e+01     7.4374      0.475      0.688    19.9844 0.0000e+00
      0.488      0.016     8.4891     90.567     38.647  34.613647     5.2200     1.5287     0.2130     7.5717 3.2607e+01     7.4674      0.479      0.695    19.9274 0.0000e+00
      0.492      0.016     8.5148     88.651     38.617  34.573510     5.2200     1.5172     0.2130     7.5717 3.2445e+01     7.5276      0.483      0.700    19.8757 0.0000e+00
      0.496      0.016     8.4895     86.598     38.566  34.515273     5.1300     1.4638     0.1704     6.5142 3.2199e+01     7.1518      0.486      0.706    19.8328 0.0000e+00
      0.500      0.016     8.4063     84.620     38.515  34.455092     5.1300     1.4524     0.1704     6.5142 3.0443e+01     7.2119      0.490      0.712    19.7999 0.0000e+00
      0.504      0.016     8.2699     82.874     38.482  34.408605     5.1300     1.4714     0.1704     6.5142 2.9397e+01     7.2119      0.495      0.718    19.7765 0.0000e+00
      0.509      0.016     8.0976     81.453     38.460  34.371335     5.1300     1.4676     0.1704     6.5142 2.9129e+01     7.1969      0.499      0.723    19.7597 0.0000e+00
      0.513      0.015     7.9125     80.369     38.440  34.337305     5.1300     1.4714     0.1704     6.3027 2.8559e+01     6.9414      0.502      0.729    19.7441 0.0000e+00
      0.516      0.015     7.7347     79.562     38.424  34.309321     5.1300     1.4638     0.1704     6.3027 2.8152e+01     6.8512      0.506      0.734    19.7250 0.0000e+00
      0.520      0.015     7.5785     78.942     38.417  34.291802     5.1300     1.4524     0.1704     6.3027 2.7963e+01     6.9264      0.510      0.740    19.7025 0.0000e+00
      0.524      0.016     7.4520     78.425     38.413  34.280077     5.1300     1.4791     0.1704     6.3027 2.7709e+01     7.0165      0.514      0.745    19.6797 0.0000e+00
      0.528      0.017     7.3560     77.959     38.411  34.271018     5.1300     1.4447     0.1704     6.2181 2.7866e+01     7.1217      0.517      0.750    19.6588 0.0000e+00
      0.532      0.018     7.2847     77.546     38.409  34.262209     5.1300     1.4638     0.1704     6.2181 2.8036e+01     7.2420      0.521      0.756    19.6410 0.0000e+00
      0.536      0.020     7.2301     77.222     38.397  34.243380     5.1300     1.4524     0.1704     6.2181 2.8177e+01     7.1969      0.526      0.762    19.6266 0.0000e+00
      0.541      0.022     7.1844     77.025     38.375  34.213471     5.1300     1.4409     0.1704     6.2181 2.7374e+01     7.1217      0.531      0.770    19.6153 0.0000e+00
      0.548      0.024     7.1431     76.972     38.353  34.182329     5.1300     1.4371     0.1704     6.2181 2.5547e+01     7.2270      0.537      0.779    19.6060 0.0000e+00
      0.554      0.025     7.1066     77.035     38.338  34.157491     5.1300     1.4562     0.1704     5.8374 2.3768e+01     7.1518      0.544      0.788    19.5969 0.0000e+00
      0.561      0.025     7.0784     77.158     38.334  34.142236     5.1300     1.4714     0.1704     5.8374 2.2172e+01     7.1668      0.550      0.798    19.5862 0.0000e+00
      0.568      0.025     7.0623     77.269     38.339  34.136456     5.1300     1.4638     0.1704     5.8374 2.1847e+01     7.1368      0.557      0.808    19.5730 0.0000e+00
      0.574      0.024     7.0595     77.291     38.348  34.134648     5.1300     1.7881     0.1704     5.8374 2.1695e+01     6.7009      0.563      0.816    19.5581 0.0000e+00
      0.580      0.023     7.0675     77.165     38.357  34.132369     5.0400     1.7575     0.1704     5.5413 2.1013e+01     6.7761      0.568      0.825    19.5426 0.0000e+00
      0.585      0.021     7.0809     76.876     38.367  34.129011     5.0400     1.7499     0.1704     5.5413 1.9984e+01     6.7610      0.574      0.833    19.5279 0.0000e+00
      0.591      0.020     7.0929     76.454     38.375  34.123679     5.0400     1.7728     0.1704     5.5413 1.9799e+01     6.7310      0.579      0.840    19.5147 0.0000e+00
      0.596      0.020     7.0967     75.937     38.385  34.118910     5.0400     2.1734     0.1704     5.5413 1.9239e+01     6.4754      0.584      0.848    19.5020 0.0000e+00
      0.601      0.019     7.0871     75.357     38.397  34.117393     5.0400     2.1543     0.1704     5.4567 1.8178e+01     6.5205      0.589      0.855    19.4883 0.0000e+00
      0.605      0.018     7.0627     74.725     38.406  34.114762     5.0400     2.1276     0.1704     5.4567 1.7962e+01     6.4304      0.594      0.861    19.4729 0.0000e+00
      0.610      0.017     7.0263     74.034     38.410  34.110315     5.0400     2.1581     0.1704     5.4567 1.8123e+01     6.4304      0.598      0.867    19.4557 0.0000e+00
      0.614      0.017     6.9813     73.293     38.415  34.106827     5.0400     2.3221     0.1704     5.4567 1.8123e+01     6.3101      0.602      0.873    19.4381 0.0000e+00
      0.618      0.018     6.9301     72.528     38.419  34.103367     4.9500     2.3221     0.1704     5.0337 1.7978e+01     6.2650      0.606      0.878    19.4223 0.0000e+00
      0.622      0.019     6.8737     71.768     38.425  34.102973     4.9500     2.3374     0.1704     5.0337 1.7606e+01     6.1748      0.610      0.884    19.4093 0.0000e+00
      0.627      0.021     6.8117     71.045     38.443  34.113461     4.9500     2.3374     0.1704     5.0337 1.7348e+01     6.2650      0.615      0.891    19.3983 0.0000e+00
      0.632      0.023     6.7449     70.391     38.476  34.137629     4.9500     2.2649     0.1704     5.0337 1.6328e+01     6.1748      0.620      0.899    19.3884 0.0000e+00
      0.639      0.025     6.6757     69.835     38.514  34.164097     4.9500     2.2725     0.1704     5.0337 1.5644e+01     6.1899      0.626      0.908    19.3796 0.0000e+00
      0.646      0.026     6.6068     69.393     38.539  34.180118     4.8600     2.2687     0.1704     4.6530 1.4650e+01     6.2049      0.633      0.918    19.3719 0.0000e+00
      0.653      0.026     6.5412     69.055     38.551  34.186005     4.8600     2.2573     0.1704     4.6530 1.2737e+01     6.2199      0.640      0.929    19.3648 0.0000e+00
      0.661      0.026     6.4819     68.779     38.556  34.187287     4.8600     1.8682     0.1704     4.6530 1.1712e+01     5.7540      0.648      0.940    19.3573 0.0000e+00
      0.668      0.024     6.4319     68.512     38.561  34.190249     4.8600     1.8720     0.1704     4.6530 1.1548e+01     5.8292      0.654      0.950    19.3485 0.0000e+00
      0.673      0.022     6.3922     68.236     38.570  34.197659     4.8600     1.9216     0.1704     4.5261 1.1631e+01     5.8292      0.660      0.958    19.3399 0.0000e+00
      0.678      0.019     6.3619     67.965     38.580  34.205552     4.8600     1.9025     0.1704     4.5261 1.1715e+01     5.8292      0.665      0.964    19.3338 0.0000e+00
      0.682      0.017     6.3370     67.723     38.593  34.214054     4.8600     1.8453     0.1704     4.5261 1.1322e+01     5.5586      0.669      0.970    19.3303 0.0000e+00
      0.686      0.016     6.3126     67.536     38.610  34.225431     4.8600     1.8148     0.1704     4.5261 1.1102e+01     5.4985      0.673      0.976    19.3285 0.0000e+00
      0.690      0.016     6.2873     67.420     38.633  34.240737     4.8600     1.8491     0.1278     4.2300 1.1030e+01     5.5736      0.676      0.982    19.3273 0.0000e+00
      0.694      0.016     6.2626     67.370     38.662  34.260093     4.8600     1.8033     0.1278     4.2300 1.0963e+01     5.5436      0.680      0.987    19.3256 0.0000e+00
      0.697      0.016     6.2407     67.366     38.691  34.278757     4.8600     2.1009     0.1278     4.2300 1.0817e+01     5.7390      0.683      0.992    19.3224 0.0000e+00
      0.701      0.016     6.2241     67.366     38.713  34.291805     4.8600     2.0704     0.1278     4.2300 1.0323e+01     5.6939      0.687      0.998    19.3175 0.0000e+00
      0.706      0.016     6.2142     67.316     38.729  34.298753     4.8600     2.1009     0.1278     4.2300 9.9247e+00     5.7540      0.692      1.004    19.3108 0.0000e+00
      0.710      0.016     6.2106     67.161     38.744  34.305417     4.8600     2.0780     0.1704     4.1454 9.6232e+00     5.8292      0.696      1.010    19.3028 0.0000e+00
      0.714      0.016     6.2113     66.870     38.761  34.313573     4.8600     1.8300     0.1704     4.1454 9.4491e+00     5.6939      0.700      1.016    19.2938 0.0000e+00
      0.718      0.016     6.2125     66.440     38.777  34.321435     4.8600     1.8453     0.1704     4.1454 9.2581e+00     5.6939      0.704      1.022    19.2845 0.0000e+00
      0.722      0.016     6.2090     65.889     38.795  34.331098     4.8600     1.8224     0.1704     4.1454 8.9885e+00     5.7239      0.708      1.028    19.2756 0.0000e+00
      0.726      0.015     6.1958     65.255     38.818  34.345140     4.7700     1.8262     0.1704     3.7224 8.9087e+00     5.7390      0.712      1.033    19.2669 0.0000e+00
      0.730      0.014     6.1700     64.572     38.844  34.363344     4.7700     1.5897     0.1704     3.7224 8.6380e+00     5.6187      0.715      1.038    19.2582 0.0000e+00
      0.734      0.013     6.1313     63.877     38.870  34.382643     4.7700     1.5744     0.1704     3.7224 8.3411e+00     5.5586      0.719      1.043    19.2497 0.0000e+00
      0.737      0.012     6.0815     63.206     38.890  34.396299     4.7700     1.5897     0.1704     3.7224 8.2581e+00     5.4684      0.722      1.048    19.2418 0.0000e+00
      0.740      0.011     6.0238     62.589     38.898  34.400034     4.7700     1.5783     0.1278     3.5955 8.1176e+00     5.4835      0.725      1.052    19.2347 0.0000e+00
      0.743      0.010     5.9615     62.048     38.900  34.398804     4.7700     1.7766     0.1278     3.5955 8.0473e+00     5.5887      0.728      1.056    19.2284 0.0000e+00
      0.745      0.009     5.8980     61.587     38.897  34.392281     4.7700     1.7728     0.1278     3.5955 8.0159e+00     5.5436      0.730      1.059    19.2231 0.0000e+00
      0.747      0.008     5.8365     61.206     38.890  34.382686     4.7700     1.7461     0.1278     3.5955 7.9207e+00     5.5436      0.732      1.062    19.2182 0.0000e+00
      0.748      0.007     5.7802     60.900     38.890  34.379342     4.7700     1.7804     0.1278     3.5955 7.8863e+00     5.5286      0.734      1.065    19.2136 0.0000e+00
      0.750      0.007     5.7307     60.652     38.896  34.381358     4.7700     1.9025     0.1278     3.5955 7.7538e+00     5.7841      0.735      1.067    19.2093 0.0000e+00
      0.752      0.007     5.6886     60.452     38.899  34.381350     4.7700     1.8873     0.1278     3.5955 7.6500e+00     5.7841      0.737      1.069    19.2052 0.0000e+00
      0.753      0.007     5.6539     60.301     38.899  34.379316     4.7700     1.8720     0.1278     3.5955 7.5739e+00     5.6939      0.739      1.072    19.2009 0.0000e+00
      0.755      0.008     5.6261     60.208     38.901  34.378673     4.7700     1.8720     0.1278     3.5955 7.4872e+00     5.6638      0.741      1.075    19.1966 0.0000e+00
      0.757      0.009     5.6037     60.180     38.900  34.375290     4.7700     1.6355     0.1278     3.5532 7.3566e+00     5.4985      0.743      1.078    19.1923 0.0000e+00
      0.760      0.009     5.5856     60.218     38.895  34.368264     4.7700     1.6355     0.1278     3.5532 7.2047e+00     5.4684      0.745      1.081    19.1885 0.0000e+00
      0.762      0.009     5.5721     60.308     38.891  34.363644     4.7700     1.6278     0.1278     3.5532 7.0223e+00     5.6037      0.747      1.084    19.1852 0.0000e+00
      0.765      0.009     5.5638     60.433     38.894  34.364157     4.7700     1.6431     0.1278     3.5532 6.9555e+00     5.5286      0.750      1.088    19.1822 0.0000e+00
      0.767      0.008     5.5616     60.579     38.902  34.369940     4.8600     1.6431     0.1278     3.5955 6.7882e+00     5.2881      0.752      1.091    19.1793 0.0000e+00
      0.769      0.008     5.5654     60.735     38.914  34.378575     4.8600     1.6469     0.1278     3.5955 6.7720e+00     5.2430      0.754      1.094    19.1765 0.0000e+00
      0.771      0.007     5.5740     60.892     38.922  34.384444     4.8600     1.6507     0.1278     3.5955 6.6712e+00     5.2730      0.756      1.097    19.1742 0.0000e+00
      0.773      0.007     5.5858     61.051     38.930  34.389110     4.8600     1.6507     0.1278     3.5955 6.6843e+00     5.2279      0.758      1.099    19.1721 0.0000e+00
      0.774      0.006     5.5995     61.215     38.942  34.397778     4.7700     1.4524     0.1278     3.4263 6.7412e+00     5.3031      0.759      1.102    19.1703 0.0000e+00
      0.776      0.006     5.6141     61.376     38.963  34.412761     4.7700     1.4714     0.1278     3.4263 6.6655e+00     5.2881      0.761      1.104    19.1684 0.0000e+00
      0.777      0.006     5.6289     61.519     38.987  34.430132     4.7700     1.4486     0.1278     3.4263 6.6265e+00     5.2881      0.762      1.106    19.1662 0.0000e+00
      0.779      0.005     5.6439     61.621     39.002  34.438679     4.7700     1.4867     0.1278     3.4263 6.6092e+00     5.2881      0.764      1.108    19.1636 0.0000e+00
      0.780      0.005     5.6595     61.647     39.011  34.440682     4.7700     1.4180     0.1278     3.2148 6.6380e+00     5.3632      0.765      1.110    19.1602 0.0000e+00
      0.781      0.006     5.6748     61.566     39.022  34.444597     4.7700     1.4142     0.1278     3.2148 6.5992e+00     5.3031      0.766      1.112    19.1560 0.0000e+00
      0.783      0.006     5.6886     61.363     39.031  34.447506     4.7700     1.4142     0.1278     3.2148 6.6959e+00     5.2881      0.767      1.113    19.1508 0.0000e+00
      0.784      0.007     5.6987     61.030     39.036  34.446223     4.7700     1.4066     0.1278     3.2148 6.7868e+00     5.3482      0.769      1.115    19.1448 0.0000e+00
      0.786      0.007     5.7019     60.581     39.040  34.444368     4.7700     1.5439     0.1278     3.2148 6.7207e+00     5.3031      0.770      1.118    19.1380 0.0000e+00
      0.788      0.008     5.6953     60.052     39.047  34.445405     4.7700     1.4981     0.1278     3.1302 6.6829e+00     5.2430      0.772      1.121    19.1306 0.0000e+00
      0.790      0.009     5.6772     59.485     39.053  34.445652     4.7700     1.5172     0.1278     3.1302 6.5420e+00     5.2580      0.775      1.124    19.1232 0.0000e+00
      0.793      0.010     5.6472     58.916     39.058  34.445173     4.7700     1.5172     0.1278     3.1302 6.5934e+00     5.3181      0.777      1.127    19.1160 0.0000e+00
      0.795      0.011     5.6065     58.382     39.071  34.451762     4.7700     1.5248     0.1278     3.1302 6.5791e+00     5.3632      0.780      1.131    19.1091 0.0000e+00
      0.798      0.011     5.5584     57.912     39.094  34.467177     4.7700     1.5668     0.1278     3.0879 6.5052e+00     5.2881      0.783      1.135    19.1023 0.0000e+00
      0.801      0.012     5.5066     57.520     39.118  34.483644     4.7700     1.5096     0.1278     3.0879 6.4014e+00     5.3031      0.785      1.139    19.0960 0.0000e+00
      0.804      0.013     5.4546     57.212     39.135  34.493673     4.7700     1.5096     0.1278     3.0879 6.3778e+00     5.2430      0.788      1.144    19.0899 0.0000e+00
      0.807      0.013     5.4058     56.982     39.144  34.495978     4.7700     1.4714     0.1278     3.0879 6.5250e+00     5.0626      0.792      1.149    19.0839 0.0000e+00
      0.811      0.014     5.3629     56.810     39.145  34.491172     4.7700     1.4905     0.1278     3.0033 6.4321e+00     5.1077      0.795      1.154    19.0780 0.0000e+00
      0.815      0.014     5.3273     56.669     39.145  34.485896     4.7700     1.4714     0.1278     3.0033 6.4545e+00     5.0626      0.799      1.159    19.0720 0.0000e+00
      0.819      0.013     5.2994     56.531     39.152  34.486663     4.7700     1.4676     0.1278     3.0033 6.6049e+00     5.0175      0.803      1.164    19.0657 0.0000e+00
      0.822      0.013     5.2789     56.377     39.157  34.485756     4.7700     1.3913     0.1278     3.0033 6.7397e+00     4.9123      0.806      1.169    19.0589 0.0000e+00
      0.825      0.012     5.2637     56.199     39.158  34.482934     4.7700     1.4219     0.1278     2.7918 6.8415e+00     5.0476      0.809      1.173    19.0517 0.0000e+00
      0.828      0.012     5.2513     55.992     39.165  34.485366     4.7700     1.4180     0.1278     2.7918 6.8968e+00     5.0476      0.811      1.177    19.0444 0.0000e+00
      0.830      0.012     5.2393     55.760     39.174  34.489738     4.7700     1.4066     0.1278     2.7918 6.9374e+00     5.1077      0.814      1.181    19.0373 0.0000e+00
      0.833      0.013     5.2257     55.522     39.185  34.497217     4.7700     1.3379     0.1278     2.7918 6.9918e+00     5.1077      0.817      1.185    19.0310 0.0000e+00
      0.837      0.014     5.2098     55.304     39.203  34.509797     4.7700     1.3379     0.1278     2.7918 6.9934e+00     5.0776      0.820      1.190    19.0255 0.0000e+00
      0.841      0.015     5.1911     55.128     39.221  34.522911     4.7700     1.3494     0.1278     2.7072 6.9343e+00     4.9875      0.824      1.195    19.0210 0.0000e+00
      0.845      0.017     5.1700     55.004     39.240  34.536095     4.7700     1.3532     0.1278     2.7072 6.7529e+00     5.1077      0.828      1.201    19.0171 0.0000e+00
      0.849      0.018     5.1483     54.924     39.263  34.552865     4.7700     1.1586     0.1278     2.7072 6.6092e+00     4.8071      0.833      1.208    19.0136 0.0000e+00
      0.854      0.019     5.1284     54.865     39.291  34.573732     4.7700     1.1548     0.1278     2.7072 6.5463e+00     4.8823      0.837      1.215    19.0101 0.0000e+00
      0.859      0.019     5.1125     54.788     39.322  34.596338     4.6800     1.1434     0.1278     2.6226 6.5010e+00     4.8522      0.842      1.222    19.0062 0.0000e+00
      0.864      0.019     5.1015     54.658     39.353  34.618789     4.6800     1.1510     0.1278     2.6226 6.4657e+00     4.8823      0.847      1.229    19.0019 0.0000e+00
      0.869      0.019     5.0945     54.454     39.382  34.639151     4.6800     1.0785     0.1278     2.6226 6.3130e+00     4.6568      0.852      1.236    18.9972 0.0000e+00
      0.874      0.019     5.0895     54.174     39.405  34.654932     4.6800     1.0709     0.1278     2.6226 6.2952e+00     4.5366      0.857      1.243    18.9922 0.0000e+00
      0.879      0.018     5.0829     53.818     39.422  34.666379     4.6800     1.1014     0.0852     2.5380 6.1787e+00     4.6568      0.862      1.250    18.9868 0.0000e+00
      0.884      0.018     5.0715     53.392     39.437  34.676543     4.6800     1.0862     0.0852     2.5380 6.1827e+00     4.6267      0.866      1.256    18.9808 0.0000e+00
      0.888      0.017     5.0532     52.918     39.449  34.684176     4.6800     1.0976     0.0852     2.5380 6.1438e+00     4.6117      0.871      1.263    18.9746 0.0000e+00
      0.892      0.016     5.0278     52.436     39.460  34.691312     4.6800     1.1090     0.0852     2.5380 6.1505e+00     4.5666      0.875      1.268    18.9688 0.0000e+00
      0.896      0.016     4.9952     51.988     39.475  34.701833     4.6800     1.0862     0.0852     2.5380 6.0301e+00     4.5666      0.879      1.274    18.9637 0.0000e+00
      0.899      0.015     4.9561     51.597     39.488  34.710625     4.7700     1.1014     0.1278     2.4111 6.1013e+00     4.6267      0.882      1.279    18.9595 0.0000e+00
      0.903      0.015     4.9125     51.275     39.497  34.716071     4.7700     1.0213     0.1278     2.4111 6.0616e+00     4.5967      0.886      1.284    18.9559 0.0000e+00
      0.907      0.014     4.8681     51.030     39.509  34.723582     4.7700     1.0518     0.1278     2.4111 6.0249e+00     4.5666      0.889      1.290    18.9526 0.0000e+00
      0.910      0.014     4.8268     50.860     39.520  34.731203     4.7700     1.0213     0.1278     2.4111 5.9352e+00     4.5366      0.893      1.295    18.9496 0.0000e+00
      0.914      0.013     4.7908     50.749     39.524  34.733042     4.6800     1.0137     0.1278     2.3688 5.8329e+00     4.5666      0.897      1.300    18.9465 0.0000e+00
      0.917      0.013     4.7612     50.664     39.527  34.733551     4.6800     1.1052     0.1278     2.3688 5.8685e+00     4.6568      0.900      1.305    18.9433 0.0000e+00
      0.921      0.013     4.7387     50.579     39.530  34.734847     4.6800     1.0709     0.1278     2.3688 5.8038e+00     4.5967      0.903      1.309    18.9400 0.0000e+00
      0.924      0.012     4.7232     50.491     39.528  34.731333     4.6800     1.1014     0.1278     2.3688 5.8494e+00     4.5967      0.906      1.314    18.9370 0.0000e+00
      0.927      0.012     4.7132     50.406     39.525  34.726033     4.6800     1.0976     0.1278     2.3265 5.8367e+00     4.4314      0.909      1.318    18.9344 0.0000e+00
      0.930      0.013     4.7055     50.328     39.525  34.723475     4.6800     1.1014     0.1278     2.3265 5.8583e+00     4.6267      0.912      1.322    18.9321 0.0000e+00
      0.933      0.013     4.6979     50.269     39.529  34.722977     4.6800     1.0900     0.1278     2.3265 5.8558e+00     4.5666      0.915      1.327    18.9300 0.0000e+00
      0.936      0.014     4.6899     50.232     39.535  34.724407     4.6800     1.1014     0.1278     2.3265 5.7711e+00     4.6568      0.918      1.332    18.9277 0.0000e+00
      0.940      0.014     4.6822     50.205     39.544  34.728144     4.6800     1.0785     0.1278     2.3688 5.8329e+00     4.5516      0.922      1.337    18.9248 0.0000e+00
      0.944      0.015     4.6754     50.169     39.556  34.735187     4.6800     1.0823     0.1278     2.3688 5.8698e+00     4.5967      0.925      1.342    18.9211 0.0000e+00
      0.947      0.017     4.6703     50.109     39.573  34.745431     4.6800     1.0976     0.1278     2.3688 5.8902e+00     4.5516      0.929      1.347    18.9166 0.0000e+00
      0.952      0.018     4.6673     50.015     39.596  34.759628     4.6800     1.1167     0.1278     2.3688 5.9133e+00     4.5967      0.933      1.353    18.9117 0.0000e+00
      0.956      0.019     4.6653     49.888     39.623  34.777603     4.6800     1.1090     0.1278     2.3688 5.7925e+00     4.6568      0.938      1.360    18.9067 0.0000e+00
      0.962      0.020     4.6625     49.737     39.652  34.796227     4.7700     1.0366     0.1278     2.2842 5.7900e+00     4.6267      0.943      1.368    18.9017 0.0000e+00
      0.967      0.020     4.6574     49.567     39.677  34.812546     4.7700     1.0213     0.1278     2.2842 5.6373e+00     4.5967      0.949      1.376    18.8960 0.0000e+00
      0.973      0.020     4.6493     49.381     39.695  34.822987     4.7700     1.0137     0.1278     2.2842 5.4743e+00     4.5366      0.954      1.384    18.8892 0.0000e+00
      0.978      0.019     4.6383     49.191     39.709  34.830335     4.7700     1.0442     0.1278     2.2842 5.3975e+00     4.5967      0.960      1.392    18.8812 0.0000e+00
      0.983      0.018     4.6250     49.003     39.720  34.836549     4.7700     0.9679     0.0852     2.1996 5.3905e+00     4.3412      0.964      1.398    18.8730 0.0000e+00
      0.987      0.016     4.6099     48.817     39.721  34.835364     4.7700     0.9565     0.0852     2.1996 5.2826e+00     4.2961      0.968      1.404    18.8653 0.0000e+00
      0.991      0.014     4.5933     48.633     39.717  34.830426     4.7700     0.9870     0.0852     2.1996 5.1995e+00     4.3412      0.972      1.410    18.8584 0.0000e+00
      0.994      0.013     4.5761     48.454     39.714  34.828339     4.7700     0.9870     0.0852     2.1996 5.1032e+00     4.2660      0.975      1.414    18.8526 0.0000e+00
      0.997      0.012     4.5590     48.292     39.713  34.828547     4.6800     0.9679     0.1278     2.0727 5.0922e+00     4.6418      0.978      1.418    18.8482 0.0000e+00
      1.000      0.011     4.5419     48.164     39.716  34.831105     4.6800     0.9755     0.1278     2.0727 5.0844e+00     4.6267      0.980      1.422    18.8453 0.0000e+00
      1.002      0.010     4.5249     48.080     39.723  34.836696     4.6800     0.9793     0.1278     2.0727 5.0734e+00     4.5967      0.983      1.425    18.8441 0.0000e+00
      1.005      0.010     4.5082     48.039     39.736  34.846811     4.6800     0.9832     0.1278     2.0727 5.0262e+00     4.5967      0.985      1.429    18.8443 0.0000e+00
      1.007      0.010     4.4931     48.035     39.749  34.856226     4.6800     1.0327     0.1278     1.9881 4.8777e+00     4.6267      0.988      1.433    18.8452 0.0000e+00
      1.010      0.010     4.4812     48.051     39.756  34.859528     4.6800     1.0289     0.1278     1.9881 4.8545e+00     4.5967      0.991      1.437    18.8458 0.0000e+00
      1.013      0.010     4.4734     48.069     39.761  34.861559     4.6800     1.0327     0.1278     1.9881 4.8219e+00     4.5967      0.993      1.440    18.8452 0.0000e+00
      1.015      0.009     4.4698     48.084     39.770  34.866821     4.6800     1.0442     0.1278     1.9881 4.8820e+00     4.6418      0.996      1.444    18.8432 0.0000e+00
      1.017      0.009     4.4697     48.094     39.786  34.876718     4.6800     1.0366     0.1278     1.9881 4.9331e+00     4.3712      0.998      1.447    18.8404 0.0000e+00
      1.019      0.009     4.4714     48.089     39.808  34.889929     4.6800     1.0518     0.0852     2.1150 5.0186e+00     4.4013      0.999      1.450    18.8376 0.0000e+00
      1.021      0.008     4.4734     48.058     39.829  34.902053     4.6800     1.0366     0.0852     2.1150 4.9396e+00     4.3261      1.001      1.453    18.8346 0.0000e+00
      1.023      0.008     4.4751     47.988     39.844  34.908401     4.6800     1.0289     0.0852     2.1150 4.9246e+00     4.3863      1.004      1.456    18.8307 0.0000e+00
      1.025      0.008     4.4765     47.862     39.849  34.906706     4.6800     0.9908     0.0852     2.1150 4.8936e+00     4.1608      1.006      1.459    18.8253 0.0000e+00
      1.028      0.009     4.4767     47.670     39.850  34.904436     4.6800     0.9603     0.0852     2.2419 4.8408e+00     4.0857      1.008      1.462    18.8182 0.0000e+00
      1.030      0.009     4.4746     47.411     39.857  34.908908     4.6800     1.0022     0.0852     2.2419 4.8640e+00     4.0406      1.010      1.465    18.8098 0.0000e+00
      1.032      0.009     4.4688     47.098     39.866  34.917354     4.6800     1.0022     0.0852     2.2419 4.8513e+00     4.0406      1.012      1.468    18.8015 0.0000e+00
      1.034      0.010     4.4577     46.765     39.873  34.924103     4.6800     0.9679     0.0852     2.2419 4.8481e+00     4.0556      1.015      1.471    18.7946 0.0000e+00
      1.037      0.011     4.4401     46.465     39.866  34.919073     4.6800     1.1205     0.1278     2.0304 4.8135e+00     4.6117      1.017      1.475    18.7903 0.0000e+00
      1.040      0.011     4.4162     46.245     39.844  34.900924     4.6800     1.0976     0.1278     2.0304 4.7511e+00     4.6117      1.020      1.479    18.7885 0.0000e+00
      1.043      0.012     4.3871     46.129     39.823  34.884619     4.6800     1.0862     0.1278     2.0304 4.6329e+00     4.6418      1.023      1.483    18.7885 0.0000e+00
      1.046      0.012     4.3560     46.124     39.816  34.881654     4.6800     1.1129     0.1278     2.0304 4.6703e+00     4.5967      1.026      1.488    18.7894 0.0000e+00
      1.049      0.013     4.3279     46.215     39.820  34.887278     4.6800     0.9946     0.1278     2.0304 4.6369e+00     4.1608      1.029      1.492    18.7907 0.0000e+00
      1.052      0.014     4.3072     46.377     39.828  34.895069     4.7700     1.0060     0.0852     2.0304 4.5858e+00     4.0406      1.032      1.497    18.7927 0.0000e+00
      1.056      0.015     4.2962     46.589     39.844  34.907105     4.7700     0.9641     0.0852     2.0304 4.5570e+00     4.1157      1.035      1.502    18.7958 0.0000e+00
      1.060      0.017     4.2954     46.823     39.866  34.922635     4.7700     0.9679     0.0852     2.0304 4.5968e+00     4.0857      1.039      1.507    18.7994 0.0000e+00
      1.064      0.019     4.3036     47.040     39.894  34.941838     4.7700     1.0251     0.0852     2.0304 4.5659e+00     4.3712      1.044      1.513    18.8020 0.0000e+00
      1.069      0.021     4.3187     47.210     39.925  34.961914     4.6800     1.0785     0.1278     2.1150 4.4755e+00     4.4314      1.049      1.521    18.8025 0.0000e+00
      1.075      0.023     4.3387     47.301     39.954  34.980293     4.6800     1.0213     0.1278     2.1150 4.3273e+00     4.3712      1.054      1.529    18.8005 0.0000e+00
      1.081      0.024     4.3608     47.286     39.981  34.997917     4.6800     1.0480     0.1278     2.1150 4.2132e+00     4.3111      1.061      1.538    18.7959 0.0000e+00
      1.088      0.025     4.3817     47.148     40.000  35.007600     4.6800     0.9641     0.1278     2.1150 4.1704e+00     4.2059      1.067      1.547    18.7890 0.0000e+00
      1.094      0.026     4.3982     46.889     40.007  35.007965     4.6800     0.9870     0.1278     1.9881 4.1776e+00     4.1307      1.073      1.556    18.7807 0.0000e+00
      1.101      0.026     4.4074     46.525     40.012  35.007030     4.6800     0.9565     0.1278     1.9881 4.1271e+00     4.0857      1.079      1.566    18.7720 0.0000e+00
      1.108      0.027     4.4067     46.085     40.020  35.008507     4.6800     0.9908     0.1278     1.9881 3.9516e+00     4.0706      1.086      1.576    18.7637 0.0000e+00
      1.115      0.026     4.3946     45.610     40.030  35.012789     4.6800     0.8458     0.1278     1.9881 3.8902e+00     3.8752      1.093      1.586    18.7557 0.0000e+00
      1.122      0.026     4.3712     45.141     40.043  35.021017     4.6800     0.8229     0.1278     1.9458 3.8457e+00     3.8151      1.100      1.595    18.7480 0.0000e+00
      1.128      0.026     4.3379     44.703     40.058  35.031426     4.6800     0.8420     0.1278     1.9458 3.7983e+00     3.8903      1.106      1.605    18.7407 0.0000e+00
      1.135      0.025     4.2974     44.316     40.074  35.042829     4.6800     0.8611     0.1278     1.9458 3.7467e+00     3.8452      1.113      1.614    18.7343 0.0000e+00
      1.141      0.024     4.2536     43.989     40.096  35.058268     4.6800     0.8496     0.1278     1.9458 3.7313e+00     3.6648      1.119      1.623    18.7291 0.0000e+00
      1.147      0.024     4.2102     43.728     40.118  35.073937     4.6800     0.8496     0.1278     1.9458 3.7127e+00     3.6047      1.125      1.631    18.7250 0.0000e+00
      1.153      0.023     4.1696     43.528     40.136  35.086093     4.6800     0.8306     0.0852     1.6920 3.6423e+00     3.6197      1.130      1.640    18.7213 0.0000e+00
      1.159      0.023     4.1338     43.375     40.155  35.097978     4.6800     0.8458     0.0852     1.6920 3.6297e+00     3.6498      1.136      1.648    18.7178 0.0000e+00
      1.164      0.022     4.1037     43.255     40.177  35.112760     4.6800     0.8420     0.0852     1.6920 3.6045e+00     3.9804      1.142      1.656    18.7139 0.0000e+00
      1.170      0.022     4.0797     43.152     40.203  35.130420     4.6800     0.8535     0.0852     1.6920 3.5734e+00     3.9203      1.147      1.664    18.7096 0.0000e+00
      1.176      0.022     4.0614     43.045     40.228  35.147745     4.6800     0.8420     0.1278     1.6920 3.5309e+00     3.9504      1.153      1.672    18.7044 0.0000e+00
      1.181      0.023     4.0476     42.916     40.251  35.161433     4.6800     0.8649     0.1278     1.6920 3.5424e+00     3.7851      1.158      1.680    18.6987 0.0000e+00
      1.187      0.023     4.0369     42.751     40.265  35.167213     4.6800     0.9221     0.1278     1.6920 3.5080e+00     3.5897      1.164      1.688    18.6928 0.0000e+00
      1.193      0.024     4.0277     42.546     40.269  35.162665     4.6800     0.8992     0.1278     1.6920 3.4214e+00     3.6197      1.170      1.697    18.6868 0.0000e+00
      1.199      0.025     4.0183     42.307     40.266  35.150535     4.6800     0.9221     0.1278     1.4382 3.4065e+00     3.6648      1.176      1.706    18.6805 0.0000e+00
      1.205      0.025     4.0069     42.055     40.265  35.139473     4.6800     0.9030     0.1278     1.4382 3.3486e+00     3.6498      1.182      1.715    18.6732 0.0000e+00
      1.212      0.026     3.9922     41.813     40.266  35.130488     4.6800     0.8573     0.1278     1.4382 3.3153e+00     3.3792      1.189      1.724    18.6645 0.0000e+00
      1.219      0.026     3.9738     41.591     40.264  35.117224     4.6800     0.8687     0.1278     1.4382 3.2737e+00     3.4394      1.195      1.734    18.6546 0.0000e+00
      1.226      0.026     3.9524     41.394     40.262  35.104065     4.6800     0.8496     0.0852     1.3959 3.2787e+00     3.4544      1.202      1.744    18.6434 0.0000e+00
      1.232      0.026     3.9298     41.220     40.266  35.095424     4.6800     0.8458     0.0852     1.3959 3.2581e+00     3.4093      1.208      1.753    18.6309 0.0000e+00
      1.239      0.026     3.9082     41.071     40.272  35.088995     4.6800     0.8000     0.0852     1.3959 3.2419e+00     3.4243      1.215      1.762    18.6179 0.0000e+00
      1.246      0.025     3.8886     40.944     40.277  35.083063     4.6800     0.8153     0.0852     1.3959 3.1736e+00     3.4093      1.221      1.772    18.6044 0.0000e+00
      1.252      0.024     3.8713     40.821     40.280  35.076046     4.6800     0.7810     0.0852     1.3959 3.1564e+00     3.4394      1.228      1.781    18.5902 0.0000e+00
      1.258      0.023     3.8562     40.686     40.278  35.066072     4.6800     0.8153     0.0852     1.3536 3.1612e+00     3.4093      1.234      1.790    18.5754 0.0000e+00
      1.264      0.022     3.8433     40.534     40.269  35.050483     4.6800     0.7314     0.0852     1.3536 3.1819e+00     3.1388      1.239      1.798    18.5610 0.0000e+00
      1.269      0.021     3.8325     40.368     40.255  35.029082     4.6800     0.7314     0.0852     1.3536 3.2419e+00     3.1538      1.244      1.805    18.5477 0.0000e+00
      1.274      0.021     3.8219     40.196     40.244  35.008044     4.6800     0.7352     0.0852     1.3536 3.2659e+00     3.0786      1.249      1.812    18.5361 0.0000e+00
      1.279      0.020     3.8100     40.025     40.238  34.989680     4.6800     0.7199     0.0852     1.2690 3.2222e+00     3.0937      1.254      1.819    18.5259 0.0000e+00
      1.284      0.020     3.7966     39.862     40.231  34.969092     4.6800     0.7199     0.0852     1.2690 3.2681e+00     2.9133      1.259      1.826    18.5162 0.0000e+00
      1.289      0.020     3.7819     39.715     40.224  34.948713     4.6800     0.7428     0.0852     1.2690 3.2638e+00     2.9133      1.264      1.834    18.5049 0.0000e+00
      1.294      0.020     3.7669     39.588     40.223  34.934989     4.6800     0.7085     0.0852     1.2690 3.2525e+00     2.9734      1.269      1.841    18.4905 0.0000e+00
      1.300      0.020     3.7522     39.475     40.228  34.928222     4.6800     0.7276     0.0852     1.0998 3.2773e+00     2.9283      1.274      1.848    18.4734 0.0000e+00
      1.305      0.021     3.7382     39.374     40.238  34.926606     4.6800     0.6970     0.0852     1.0998 3.2887e+00     2.9133      1.279      1.856    18.4554 0.0000e+00
      1.310      0.021     3.7258     39.286     40.250  34.929709     4.6800     0.6589     0.0852     1.0998 3.2702e+00     2.9434      1.285      1.863    18.4380 0.0000e+00
      1.315      0.021     3.7150     39.214     40.261  34.934398     4.6800     0.6665     0.0852     1.0998 3.2816e+00     2.9283      1.290      1.871    18.4219 0.0000e+00
      1.321      0.021     3.7056     39.152     40.264  34.934002     4.6800     0.7009     0.0852     1.0152 3.2511e+00     2.9734      1.295      1.879    18.4077 0.0000e+00
      1.326      0.021     3.6969     39.095     40.264  34.932375     4.6800     0.7009     0.0852     1.0152 3.2327e+00     2.7480      1.301      1.886    18.3958 0.0000e+00
      1.331      0.021     3.6894     39.047     40.270  34.937006     4.6800     0.6742     0.0852     1.0152 3.2243e+00     2.7780      1.306      1.894    18.3867 0.0000e+00
      1.337      0.021     3.6831     39.015     40.273  34.941207     4.6800     0.6742     0.0852     1.0152 3.1681e+00     2.6728      1.311      1.901    18.3803 0.0000e+00
      1.342      0.021     3.6776     39.007     40.268  34.938178     4.6800     0.6780     0.0852     1.0152 3.1653e+00     2.7931      1.316      1.908    18.3764 0.0000e+00
      1.347      0.021     3.6724     39.028     40.257  34.931072     4.6800     0.6856     0.0852     1.0152 3.1756e+00     2.9734      1.321      1.916    18.3744 0.0000e+00
      1.352      0.021     3.6680     39.080     40.245  34.921954     4.6800     0.6665     0.0852     1.0152 3.1536e+00     2.9283      1.326      1.923    18.3741 0.0000e+00
      1.358      0.022     3.6649     39.163     40.230  34.908394     4.6800     0.6627     0.0852     1.0152 3.0625e+00     2.9584      1.332      1.932    18.3753 0.0000e+00
      1.364      0.022     3.6640     39.271     40.212  34.890737     4.6800     0.6856     0.0852     1.0152 3.0765e+00     3.0185      1.337      1.940    18.3776 0.0000e+00
      1.369      0.022     3.6657     39.386     40.191  34.868234     4.6800     0.6856     0.0852     0.8883 3.0605e+00     2.7931      1.343      1.948    18.3801 0.0000e+00
      1.375      0.023     3.6705     39.492     40.169  34.842806     4.6800     0.6894     0.0852     0.8883 3.0838e+00     2.7630      1.348      1.956    18.3815 0.0000e+00
      1.381      0.023     3.6783     39.579     40.152  34.819557     4.6800     0.7009     0.0852     0.8883 3.0651e+00     2.7780      1.354      1.963    18.3813 0.0000e+00
      1.386      0.023     3.6886     39.641     40.137  34.796245     4.6800     0.6856     0.0852     0.8883 3.0254e+00     2.7630      1.359      1.972    18.3790 0.0000e+00
      1.392      0.023     3.6998     39.674     40.125  34.774576     4.6800     0.6780     0.0852     0.8883 3.0123e+00     2.6879      1.365      1.980    18.3741 0.0000e+00
      1.398      0.023     3.7104     39.675     40.122  34.760655     4.6800     0.6742     0.0852     0.8883 2.9772e+00     2.8231      1.372      1.989    18.3661 0.0000e+00
      1.405      0.023     3.7193     39.652     40.129  34.756709     4.6800     0.6894     0.0852     0.8883 2.9189e+00     2.8231      1.378      1.998    18.3551 0.0000e+00
      1.411      0.022     3.7261     39.614     40.143  34.759705     4.6800     0.6932     0.0852     0.8883 2.8216e+00     2.7931      1.384      2.007    18.3421 0.0000e+00
      1.417      0.021     3.7303     39.574     40.151  34.760540     4.5900     0.6398     0.0852     0.8037 2.8431e+00     2.7480      1.389      2.015    18.3283 0.0000e+00
      1.422      0.021     3.7315     39.539     40.156  34.757455     4.5900     0.6360     0.0852     0.8037 2.8580e+00     2.7931      1.394      2.022    18.3144 0.0000e+00
      1.426      0.021     3.7303     39.509     40.161  34.753588     4.5900     0.6093     0.0852     0.8037 2.8039e+00     2.7630      1.399      2.029    18.3014 0.0000e+00
      1.431      0.021     3.7275     39.473     40.163  34.743948     4.5900     0.6284     0.0852     0.8037 2.8100e+00     2.7480      1.404      2.036    18.2908 0.0000e+00
      1.437      0.022     3.7243     39.429     40.158  34.725964     4.5900     0.6246     0.0852     0.8037 2.7034e+00     2.5977      1.409      2.043    18.2824 0.0000e+00
      1.443      0.023     3.7217     39.375     40.153  34.704742     4.5900     0.6208     0.0426     0.7614 2.7104e+00     2.5526      1.415      2.052    18.2739 0.0000e+00
      1.449      0.024     3.7197     39.305     40.149  34.682543     4.5900     0.6284     0.0426     0.7614 2.6969e+00     2.4925      1.421      2.060    18.2632 0.0000e+00
      1.455      0.025     3.7174     39.214     40.146  34.659389     4.5900     0.6360     0.0426     0.7614 2.6418e+00     2.5676      1.427      2.069    18.2494 0.0000e+00
      1.462      0.026     3.7146     39.093     40.145  34.637025     4.5900     0.5635     0.0426     0.7614 2.6384e+00     2.2971      1.433      2.078    18.2320 0.0000e+00
      1.468      0.027     3.7110     38.938     40.141  34.613448     4.5900     0.5864     0.0852     0.7191 2.6206e+00     2.3271      1.440      2.088    18.2113 0.0000e+00
      1.475      0.027     3.7062     38.754     40.133  34.586330     4.5900     0.5597     0.0852     0.7191 2.6036e+00     2.2971      1.447      2.098    18.1877 0.0000e+00
      1.482      0.028     3.6995     38.546     40.120  34.556362     4.5900     0.5445     0.0852     0.7191 2.5923e+00     2.3422      1.453      2.108    18.1620 0.0000e+00
      1.489      0.029     3.6901     38.314     40.105  34.523472     4.5900     0.5445     0.0852     0.7191 2.5772e+00     2.1017      1.460      2.118    18.1357 0.0000e+00
      1.496      0.030     3.6774     38.067     40.095  34.494733     4.5900     0.5559     0.0426     0.6768 2.5604e+00     2.0716      1.467      2.128    18.1100 0.0000e+00
      1.504      0.032     3.6619     37.819     40.088  34.470403     4.5900     0.5445     0.0426     0.6768 2.5449e+00     2.0115      1.475      2.140    18.0855 0.0000e+00
      1.513      0.033     3.6440     37.581     40.072  34.440030     4.5900     0.5521     0.0426     0.6768 2.4896e+00     2.0566      1.484      2.152    18.0614 0.0000e+00
      1.522      0.035     3.6238     37.360     40.056  34.411358     4.5900     0.5788     0.0426     0.6768 2.4590e+00     2.0416      1.492      2.164    18.0366 0.0000e+00
      1.531      0.035     3.6023     37.161     40.051  34.392586     4.5900     0.5864     0.0426     0.6768 2.4414e+00     1.9814      1.501      2.177    18.0115 0.0000e+00
      1.540      0.036     3.5806     36.987     40.047  34.374744     4.5900     0.5559     0.0426     0.5922 2.3921e+00     2.0866      1.510      2.190    17.9881 0.0000e+00
      1.549      0.036     3.5596     36.837     40.039  34.353076     4.5900     0.5788     0.0426     0.5922 2.3770e+00     2.0265      1.519      2.203    17.9675 0.0000e+00
      1.559      0.036     3.5401     36.706     40.029  34.329725     4.5900     0.5712     0.0426     0.5922 2.3590e+00     1.8462      1.528      2.217    17.9491 0.0000e+00
      1.568      0.035     3.5224     36.579     40.019  34.306384     4.5900     0.5597     0.0426     0.5922 2.3259e+00     1.8161      1.538      2.230    17.9317 0.0000e+00
      1.577      0.034     3.5072     36.446     40.010  34.284750     4.5000     0.5635     0.0426     0.4653 2.3549e+00     1.7560      1.546      2.243    17.9141 0.0000e+00
      1.585      0.033     3.4944     36.302     40.000  34.263015     4.5000     0.5597     0.0426     0.4653 2.2893e+00     1.7410      1.555      2.255    17.8953 0.0000e+00
      1.594      0.033     3.4833     36.144     39.988  34.239342     4.5000     0.5025     0.0426     0.4653 2.2863e+00     1.6207      1.563      2.267    17.8763 0.0000e+00
      1.602      0.032     3.4725     35.974     39.975  34.215339     4.5000     0.4796     0.0426     0.4653 2.2913e+00     1.4854      1.571      2.278    17.8583 0.0000e+00
      1.610      0.031     3.4611     35.795     39.967  34.194509     4.4100     0.5178     0.0852     0.3807 2.2670e+00     1.5305      1.579      2.289    17.8411 0.0000e+00
      1.618      0.030     3.4486     35.609     39.968  34.179217     4.4100     0.5139     0.0852     0.3807 2.2690e+00     1.5606      1.586      2.300    17.8245 0.0000e+00
      1.625      0.030     3.4348     35.417     39.973  34.167365     4.4100     0.4872     0.0852     0.3807 2.2893e+00     1.5005      1.594      2.311    17.8081 0.0000e+00
      1.633      0.029     3.4199     35.221     39.983  34.159752     4.4100     0.4949     0.0852     0.3807 2.2367e+00     1.5756      1.601      2.322    17.7914 0.0000e+00
      1.640      0.029     3.4040     35.024     39.990  34.152367     4.4100     0.5101     0.0426     0.4230 2.2121e+00     1.6357      1.608      2.332    17.7738 0.0000e+00
      1.647      0.029     3.3877     34.822     39.983  34.133338     4.4100     0.5101     0.0426     0.4230 2.2260e+00     1.5305      1.615      2.343    17.7543 0.0000e+00
      1.654      0.029     3.3709     34.609     39.959  34.099572     4.4100     0.4872     0.0426     0.4230 2.2553e+00     1.5305      1.622      2.353    17.7335 0.0000e+00
      1.661      0.028     3.3535     34.383     39.931  34.059887     4.4100     0.5025     0.0426     0.4230 2.1645e+00     1.5456      1.629      2.363    17.7139 0.0000e+00
      1.669      0.028     3.3359     34.145     39.907  34.023503     4.4100     0.5025     0.0426     0.4230 2.1673e+00     1.5155      1.637      2.374    17.6968 0.0000e+00
      1.676      0.028     3.3178     33.900     39.888  33.992601     4.3200     0.4949     0.0426     0.3807 2.1448e+00     1.5756      1.644      2.384    17.6810 0.0000e+00
      1.683      0.028     3.2987     33.657     39.874  33.966860     4.3200     0.4796     0.0426     0.3807 2.1514e+00     1.3802      1.651      2.394    17.6639 0.0000e+00
      1.690      0.028     3.2785     33.420     39.856  33.939416     4.3200     0.5063     0.0426     0.3807 2.1383e+00     1.3051      1.657      2.404    17.6446 0.0000e+00
      1.697      0.028     3.2571     33.193     39.829  33.902950     4.3200     0.5025     0.0426     0.3807 2.1166e+00     1.3351      1.664      2.414    17.6242 0.0000e+00
      1.704      0.029     3.2350     32.981     39.806  33.867540     4.3200     0.5101     0.0852     0.3384 2.1323e+00     1.2901      1.671      2.424    17.6055 0.0000e+00
      1.712      0.029     3.2129     32.788     39.793  33.839588     4.3200     0.4796     0.0852     0.3384 2.0747e+00     1.2600      1.679      2.435    17.5891 0.0000e+00
      1.719      0.030     3.1913     32.618     39.781  33.811637     4.3200     0.5216     0.0852     0.3384 2.0182e+00     1.2901      1.686      2.446    17.5735 0.0000e+00
      1.727      0.030     3.1708     32.467     39.774  33.788116     4.3200     0.4987     0.0852     0.3384 2.0257e+00     1.2600      1.694      2.457    17.5565 0.0000e+00
      1.735      0.031     3.1518     32.321     39.774  33.770673     4.2300     0.4720     0.0426     0.2961 2.0275e+00     1.2149      1.701      2.468    17.5371 0.0000e+00
      1.743      0.031     3.1348     32.161     39.767  33.746736     4.2300     0.4224     0.0426     0.2961 2.0160e+00     1.1999      1.709      2.479    17.5156 0.0000e+00
      1.751      0.031     3.1199     31.972     39.752  33.715860     4.2300     0.4300     0.0426     0.2961 1.9951e+00     1.2149      1.717      2.490    17.4934 0.0000e+00
      1.759      0.031     3.1069     31.742     39.739  33.685654     4.2300     0.4491     0.0426     0.2961 1.9667e+00     1.2750      1.725      2.502    17.4714 0.0000e+00
      1.767      0.032     3.0944     31.468     39.724  33.654005     4.2300     0.4567     0.0426     0.2115 1.9986e+00     1.3652      1.733      2.513    17.4494 0.0000e+00
      1.775      0.032     3.0805     31.158     39.706  33.620392     4.2300     0.4491     0.0426     0.2115 1.9633e+00     1.3953      1.741      2.525    17.4266 0.0000e+00
      1.783      0.032     3.0638     30.820     39.695  33.591695     4.2300     0.4491     0.0426     0.2115 1.9633e+00     1.2600      1.749      2.536    17.4032 0.0000e+00
      1.792      0.033     3.0432     30.463     39.686  33.564222     4.2300     0.4415     0.0426     0.2115 1.9295e+00     1.3502      1.757      2.548    17.3795 0.0000e+00
      1.800      0.033     3.0184     30.103     39.668  33.530644     4.2300     0.4148     0.0426     0.2115 1.9324e+00     1.3051      1.765      2.560    17.3562 0.0000e+00
      1.809      0.033     2.9901     29.759     39.642  33.489930     4.1400     0.4262     0.0426     0.3384 1.9320e+00     1.0345      1.774      2.573    17.3328 0.0000e+00
      1.817      0.033     2.9591     29.438     39.608  33.443102     4.1400     0.4300     0.0426     0.3384 1.9429e+00     1.0496      1.782      2.585    17.3084 0.0000e+00
      1.826      0.033     2.9264     29.139     39.575  33.397476     4.1400     0.4148     0.0426     0.3384 1.9514e+00     1.1097      1.791      2.597    17.2836 0.0000e+00
      1.834      0.033     2.8933     28.862     39.551  33.356728     4.1400     0.4491     0.0426     0.3384 1.9107e+00     1.0045      1.799      2.608    17.2595 0.0000e+00
      1.842      0.033     2.8616     28.600     39.533  33.317912     4.1400     0.3919     0.0426     0.3384 1.9161e+00     0.9744      1.807      2.620    17.2365 0.0000e+00
      1.851      0.033     2.8320     28.350     39.512  33.274636     4.1400     0.3728     0.0426     0.3384 1.9099e+00     1.0796      1.815      2.632    17.2141 0.0000e+00
      1.859      0.033     2.8047     28.105     39.478  33.219321     4.1400     0.3766     0.0426     0.3384 1.8729e+00     0.9594      1.824      2.644    17.1908 0.0000e+00
      1.868      0.033     2.7795     27.858     39.436  33.155036     4.1400     0.3804     0.0426     0.3384 1.8839e+00     0.9894      1.832      2.656    17.1646 0.0000e+00
      1.876      0.034     2.7559     27.604     39.393  33.088403     4.0500     0.3690     0.0426     0.2961 1.8647e+00     1.0345      1.840      2.669    17.1351 0.0000e+00
      1.885      0.034     2.7336     27.343     39.359  33.027395     4.0500     0.3652     0.0426     0.2961 1.8635e+00     1.0646      1.848      2.681    17.1030 0.0000e+00
      1.893      0.033     2.7120     27.075     39.347  32.983467     4.0500     0.3919     0.0426     0.2961 1.8394e+00     1.0195      1.857      2.693    17.0685 0.0000e+00
      1.902      0.033     2.6902     26.794     39.348  32.952823     4.0500     0.3881     0.0426     0.2961 1.8183e+00     1.0345      1.865      2.705    17.0319 0.0000e+00
      1.911      0.033     2.6678     26.504     39.351  32.927290     4.0500     0.3690     0.0426     0.3807 1.8342e+00     1.0796      1.874      2.718    16.9932 0.0000e+00
      1.919      0.033     2.6448     26.207     39.352  32.904019     4.0500     0.3919     0.0426     0.3807 1.7889e+00     0.9894      1.882      2.729    16.9521 0.0000e+00
      1.927      0.033     2.6212     25.910     39.343  32.876803     4.0500     0.3652     0.0426     0.3807 1.7839e+00     1.0796      1.890      2.741    16.9099 0.0000e+00
      1.935      0.033     2.5963     25.618     39.331  32.850267     4.0500     0.3804     0.0426     0.3807 1.7704e+00     1.0045      1.898      2.753    16.8696 0.0000e+00
      1.944      0.033     2.5701     25.335     39.328  32.833176     4.0500     0.3804     0.0426     0.3807 1.7376e+00     1.1398      1.906      2.765    16.8335 0.0000e+00
      1.952      0.032     2.5429     25.076     39.328  32.820971     4.0500     0.3766     0.0426     0.2115 1.6896e+00     1.0496      1.914      2.777    16.8030 0.0000e+00
      1.961      0.032     2.5154     24.854     39.328  32.810397     4.0500     0.3995     0.0426     0.2115 1.7043e+00     1.0796      1.923      2.789    16.7780 0.0000e+00
      1.969      0.032     2.4881     24.675     39.329  32.802594     4.0500     0.3804     0.0426     0.2115 1.6786e+00     1.0796      1.931      2.801    16.7571 0.0000e+00
      1.977      0.031     2.4616     24.544     39.328  32.795483     4.0500     0.3995     0.0426     0.2115 1.6717e+00     0.9444      1.939      2.812    16.7388 0.0000e+00
      1.985      0.030     2.4373     24.460     39.325  32.787166     4.0500     0.3766     0.0426     0.2961 1.6670e+00     1.0345      1.946      2.823    16.7227 0.0000e+00
      1.992      0.028     2.4164     24.415     39.318  32.775425     4.0500     0.3881     0.0426     0.2961 1.6479e+00     1.0345      1.954      2.834    16.7094 0.0000e+00
      2.000      0.027     2.3995     24.409     39.311  32.763071     4.0500     0.3728     0.0426     0.2961 1.6283e+00     1.0045      1.961      2.844    16.6992 0.0000e+00
      2.007      0.026     2.3872     24.441     39.310  32.754729     4.0500     0.3728     0.0426     0.2961 1.5850e+00     0.9894      1.968      2.854    16.6911 0.0000e+00
      2.013      0.024     2.3794     24.493     39.315  32.750154     4.0500     0.3690     0.0426     0.2115 1.5874e+00     1.0045      1.974      2.863    16.6839 0.0000e+00
      2.019      0.023     2.3754     24.547     39.320  32.746147     4.0500     0.3728     0.0426     0.2115 1.5885e+00     1.0796      1.980      2.872    16.6764 0.0000e+00
      2.024      0.021     2.3753     24.588     39.320  32.737677     4.0500     0.3690     0.0426     0.2115 1.5867e+00     1.0045      1.985      2.879    16.6678 0.0000e+00
      2.029      0.021     2.3789     24.605     39.314  32.722487     4.0500     0.3728     0.0426     0.2115 1.5563e+00     1.0796      1.990      2.886    16.6581 0.0000e+00
      2.034      0.020     2.3844     24.594     39.298  32.698505     3.9600     0.3919     0.0426     0.2115 1.5445e+00     1.0345      1.995      2.893    16.6477 0.0000e+00
      2.039      0.020     2.3903     24.556     39.280  32.671218     3.9600     0.3652     0.0426     0.2115 1.5723e+00     0.9744      2.000      2.900    16.6369 0.0000e+00
      2.045      0.020     2.3949     24.483     39.275  32.655130     3.9600     0.3575     0.0426     0.2115 1.5472e+00     1.0045      2.005      2.908    16.6256 0.0000e+00
      2.050      0.020     2.3971     24.373     39.283  32.651892     3.9600     0.3919     0.0426     0.2115 1.5332e+00     1.2750      2.010      2.916    16.6136 0.0000e+00
      2.055      0.020     2.3967     24.234     39.289  32.648759     3.9600     0.3881     0.0426     0.2115 1.5209e+00     1.3652      2.015      2.923    16.5999 0.0000e+00
      2.060      0.020     2.3938     24.083     39.284  32.636973     3.9600     0.3652     0.0426     0.2115 1.5222e+00     1.3051      2.020      2.930    16.5844 0.0000e+00
      2.065      0.020     2.3874     23.932     39.280  32.625273     3.9600     0.3919     0.0426     0.2115 1.4830e+00     1.2450      2.025      2.937    16.5691 0.0000e+00
      2.070      0.021     2.3773     23.786     39.281  32.618461     3.9600     0.3690     0.0426     0.2115 1.4918e+00     1.3051      2.030      2.945    16.5562 0.0000e+00
      2.076      0.021     2.3643     23.648     39.277  32.606798     3.9600     0.3766     0.0426     0.2115 1.4853e+00     1.3051      2.035      2.952    16.5455 0.0000e+00
      2.081      0.022     2.3500     23.525     39.263  32.587174     3.9600     0.3919     0.0426     0.1692 1.4782e+00     1.1999      2.041      2.960    16.5353 0.0000e+00
      2.087      0.023     2.3358     23.421     39.240  32.558315     3.9600     0.3728     0.0426     0.1692 1.4814e+00     1.3201      2.046      2.968    16.5248 0.0000e+00
      2.093      0.025     2.3220     23.335     39.205  32.516488     3.9600     0.3728     0.0426     0.1692 1.5071e+00     1.3051      2.052      2.977    16.5146 0.0000e+00
      2.099      0.026     2.3091     23.258     39.168  32.466379     3.9600     0.3919     0.0426     0.1692 1.4785e+00     1.2600      2.059      2.986    16.5047 0.0000e+00
      2.106      0.028     2.2976     23.176     39.141  32.418389     3.9600     0.3766     0.0852     0.2538 1.4718e+00     1.3051      2.065      2.995    16.4945 0.0000e+00
      2.113      0.029     2.2880     23.078     39.128  32.379521     3.9600     0.3728     0.0852     0.2538 1.4549e+00     1.3351      2.072      3.006    16.4822 0.0000e+00
      2.121      0.031     2.2805     22.956     39.127  32.351290     3.9600     0.3766     0.0852     0.2538 1.4721e+00     1.3051      2.080      3.017    16.4652 0.0000e+00
      2.129      0.032     2.2741     22.798     39.133  32.330127     3.9600     0.3881     0.0852     0.2538 1.4352e+00     1.2750      2.088      3.029    16.4406 0.0000e+00
      2.138      0.033     2.2675     22.592     39.138  32.310387     3.9600     0.3652     0.0852     0.2538 1.4405e+00     1.3652      2.097      3.041    16.4084 0.0000e+00
      2.146      0.034     2.2596     22.339     39.139  32.290768     3.9600     0.3461     0.0426     0.1692 1.4342e+00     1.3802      2.105      3.053    16.3724 0.0000e+00
      2.155      0.035     2.2494     22.042     39.139  32.273956     3.9600     0.3804     0.0426     0.1692 1.4411e+00     1.3351      2.114      3.066    16.3370 0.0000e+00
      2.164      0.035     2.2355     21.712     39.141  32.261409     3.9600     0.3842     0.0426     0.1692 1.3834e+00     1.2600      2.123      3.079    16.3038 0.0000e+00
      2.173      0.036     2.2167     21.367     39.149  32.253741     3.9600     0.3690     0.0426     0.1692 1.4181e+00     1.3502      2.132      3.091    16.2735 0.0000e+00
      2.183      0.036     2.1931     21.031     39.161  32.250886     3.9600     0.3766     0.0852     0.1692 1.4160e+00     1.2299      2.141      3.104    16.2476 0.0000e+00
      2.192      0.036     2.1649     20.723     39.174  32.250104     3.9600     0.3194     0.0852     0.1692 1.3970e+00     1.2299      2.150      3.118    16.2262 0.0000e+00
      2.201      0.036     2.1333     20.458     39.182  32.247224     3.9600     0.3156     0.0852     0.1692 1.3919e+00     1.1999      2.159      3.131    16.2076 0.0000e+00
      2.210      0.035     2.1003     20.239     39.184  32.239498     3.9600     0.3308     0.0852     0.1692 1.4274e+00     1.3201      2.167      3.143    16.1898 0.0000e+00
      2.219      0.035     2.0679     20.065     39.186  32.230806     3.9600     0.3156     0.0426     0.1269 1.3780e+00     1.2750      2.176      3.156    16.1731 0.0000e+00
      2.228      0.035     2.0383     19.928     39.193  32.224770     3.9600     0.3232     0.0426     0.1269 1.4246e+00     1.5606      2.185      3.169    16.1587 0.0000e+00
      2.237      0.035     2.0128     19.816     39.198  32.215821     3.9600     0.3118     0.0426     0.1269 1.4308e+00     1.4253      2.194      3.182    16.1463 0.0000e+00
      2.246      0.035     1.9918     19.713     39.198  32.203552     3.9600     0.3194     0.0426     0.1269 1.4355e+00     1.4854      2.203      3.194    16.1341 0.0000e+00
      2.255      0.036     1.9751     19.610     39.203  32.194590     3.8700     0.3003     0.0426     0.1692 1.4016e+00     1.6508      2.211      3.207    16.1207 0.0000e+00
      2.264      0.036     1.9623     19.499     39.216  32.190507     3.8700     0.2774     0.0426     0.1692 1.3825e+00     1.5456      2.220      3.220    16.1059 0.0000e+00
      2.273      0.036     1.9519     19.371     39.231  32.186253     3.8700     0.3118     0.0426     0.1692 1.4308e+00     1.5305      2.229      3.233    16.0903 0.0000e+00
      2.283      0.037     1.9424     19.223     39.244  32.180693     3.8700     0.3079     0.0426     0.1692 1.4305e+00     1.5305      2.238      3.247    16.0743 0.0000e+00
      2.292      0.037     1.9330     19.050     39.261  32.180264     3.8700     0.3232     0.0426     0.1692 1.3831e+00     1.5606      2.248      3.260    16.0576 0.0000e+00
      2.302      0.036     1.9228     18.846     39.282  32.184851     3.9600     0.3041     0.0426     0.2115 1.4016e+00     1.5456      2.258      3.274    16.0388 0.0000e+00
      2.311      0.036     1.9110     18.603     39.303  32.191716     3.9600     0.3232     0.0426     0.2115 1.4071e+00     1.4854      2.267      3.288    16.0181 0.0000e+00
      2.320      0.035     1.8973     18.321     39.320  32.198729     3.9600     0.3041     0.0426     0.2115 1.4107e+00     1.6207      2.275      3.300    15.9973 0.0000e+00
      2.329      0.034     1.8810     18.010     39.330  32.203799     3.9600     0.3232     0.0426     0.2115 1.3943e+00     1.5305      2.284      3.313    15.9783 0.0000e+00
      2.338      0.033     1.8614     17.688     39.337  32.208279     3.8700     0.3003     0.0852     0.2115 1.4246e+00     1.7860      2.292      3.325    15.9622 0.0000e+00
      2.346      0.032     1.8379     17.379     39.337  32.209402     3.8700     0.3232     0.0852     0.2115 1.4160e+00     1.8762      2.300      3.337    15.9495 0.0000e+00
      2.354      0.032     1.8104     17.105     39.329  32.203509     3.8700     0.3079     0.0852     0.2115 1.4055e+00     1.7560      2.308      3.348    15.9410 0.0000e+00
      2.362      0.031     1.7798     16.890     39.317  32.192988     3.8700     0.3156     0.0852     0.2115 1.4058e+00     1.7560      2.316      3.359    15.9365 0.0000e+00
      2.370      0.031     1.7481     16.751     39.306  32.178994     3.8700     0.3118     0.0426     0.2115 1.4367e+00     1.6207      2.324      3.370    15.9354 0.0000e+00
      2.377      0.030     1.7175     16.691     39.301  32.165718     3.8700     0.3156     0.0426     0.2115 1.4380e+00     1.8462      2.331      3.381    15.9365 0.0000e+00
      2.385      0.030     1.6903     16.692     39.312  32.161498     3.8700     0.3194     0.0426     0.2115 1.4374e+00     1.8762      2.339      3.392    15.9376 0.0000e+00
      2.393      0.030     1.6691     16.728     39.326  32.157287     3.8700     0.2965     0.0426     0.2115 1.3982e+00     1.7860      2.346      3.403    15.9365 0.0000e+00
      2.400      0.030     1.6557     16.754     39.335  32.148003     3.8700     0.3346     0.0852     0.2538 1.4197e+00     2.0416      2.354      3.414    15.9308 0.0000e+00
      2.408      0.030     1.6501     16.725     39.354  32.147011     3.8700     0.2965     0.0852     0.2538 1.3765e+00     2.0866      2.361      3.424    15.9188 0.0000e+00
      2.415      0.030     1.6509     16.611     39.390  32.158005     3.8700     0.3308     0.0852     0.2538 1.4330e+00     2.0716      2.368      3.435    15.9014 0.0000e+00
      2.422      0.031     1.6551     16.400     39.437  32.175997     3.8700     0.3079     0.0852     0.2538 1.4515e+00     1.9965      2.376      3.445    15.8816 0.0000e+00
      2.430      0.033     1.6584     16.091     39.488  32.193901     3.8700     0.3232     0.0852     0.2538 1.4141e+00     1.8913      2.383      3.456    15.8613 0.0000e+00
      2.438      0.034     1.6562     15.695     39.534  32.204611     3.8700     0.3156     0.0852     0.1692 1.4377e+00     1.7560      2.391      3.468    15.8398 0.0000e+00
      2.447      0.037     1.6457     15.228     39.578  32.207022     3.8700     0.3003     0.0852     0.1692 1.4587e+00     1.8161      2.400      3.481    15.8164 0.0000e+00
      2.457      0.039     1.6257     14.707     39.622  32.201775     3.8700     0.3118     0.0852     0.1692 1.4395e+00     1.8311      2.409      3.495    15.7903 0.0000e+00
      2.467      0.041     1.5960     14.150     39.670  32.195389     3.8700     0.3003     0.0852     0.1692 1.4203e+00     2.0416      2.420      3.509    15.7610 0.0000e+00
      2.479      0.042     1.5577     13.562     39.733  32.198043     3.8700     0.3041     0.0852     0.2538 1.3834e+00     2.0416      2.431      3.525    15.7268 0.0000e+00
      2.490      0.043     1.5126     12.936     39.806  32.206481     3.8700     0.2927     0.0852     0.2538 1.4019e+00     1.9814      2.442      3.542    15.6845 0.0000e+00
      2.502      0.043     1.4623     12.264     39.873  32.211069     3.8700     0.3079     0.0852     0.2538 1.4193e+00     1.9814      2.453      3.558    15.6333 0.0000e+00
      2.513      0.042     1.4086     11.542     39.929  32.213028     3.8700     0.3194     0.0852     0.2538 1.3813e+00     2.5376      2.464      3.574    15.5760 0.0000e+00
      2.524      0.040     1.3518     10.771     39.976  32.216841     3.8700     0.3079     0.0852     0.0846 1.3569e+00     2.4774      2.475      3.589    15.5146 0.0000e+00
      2.534      0.038     1.2911      9.954     40.014  32.219563     3.8700     0.3156     0.0852     0.0846 1.3463e+00     2.5225      2.485      3.604    15.4507 0.0000e+00
      2.543      0.036     1.2257      9.104     40.044  32.221917     3.8700     0.2927     0.0852     0.0846 1.3516e+00     2.5225      2.494      3.617    15.3887 0.0000e+00
      2.552      0.034     1.1549      8.250     40.077  32.228493     3.8700     0.3079     0.0852     0.0846 1.3549e+00     2.5225      2.503      3.630    15.3348 0.0000e+00
      2.560      0.032     1.0787      7.436     40.110  32.237082     3.7800     0.3041     0.0852     0.2538 1.3414e+00     2.4474      2.511      3.641    15.2915 0.0000e+00
      2.568      0.030     0.9976      6.706     40.144  32.246014     3.7800     0.3079     0.0852     0.2538 1.3160e+00     2.6127      2.518      3.652    15.2573 0.0000e+00
      2.575      0.029     0.9130      6.088     40.183  32.257671     3.7800     0.3118     0.0852     0.2538 1.3223e+00     2.4323      2.525      3.663    15.2293 0.0000e+00
      2.582      0.028     0.8278      5.588     40.226  32.269221     3.7800     0.3156     0.0852     0.2538 1.3165e+00     2.4925      2.532      3.673    15.2049 0.0000e+00
      2.589      0.027     0.7465      5.205     40.262  32.271860     3.7800     0.3156     0.0852     0.2538 1.3171e+00     2.4474      2.539      3.683    15.1821 0.0000e+00
      2.596      0.027     0.6736      4.930     40.287  32.264311     3.7800     0.3079     0.0852     0.2538 1.3359e+00     2.4474      2.546      3.692    15.1595 0.0000e+00
      2.603      0.027     0.6118      4.736     40.307  32.252481     3.7800     0.3156     0.0852     0.2538 1.3071e+00     2.4925      2.552      3.702    15.1350 0.0000e+00
      2.610      0.027     0.5619      4.590     40.325  32.239156     3.7800     0.3194     0.0852     0.2538 1.3029e+00     2.5225      2.559      3.712    15.1066 0.0000e+00
      2.617      0.028     0.5238      4.463     40.336  32.222760     3.7800     0.3041     0.0852     0.2538 1.3292e+00     2.4474      2.566      3.722    15.0742 0.0000e+00
      2.624      0.028     0.4964      4.335     40.336  32.198920     3.7800     0.3423     0.0852     0.1692 1.3134e+00     2.4323      2.573      3.732    15.0397 0.0000e+00
      2.631      0.029     0.4773      4.196     40.326  32.167220     3.7800     0.3346     0.0852     0.1692 1.2975e+00     2.4925      2.580      3.742    15.0050 0.0000e+00
      2.638      0.029     0.4629      4.050     40.314  32.133067     3.7800     0.3346     0.0852     0.1692 1.2710e+00     2.5075      2.587      3.752    14.9710 0.0000e+00
      2.646      0.030     0.4505      3.904     40.302  32.099232     3.7800     0.3423     0.0852     0.1692 1.3066e+00     2.6578      2.594      3.763    14.9393 0.0000e+00
      2.654      0.030     0.4378      3.771     40.285  32.060655     3.7800     0.3118     0.0426     0.2538 1.2802e+00     2.4323      2.602      3.774    14.9099 0.0000e+00
      2.662      0.030     0.4241      3.662     40.263  32.014967     3.7800     0.3156     0.0426     0.2538 1.3231e+00     2.5225      2.610      3.785    14.8801 0.0000e+00
      2.669      0.029     0.4096      3.593     40.241  31.969786     3.7800     0.3537     0.0426     0.2538 1.2738e+00     2.5225      2.617      3.796    14.8495 0.0000e+00
      2.677      0.028     0.3951      3.577     40.223  31.928904     3.7800     0.3842     0.0426     0.2538 1.2669e+00     2.5526      2.625      3.807    14.8193 0.0000e+00
      2.684      0.028     0.3819      3.623     40.209  31.893301     3.8700     0.3728     0.0852     0.1692 1.2718e+00     2.5526      2.632      3.817    14.7881 0.0000e+00
      2.690      0.028     0.3712      3.731     40.225  31.879222     3.8700     0.3652     0.0852     0.1692 1.2724e+00     2.5977      2.638      3.826    14.7538 0.0000e+00
      2.697      0.028     0.3644      3.898     40.293  31.906676     3.8700     0.4567     0.0852     0.1692 1.2713e+00     2.8081      2.645      3.835    14.7187 0.0000e+00
      2.703      0.029     0.3631      4.117     40.398  31.967140     3.8700     0.4567     0.0852     0.1692 1.3006e+00     2.7179      2.651      3.845    14.6865 0.0000e+00
      2.711      0.031     0.3681      4.371     40.517  32.037134     3.8700     0.4376     0.0852     0.1692 1.2521e+00     2.7329      2.659      3.856    14.6555 0.0000e+00
      2.719      0.033     0.3793      4.638     40.649  32.105621     3.8700     0.4338     0.0852     0.2538 1.2423e+00     2.8081      2.666      3.867    14.6224 0.0000e+00
      2.728      0.034     0.3966      4.893     40.774  32.157198     3.8700     0.6932     0.0852     0.2538 1.2581e+00     3.1087      2.675      3.879    14.5900 0.0000e+00
      2.737      0.036     0.4191      5.108     40.865  32.179874     3.8700     0.6856     0.0852     0.2538 1.2281e+00     3.0786      2.683      3.892    14.5624 0.0000e+00
      2.746      0.038     0.4454      5.247     40.928  32.181674     3.8700     0.6856     0.0852     0.2538 1.2193e+00     3.1538      2.693      3.906    14.5325 0.0000e+00
      2.756      0.038     0.4730      5.269     40.978  32.172979     3.8700     0.6780     0.0852     0.3807 1.2418e+00     3.1838      2.703      3.920    14.4884 0.0000e+00
      2.766      0.039     0.4996      5.154     41.024  32.163347     3.8700     0.6818     0.0852     0.3807 1.2565e+00     3.4845      2.713      3.934    14.4313 0.0000e+00
      2.776      0.039     0.5222      4.906     41.080  32.170012     3.8700     0.6780     0.0852     0.3807 1.2075e+00     3.4394      2.723      3.949    14.3713 0.0000e+00
      2.786      0.039     0.5370      4.554     41.167  32.206629     3.8700     0.6589     0.0852     0.3807 1.2540e+00     3.3943      2.732      3.963    14.3124 0.0000e+00
      2.796      0.038     0.5399      4.140     41.295  32.279004     3.8700     0.6780     0.0852     0.5499 1.2117e+00     3.3792      2.742      3.977    14.2534 0.0000e+00
      2.806      0.038     0.5287      3.710     41.479  32.392574     3.8700     0.7238     0.0852     0.5499 1.1978e+00     3.6498      2.751      3.990    14.1983 0.0000e+00
      2.815      0.038     0.5037      3.310     41.717  32.545939     3.8700     0.7352     0.0852     0.5499 1.2004e+00     3.7249      2.760      4.004    14.1523 0.0000e+00
      2.825      0.038     0.4679      2.978     42.011  32.742372     3.8700     0.7276     0.0852     0.5499 1.1698e+00     3.6949      2.770      4.017    14.1146 0.0000e+00
      2.834      0.038     0.4257      2.726     42.380  32.994649     3.8700     0.7505     0.0852     0.7191 1.1637e+00     3.6648      2.779      4.031    14.0806 0.0000e+00
      2.844      0.039     0.3817      2.542     42.813  33.294790     3.8700     0.3652     0.0852     0.7191 1.1746e+00     3.5746      2.789      4.045    14.0452 0.0000e+00
      2.854      0.040     0.3408      2.402     43.290  33.623818     3.8700     0.3842     0.0852     0.7191 1.1571e+00     3.6798      2.799      4.059    14.0069 0.0000e+00
      2.864      0.041     0.3069      2.280     43.749  33.934807     3.8700     0.3881     0.0852     0.7191 1.1655e+00     3.6047      2.809      4.073    13.9676 0.0000e+00
      2.875      0.043     0.2812      2.157     44.077  34.140369     3.8700     0.3919     0.0852     0.7191 1.1479e+00     3.5897      2.819      4.088    13.9270 0.0000e+00
      2.886      0.045     0.2625      2.016     44.237  34.216104     4.0500     0.3079     0.0852     0.4230 1.1506e+00     4.1307      2.830      4.104    13.8834 0.0000e+00
      2.897      0.046     0.2483      1.850     44.290  34.209933     4.0500     0.2965     0.0852     0.4230 1.1484e+00     4.1007      2.841      4.121    13.8355 0.0000e+00
      2.909      0.048     0.2360      1.661     44.309  34.177641     4.0500     0.3003     0.0852     0.4230 1.1504e+00     4.1007      2.853      4.138    13.7828 0.0000e+00
      2.922      0.049     0.2235      1.460     44.357  34.170027     4.0500     0.3079     0.0852     0.4230 1.1188e+00     4.0857      2.865      4.156    13.7270 0.0000e+00
      2.935      0.050     0.2091      1.259     44.450  34.202884     4.0500     0.3194     0.0852     0.3807 1.1406e+00     4.0857      2.878      4.174    13.6719 0.0000e+00
      2.948      0.051     0.1921      1.071     44.568  34.261206     4.0500     0.3003     0.0852     0.3807 1.0659e+00     4.1307      2.891      4.193    13.6184 0.0000e+00
      2.961      0.050     0.1727      0.906     44.698  34.330840     4.0500     0.3194     0.0852     0.3807 1.0673e+00     4.1157      2.904      4.212    13.5650 0.0000e+00
      2.974      0.050     0.1519      0.777     44.836  34.406588     4.0500     0.3041     0.0852     0.3807 1.0950e+00     4.1157      2.917      4.230    13.5144 0.0000e+00
      2.987      0.048     0.1312      0.689     44.997  34.502708     4.0500     0.3041     0.1278     0.2538 1.0473e+00     4.2510      2.929      4.248    13.4712 0.0000e+00
      2.999      0.047     0.1116      0.646     45.196  34.632946     4.0500     0.3346     0.1278     0.2538 1.0391e+00     4.1157      2.941      4.266    13.4349 0.0000e+00
      3.011      0.045     0.0945      0.644     45.405  34.774600     4.0500     0.3270     0.1278     0.2538 1.0500e+00     4.1458      2.953      4.283    13.4008 0.0000e+00
      3.022      0.043     0.0811      0.672     45.592  34.902069     4.0500     0.3156     0.1278     0.2538 1.0270e+00     4.0105      2.964      4.299    13.3673 0.0000e+00
      3.033      0.042     0.0721      0.717     45.758  35.015675     4.0500     0.3079     0.1278     0.2538 1.0047e+00     3.8151      2.974      4.314    13.3369 0.0000e+00
      3.043      0.041     0.0676      0.770     45.927  35.133830     4.0500     0.3232     0.1278     0.2961 9.7417e-01     3.8301      2.984      4.328    13.3118 0.0000e+00
      3.053      0.041     0.0675      0.827     46.119  35.270216     4.0500     0.3156     0.1278     0.2961 1.0067e+00     3.9804      2.994      4.342    13.2911 0.0000e+00
      3.063      0.042     0.0704      0.884     46.316  35.405749     4.0500     0.3308     0.1278     0.2961 9.9277e-01     3.8903      3.004      4.356    13.2736 0.0000e+00
      3.074      0.045     0.0751      0.942     46.487  35.515175     4.0500     0.3308     0.1278     0.2961 1.0288e+00     3.9203      3.014      4.372    13.2591 0.0000e+00
      3.085      0.048     0.0807      1.002     46.609  35.578158     4.1400     0.3232     0.0852     0.2115 1.0141e+00     3.8602      3.025      4.388    13.2471 0.0000e+00
      3.097      0.052     0.0867      1.064     46.614  35.542173     4.1400     0.2889     0.0852     0.2115 9.6197e-01     3.7700      3.037      4.405    13.2349 0.0000e+00
      3.111      0.057     0.0927      1.130     46.400  35.330281     4.1400     0.3232     0.0852     0.2115 9.6176e-01     3.8452      3.051      4.425    13.2189 0.0000e+00
      3.126      0.062     0.0988      1.197     45.934  34.921626     4.1400     0.3499     0.0852     0.2115 9.1707e-01     4.0706      3.066      4.446    13.1958 0.0000e+00
      3.143      0.067     0.1052      1.259     45.335  34.409247     4.1400     0.3232     0.0852     0.1692 9.4089e-01     4.1007      3.082      4.470    13.1628 0.0000e+00
      3.161      0.072     0.1118      1.314     44.788  33.937736     4.1400     0.3156     0.0852     0.1692 8.9327e-01     4.0857      3.100      4.496    13.1188 0.0000e+00
      3.180      0.076     0.1189      1.368     44.368  33.565536     4.1400     0.3003     0.0852     0.1692 9.0165e-01     4.0706      3.119      4.523    13.0653 0.0000e+00
      3.200      0.079     0.1261      1.425     44.055  33.276566     4.1400     0.3194     0.0852     0.1692 9.1289e-01     4.5065      3.139      4.552    13.0053 0.0000e+00
      3.221      0.081     0.1328      1.490     43.875  33.086843     4.0500     0.3194     0.1278     0.1269 8.8689e-01     4.2961      3.159      4.582    12.9423 0.0000e+00
      3.243      0.083     0.1388      1.573     43.860  33.019042     4.0500     0.3156     0.1278     0.1269 8.0339e-01     4.4013      3.180      4.612    12.8797 0.0000e+00
      3.264      0.084     0.1447      1.681     43.979  33.051120     4.0500     0.3041     0.1278     0.1269 8.8940e-01     4.3712      3.201      4.642    12.8201 0.0000e+00
      3.285      0.085     0.1510      1.816     44.196  33.157966     4.0500     0.2545     0.1278     0.1269 8.0322e-01     5.5586      3.222      4.673    12.7621 0.0000e+00
      3.307      0.085     0.1582      1.987     44.514  33.340344     4.0500     0.2469     0.1278     0.1269 7.9644e-01     5.6939      3.243      4.704    12.7019 0.0000e+00
      3.329      0.085     0.1672      2.195     44.906  33.575597     4.0500     0.2431     0.1704     0.1692 7.6323e-01     5.4233      3.265      4.736    12.6388 0.0000e+00
      3.351      0.084     0.1789      2.421     45.298  33.807635     4.0500     0.2507     0.1704     0.1692 7.6822e-01     5.6037      3.287      4.767    12.5748 0.0000e+00
      3.373      0.083     0.1936      2.634     45.626  33.991391     4.0500     0.1859     0.1704     0.1692 7.5089e-01     7.6478      3.308      4.797    12.5117 0.0000e+00
      3.393      0.082     0.2122      2.805     45.877  34.118434     4.0500     0.1973     0.1704     0.1692 6.8778e-01     7.6328      3.328      4.827    12.4490 0.0000e+00
      3.414      0.081     0.2347      2.905     46.068  34.200855     4.1400     0.2011     0.1704     0.1692 6.8361e-01     7.7380      3.348      4.856    12.3846 0.0000e+00
      3.434      0.080     0.2592      2.921     46.207  34.244787     4.1400     0.1706     0.1704     0.1692 6.7183e-01     7.6027      3.368      4.884    12.3176 0.0000e+00
      3.454      0.080     0.2824      2.860     46.298  34.250060     4.1400     0.2088     0.1704     0.1692 6.8124e-01     7.9033      3.387      4.913    12.2499 0.0000e+00
      3.474      0.080     0.3011      2.747     46.342  34.218080     4.1400     0.2011     0.1704     0.1692 6.8928e-01     7.9183      3.407      4.942    12.1839 0.0000e+00
      3.495      0.080     0.3122      2.626     46.357  34.162100     4.3200     0.1973     0.2130     0.1269 6.3964e-01     7.8883      3.427      4.971    12.1194 0.0000e+00
      3.516      0.080     0.3144      2.569     46.365  34.102839     4.3200     0.1859     0.2130     0.1269 6.5269e-01     7.9634      3.448      5.001    12.0544 0.0000e+00
      3.537      0.079     0.3083      2.665     46.380  34.054198     4.3200     0.1782     0.2130     0.1269 6.2889e-01     7.2119      3.469      5.031    11.9870 0.0000e+00
      3.558      0.078     0.2966      3.012     46.393  34.015084     4.3200     0.1897     0.2130     0.1269 6.1939e-01     6.5957      3.489      5.060    11.9166 0.0000e+00
      3.577      0.075     0.2841      3.703     46.381  33.967145     4.0500     0.2088     0.1704     0.0846 6.2141e-01     6.6558      3.508      5.088    11.8443 0.0000e+00
      3.596      0.073     0.2784      4.818     46.336  33.897596     4.0500     0.2164     0.1704     0.0846 6.1711e-01     6.7761      3.527      5.115    11.7735 0.0000e+00
      3.614      0.071     0.2895      6.386     46.272  33.811657     4.0500     0.1744     0.1704     0.0846 6.2371e-01     6.8061      3.544      5.140    11.7094 0.0000e+00
      3.632      0.068     0.3277      8.379     46.198  33.714133     4.0500     0.1897     0.1704     0.0846 5.8422e-01     7.2570      3.561      5.165    11.6568 0.0000e+00
      3.649      0.067     0.4035     10.749     46.115  33.604762     4.0500     0.1706     0.1704     0.0846 5.9318e-01     7.2420      3.578      5.189    11.6146 0.0000e+00
      3.665      0.065     0.5256     13.456     46.022  33.482105     4.0500     0.1859     0.1704     0.2538 5.8894e-01     7.2270      3.595      5.213    11.5752 0.0000e+00
      3.682      0.064     0.6973     16.494     45.932  33.355036     4.0500     0.1821     0.1704     0.2538 5.7917e-01     7.1668      3.611      5.237    11.5325 0.0000e+00
      3.698      0.064     0.9160     19.902     45.880  33.251061     4.0500     0.1859     0.1704     0.2538 5.6047e-01     6.7610      3.627      5.260    11.4853 0.0000e+00
      3.714      0.063     1.1765     23.749     45.874  33.182058     4.0500     0.2164     0.1704     0.2538 5.7515e-01     6.8061      3.642      5.283    11.4325 0.0000e+00
      3.730      0.063     1.4746     28.128     45.883  33.131603     4.0500     0.1668     0.2130     0.1692 5.4344e-01     6.7911      3.658      5.305    11.3726 0.0000e+00
      3.746      0.062     1.8100     33.129     45.884  33.086238     4.0500     0.1782     0.2130     0.1692 5.4062e-01     6.5957      3.674      5.328    11.3055 0.0000e+00
      3.762      0.062     2.1871     38.764     45.871  33.037828     4.0500     0.1325     0.2130     0.1692 5.1717e-01     5.7239      3.689      5.351    11.2336 0.0000e+00
      3.778      0.063     2.6134     44.904     45.826  32.969500     4.0500     0.1058     0.2130     0.1692 5.4795e-01     5.7540      3.705      5.374    11.1634 0.0000e+00
      3.794      0.063     3.0989     51.269     45.745  32.870955     3.8700     0.1363     0.1704     0.1269 5.0452e-01     5.7239      3.721      5.396    11.1019 0.0000e+00
      3.810      0.064     3.6533     57.498     45.658  32.761462     3.8700     0.1439     0.1704     0.1269 5.3827e-01     5.7390      3.736      5.419    11.0513 0.0000e+00
      3.826      0.066     4.2782     63.263     45.603  32.671228     3.8700     0.1363     0.1704     0.1269 5.0716e-01     5.3031      3.752      5.442    11.0090 0.0000e+00
      3.843      0.067     4.9598     68.356     45.577  32.605893     3.8700     0.1248     0.1704     0.1269 4.9443e-01     5.3782      3.769      5.466    10.9694 0.0000e+00
      3.860      0.069     5.6680     72.756     45.560  32.555955     3.8700     0.1554     0.1278     0.2115 4.9464e-01     5.2730      3.786      5.490    10.9254 0.0000e+00
      3.878      0.072     6.3637     76.644     45.551  32.519977     3.8700     0.1363     0.1278     0.2115 4.9572e-01     5.3782      3.804      5.516    10.8738 0.0000e+00
      3.897      0.073     7.0097     80.308     45.548  32.496285     3.8700     0.1554     0.1278     0.2115 4.5702e-01     5.0476      3.822      5.542    10.8186 0.0000e+00
      3.916      0.075     7.5819     83.986     45.543  32.478560     3.8700     0.1363     0.1278     0.2115 4.7083e-01     4.9574      3.841      5.570    10.7676 0.0000e+00
      3.935      0.076     8.0766     87.777     45.544  32.469996     3.8700     0.1439     0.1278     0.2115 4.6686e-01     5.0175      3.860      5.598    10.7256 0.0000e+00
      3.955      0.077     8.5137     91.607     45.556  32.472271     3.8700     0.1096     0.1278     0.0846 4.4285e-01     5.0025      3.879      5.626    10.6935 0.0000e+00
      3.975      0.079     8.9246     95.256     45.566  32.474110     3.8700     0.1363     0.1278     0.0846 4.4266e-01     5.1077      3.898      5.654    10.6703 0.0000e+00
      3.995      0.080     9.3362     98.433     45.575  32.476002     3.8700     0.1363     0.1278     0.0846 4.6737e-01     5.0326      3.918      5.682    10.6544 0.0000e+00
      4.015      0.081     9.7595    100.861     45.595  32.486374     3.8700     0.1401     0.1278     0.0846 4.5692e-01     5.1077      3.937      5.711    10.6442 0.0000e+00
      4.036      0.082    10.1867    102.352     45.612  32.496109     3.7800     0.1286     0.1278     0.1269 4.3911e-01     5.0175      3.958      5.741    10.6371 0.0000e+00
      4.058      0.083    10.5937    102.866     45.620  32.499882     3.7800     0.1744     0.1278     0.1269 3.9399e-01     5.3332      3.979      5.772    10.6313 0.0000e+00
      4.080      0.083    10.9481    102.519     45.629  32.506620     3.7800     0.1935     0.1278     0.1269 4.2577e-01     5.2730      4.001      5.803    10.6265 0.0000e+00
      4.101      0.083    11.2190    101.506     45.638  32.514160     3.7800     0.1897     0.1278     0.1269 3.9760e-01     5.3181      4.022      5.834    10.6226 0.0000e+00
      4.123      0.082    11.3854    100.034     45.633  32.512629     3.7800     0.1859     0.0852     0.0846 3.9708e-01     5.2881      4.043      5.864    10.6197 0.0000e+00
      4.143      0.081    11.4430     98.289     45.621  32.505582     3.7800     0.1401     0.0852     0.0846 3.7986e-01     5.1378      4.063      5.893    10.6181 0.0000e+00
      4.163      0.081    11.4044     96.412     45.618  32.503021     3.7800     0.1477     0.0852     0.0846 3.6308e-01     5.0175      4.083      5.922    10.6180 0.0000e+00
      4.184      0.080    11.2913     94.486     45.623  32.504262     3.7800     0.1172     0.0852     0.0846 3.9596e-01     5.0626      4.103      5.951    10.6194 0.0000e+00
      4.204      0.080    11.1270     92.573     45.629  32.505677     3.7800     0.1286     0.1278     0.1269 3.4291e-01     5.0476      4.123      5.980    10.6215 0.0000e+00
      4.224      0.079    10.9326     90.728     45.630  32.503681     3.7800     0.1248     0.1278     0.1269 3.7283e-01     5.1378      4.143      6.009    10.6227 0.0000e+00
      4.245      0.079    10.7238     89.000     45.620  32.493781     3.7800     0.1134     0.1278     0.1269 3.3729e-01     5.0025      4.163      6.037    10.6224 0.0000e+00
      4.265      0.080    10.5101     87.434     45.605  32.481258     3.7800     0.1286     0.1278     0.1269 3.1967e-01     5.0025      4.182      6.066    10.6203 0.0000e+00
      4.284      0.082    10.2980     86.063     45.592  32.470695     3.7800     0.1401     0.1278     0.1269 3.3737e-01     5.0175      4.202      6.094    10.6172 0.0000e+00
      4.305      0.084    10.0935     84.908     45.579  32.459274     3.7800     0.1325     0.0852     0.1269 3.2155e-01     5.0175      4.222      6.123    10.6141 0.0000e+00
      4.326      0.087     9.9019     83.975     45.572  32.451871     3.7800     0.1515     0.0852     0.1269 3.3394e-01     5.1378      4.242      6.153    10.6115 0.0000e+00
      4.349      0.090     9.7282     83.249     45.579  32.454432     3.7800     0.1210     0.0852     0.1269 2.6117e-01     5.0175      4.265      6.186    10.6094 0.0000e+00
      4.373      0.093     9.5761     82.697     45.589  32.459720     3.7800     0.1286     0.0852     0.1269 3.1354e-01     5.0476      4.289      6.220    10.6073 0.0000e+00
      4.398      0.095     9.4481     82.272     45.587  32.457263     3.7800     0.1439     0.0852     0.2115 2.8236e-01     5.3031      4.313      6.255    10.6050 0.0000e+00
      4.423      0.097     9.3448     81.925     45.579  32.450365     3.7800     0.1630     0.0852     0.2115 2.6524e-01     5.3181      4.337      6.291    10.6026 0.0000e+00
      4.448      0.098     9.2645     81.616     45.572  32.445109     3.7800     0.1286     0.0852     0.2115 2.4427e-01     5.3933      4.361      6.326    10.6004 0.0000e+00
      4.472      0.099     9.2035     81.323     45.566  32.440093     3.7800     0.1286     0.0852     0.2115 2.3246e-01     5.2430      4.385      6.361    10.5984 0.0000e+00
      4.497      0.101     9.1565     81.032     45.563  32.437939     3.7800     0.1248     0.0852     0.1269 2.2935e-01     5.3181      4.410      6.396    10.5968 0.0000e+00
      4.523      0.103     9.1181     80.740     45.563  32.438075     3.7800     0.1439     0.0852     0.1269 2.2525e-01     5.3632      4.435      6.433    10.5956 0.0000e+00
      4.549      0.104     9.0839     80.460     45.561  32.436574     3.7800     0.1325     0.0852     0.1269 2.2306e-01     5.2580      4.461      6.470    10.5949 0.0000e+00
      4.577      0.106     9.0513     80.211     45.561  32.436997     3.7800     0.1286     0.0852     0.1269 2.0962e-01     5.2129      4.488      6.510    10.5946 0.0000e+00
      4.604      0.107     9.0190     80.005     45.565  32.439458     3.7800     0.1439     0.0852     0.1269 1.9918e-01     5.1528      4.515      6.549    10.5945 0.0000e+00
      4.632      0.107     8.9865     79.854     45.561  32.436690     3.7800     0.1439     0.1278     0.1692 1.8964e-01     5.0776      4.542      6.588    10.5944 0.0000e+00
      4.659      0.107     8.9554     79.765     45.555  32.431918     3.7800     0.1248     0.1278     0.1692 1.7594e-01     5.1077      4.569      6.627    10.5944 0.0000e+00
      4.686      0.106     8.9277     79.728     45.555  32.431789     3.7800     0.1019     0.1278     0.1692 1.9146e-01     5.0175      4.596      6.665    10.5943 0.0000e+00
      4.713      0.104     8.9047     79.732     45.556  32.432308     3.7800     0.1325     0.1278     0.1692 1.8244e-01     5.3031      4.622      6.703    10.5943 0.0000e+00
      4.740      0.101     8.8880     79.769     45.547  32.425693     3.8700     0.1210     0.1278     0.1692 1.6387e-01     5.2730      4.648      6.742    10.5942 0.0000e+00
      4.767      0.097     8.8781     79.817     45.531  32.414140     3.8700     0.1401     0.1278     0.1692 1.4403e-01     5.2730      4.674      6.779    10.5940 0.0000e+00
      4.791      0.093     8.8740     79.857     45.531  32.414370     3.8700     0.1363     0.1278     0.1692 1.4886e-01     5.3782      4.699      6.815    10.5938 0.0000e+00
      4.814      0.089     8.8746     79.883     45.548  32.426446     3.8700     0.1439     0.1278     0.1692 1.4977e-01     5.0626      4.721      6.847    10.5936 0.0000e+00
      4.836      0.084     8.8787     79.886     45.559  32.433784     3.8700     0.1134     0.0852     0.0846 1.6484e-01     5.0175      4.742      6.877    10.5934 0.0000e+00
      4.856      0.081     8.8840     79.857     45.554  32.430421     3.8700     0.1363     0.0852     0.0846 1.5524e-01     5.0927      4.762      6.906    10.5934 0.0000e+00
      4.876      0.078     8.8885     79.798     45.544  32.423381     3.8700     0.1477     0.0852     0.0846 1.5280e-01     5.2129      4.781      6.934    10.5933 0.0000e+00
      4.895      0.075     8.8915     79.719     45.543  32.422668     3.8700     0.1439     0.0852     0.0846 1.8504e-01     5.0476      4.800      6.962    10.5932 0.0000e+00
      4.914      0.073     8.8918     79.631     45.545  32.424131     3.7800     0.1134     0.1278     0.2115 1.3538e-01     5.1227      4.819      6.989    10.5930 0.0000e+00
      4.932      0.071     8.8886     79.546     45.539  32.420240     3.7800     0.1286     0.1278     0.2115 1.4434e-01     5.1077      4.837      7.015    10.5929 0.0000e+00
      4.950      0.069     8.8821     79.472     45.535  32.417878     3.7800     0.1210     0.1278     0.2115 1.5197e-01     5.1077      4.855      7.041    10.5930 0.0000e+00
      4.968      0.067     8.8732     79.412     45.543  32.424335     3.7800     0.1172     0.1278     0.2115 1.4176e-01     5.2881      4.871      7.065    10.5932 0.0000e+00
      4.984      0.066     8.8633     79.372     45.554  32.433413     3.7800     0.1515     0.1278     0.2115 1.4964e-01     5.4083      4.888      7.089    10.5935 0.0000e+00
      5.001      0.064     8.8538     79.354     45.562  32.439612     3.7800     0.1363     0.1278     0.0846 1.2557e-01     5.2430      4.904      7.112    10.5940 0.0000e+00
      5.017      0.064     8.8455     79.356     45.567  32.444585     3.7800     0.1363     0.1278     0.0846 1.1617e-01     5.3782      4.920      7.135    10.5945 0.0000e+00
      5.033      0.063     8.8387     79.372     45.566  32.445696     3.7800     0.1019     0.1278     0.0846 1.2883e-01     5.2430      4.935      7.158    10.5952 0.0000e+00
      5.049      0.063     8.8340     79.398     45.555  32.439283     3.7800     0.1592     0.1278     0.0846 1.1623e-01     5.2430      4.951      7.181    10.5959 0.0000e+00
      5.065      0.064     8.8318     79.438     45.542  32.431556     3.7800     0.1439     0.1278     0.2115 1.2664e-01     5.3031      4.967      7.204    10.5970 0.0000e+00
      5.081      0.064     8.8318     79.495     45.536  32.428375     3.7800     0.1363     0.1278     0.2115 1.3207e-01     5.2730      4.983      7.226    10.5985 0.0000e+00
      5.097      0.065     8.8331     79.562     45.531  32.424933     3.7800     0.1286     0.1278     0.2115 1.4365e-01     4.9875      4.998      7.249    10.6002 0.0000e+00
      5.113      0.066     8.8357     79.629     45.525  32.420311     3.7800     0.1439     0.1278     0.2115 1.1620e-01     5.0025      5.014      7.273    10.6019 0.0000e+00
      5.130      0.068     8.8398     79.692     45.533  32.425158     3.7800     0.1401     0.1278     0.1692 1.3129e-01     5.0476      5.031      7.297    10.6035 0.0000e+00
      5.148      0.069     8.8459     79.747     45.555  32.440766     3.7800     0.1363     0.1278     0.1692 1.2408e-01     5.1678      5.048      7.322    10.6048 0.0000e+00
      5.166      0.069     8.8532     79.791     45.571  32.451494     3.7800     0.1515     0.1278     0.1692 1.2814e-01     5.0626      5.066      7.348    10.6051 0.0000e+00
      5.184      0.069     8.8608     79.820     45.578  32.456244     3.7800     0.1286     0.1278     0.1692 1.1610e-01     5.1077      5.084      7.374    10.6046 0.0000e+00
      5.202      0.068     8.8679     79.830     45.584  32.460242     3.7800     0.1058     0.1278     0.1269 1.2015e-01     5.0025      5.101      7.399    10.6039 0.0000e+00
      5.219      0.066     8.8742     79.818     45.579  32.456634     3.7800     0.1439     0.1278     0.1269 1.1610e-01     5.0476      5.118      7.424    10.6034 0.0000e+00
      5.236      0.064     8.8791     79.786     45.568  32.448418     3.7800     0.1248     0.1278     0.1269 1.1617e-01     5.2881      5.134      7.447    10.6029 0.0000e+00
      5.252      0.063     8.8824     79.738     45.559  32.441323     3.7800     0.1515     0.1278     0.1269 1.1623e-01     5.3332      5.150      7.470    10.6026 0.0000e+00
      5.267      0.063     8.8836     79.678     45.555  32.437418     3.7800     0.1210     0.1278     0.1269 1.1625e-01     5.2129      5.165      7.491    10.6023 0.0000e+00
      5.282      0.062     8.8823     79.606     45.554  32.435662     3.7800     0.1401     0.0852     0.1269 1.1610e-01     5.4083      5.180      7.513    10.6022 0.0000e+00
      5.298      0.063     8.8788     79.525     45.545  32.427667     3.7800     0.1439     0.0852     0.1269 1.1607e-01     5.1077      5.196      7.536    10.6020 0.0000e+00
      5.314      0.063     8.8736     79.439     45.530  32.415259     3.7800     0.1325     0.0852     0.1269 1.1617e-01     5.0326      5.212      7.559    10.6013 0.0000e+00
      5.331      0.063     8.8672     79.347     45.525  32.410972     3.7800     0.1477     0.0852     0.1269 1.1595e-01     5.0326      5.228      7.583    10.6002 0.0000e+00
      5.347      0.063     8.8594     79.250     45.529  32.413664     3.7800     0.1554     0.1278     0.1269 1.1623e-01     5.1227      5.244      7.606    10.5987 0.0000e+00
      5.363      0.062     8.8508     79.149     45.526  32.412170     3.7800     0.1515     0.1278     0.1269 1.1612e-01     5.0927      5.260      7.628    10.5971 0.0000e+00
      5.379      0.061     8.8415     79.051     45.523  32.410052     3.7800     0.1286     0.1278     0.1269 1.1623e-01     4.9875      5.275      7.650    10.5957 0.0000e+00
      5.394      0.060     8.8314     78.970     45.530  32.414667     3.7800     0.1210     0.1278     0.1269 1.1615e-01     5.1378      5.290      7.672    10.5949 0.0000e+00
      5.410      0.059     8.8206     78.909     45.543  32.423285     3.7800     0.1401     0.0852     0.0846 1.1640e-01     5.0476      5.305      7.694    10.5947 0.0000e+00
      5.425      0.058     8.8093     78.867     45.554  32.430283     3.7800     0.1363     0.0852     0.0846 1.1607e-01     5.1378      5.320      7.716    10.5948 0.0000e+00
      5.440      0.057     8.7985     78.841     45.558  32.433566     3.7800     0.1019     0.0852     0.0846 1.1623e-01     5.1077      5.335      7.737    10.5947 0.0000e+00
      5.454      0.056     8.7896     78.828     45.553  32.430050     3.7800     0.1210     0.0852     0.0846 1.1623e-01     5.0776      5.349      7.758    10.5940 0.0000e+00
      5.468      0.055     8.7830     78.823     45.536  32.418796     3.7800     0.1363     0.0852     0.1692 1.1630e-01     5.0025      5.362      7.777    10.5933 0.0000e+00
      5.481      0.055     8.7784     78.822     45.515  32.404725     3.7800     0.1248     0.0852     0.1692 1.1623e-01     5.1077      5.375      7.796    10.5928 0.0000e+00
      5.494      0.056     8.7755     78.822     45.497  32.392006     3.7800     0.1286     0.0852     0.1692 1.1617e-01     5.0626      5.388      7.815    10.5928 0.0000e+00
      5.508      0.057     8.7739     78.829     45.488  32.385168     3.7800     0.1172     0.0852     0.1692 1.1617e-01     5.0025      5.402      7.835    10.5932 0.0000e+00
      5.523      0.059     8.7732     78.848     45.485  32.382387     3.7800     0.1363     0.0852     0.1692 1.1615e-01     4.9875      5.416      7.855    10.5939 0.0000e+00
      5.538      0.061     8.7729     78.884     45.487  32.382923     3.7800     0.1210     0.1278     0.1269 1.1610e-01     5.0626      5.431      7.877    10.5949 0.0000e+00
      5.554      0.062     8.7729     78.935     45.499  32.390878     3.7800     0.1286     0.1278     0.1269 1.1612e-01     5.0175      5.447      7.900    10.5954 0.0000e+00
      5.571      0.063     8.7737     78.991     45.524  32.408373     3.7800     0.1477     0.1278     0.1269 1.1607e-01     5.0927      5.463      7.924    10.5950 0.0000e+00
      5.587      0.063     8.7761     79.044     45.551  32.428193     3.7800     0.1172     0.1278     0.1269 1.1623e-01     5.1227      5.479      7.947    10.5941 0.0000e+00
      5.603      0.063     8.7802     79.086     45.562  32.435820     3.8700     0.0943     0.1278     0.2115 1.1617e-01     5.1077      5.495      7.970    10.5932 0.0000e+00
      5.619      0.062     8.7860     79.107     45.559  32.433288     3.8700     0.1134     0.1278     0.2115 1.1623e-01     5.0626      5.511      7.993    10.5927 0.0000e+00
      5.635      0.061     8.7923     79.105     45.558  32.431804     3.8700     0.1439     0.1278     0.2115 1.1635e-01     5.0326      5.526      8.015    10.5926 0.0000e+00
      5.650      0.060     8.7982     79.085     45.558  32.430970     3.8700     0.1325     0.1278     0.2115 1.1620e-01     5.0476      5.541      8.037    10.5926 0.0000e+00
      5.665      0.059     8.8028     79.058     45.553  32.426605     3.8700     0.1286     0.0852     0.0846 1.1605e-01     5.3482      5.556      8.058    10.5925 0.0000e+00
      5.680      0.059     8.8053     79.033     45.553  32.425466     3.8700     0.1363     0.0852     0.0846 1.1617e-01     5.3782      5.570      8.079    10.5921 0.0000e+00
      5.694      0.059     8.8052     79.018     45.556  32.427248     3.8700     0.1134     0.0852     0.0846 1.1592e-01     5.3031      5.585      8.100    10.5915 0.0000e+00
      5.709      0.059     8.8031     79.015     45.553  32.424506     3.8700     0.1325     0.0852     0.0846 1.1617e-01     5.3031      5.599      8.121    10.5908 0.0000e+00
      5.724      0.060     8.8002     79.022     45.554  32.424430     3.7800     0.1286     0.1278     0.1269 1.1628e-01     5.2730      5.614      8.142    10.5900 0.0000e+00
      5.739      0.062     8.7976     79.041     45.564  32.430959     3.7800     0.1286     0.1278     0.1269 1.1612e-01     5.2730      5.629      8.164    10.5890 0.0000e+00
      5.755      0.064     8.7962     79.068     45.574  32.437915     3.7800     0.1401     0.1278     0.1269 1.1612e-01     5.3031      5.644      8.186    10.5880 0.0000e+00
      5.771      0.067     8.7960     79.095     45.582  32.443191     3.7800     0.1286     0.1278     0.1269 1.1615e-01     5.3031      5.660      8.209    10.5872 0.0000e+00
      5.789      0.069     8.7969     79.113     45.589  32.448194     3.7800     0.1363     0.1278     0.1269 1.1612e-01     5.0175      5.677      8.234    10.5866 0.0000e+00
      5.807      0.070     8.7990     79.119     45.592  32.450297     3.7800     0.1439     0.1278     0.2115 1.1625e-01     5.1077      5.695      8.260    10.5862 0.0000e+00
      5.826      0.072     8.8021     79.110     45.586  32.446102     3.7800     0.1286     0.1278     0.2115 1.1628e-01     5.1227      5.714      8.287    10.5858 0.0000e+00
      5.845      0.072     8.8052     79.089     45.575  32.438450     3.7800     0.1363     0.1278     0.2115 1.1612e-01     5.0175      5.732      8.314    10.5855 0.0000e+00
      5.863      0.073     8.8073     79.058     45.567  32.433221     3.7800     0.1363     0.1278     0.2115 1.1610e-01     5.2730      5.750      8.340    10.5852 0.0000e+00
      5.881      0.073     8.8079     79.022     45.572  32.436942     3.8700     0.1325     0.1278     0.1692 1.1600e-01     5.3332      5.768      8.365    10.5852 0.0000e+00
      5.900      0.074     8.8069     78.988     45.585  32.446645     3.8700     0.1363     0.1278     0.1692 1.1605e-01     5.3332      5.786      8.391    10.5853 0.0000e+00
      5.918      0.075     8.8045     78.969     45.588  32.449075     3.8700     0.1401     0.1278     0.1692 1.1617e-01     5.1378      5.804      8.418    10.5855 0.0000e+00
      5.938      0.077     8.8011     78.976     45.577  32.440919     3.8700     0.1592     0.1278     0.1692 1.1623e-01     5.3031      5.823      8.445    10.5859 0.0000e+00
      5.957      0.078     8.7970     79.008     45.565  32.431885     3.7800     0.1363     0.0852     0.0846 1.1617e-01     5.2730      5.842      8.473    10.5862 0.0000e+00
      5.978      0.080     8.7932     79.055     45.565  32.431445     3.7800     0.1134     0.0852     0.0846 1.1625e-01     5.2279      5.862      8.502    10.5865 0.0000e+00
      5.999      0.082     8.7911     79.109     45.577  32.439480     3.7800     0.1401     0.0852     0.0846 1.1620e-01     5.2730      5.883      8.532    10.5866 0.0000e+00
      6.020      0.083     8.7919     79.158     45.587  32.446254     3.7800     0.1286     0.0852     0.0846 1.1605e-01     5.0927      5.904      8.562    10.5864 0.0000e+00
      6.042      0.084     8.7955     79.195     45.582  32.441689     3.7800     0.1134     0.0852     0.0846 1.1623e-01     5.0175      5.925      8.593    10.5860 0.0000e+00
      6.063      0.084     8.8009     79.213     45.569  32.432489     3.7800     0.1286     0.1278     0.1692 1.1597e-01     5.0476      5.946      8.624    10.5854 0.0000e+00
      6.085      0.084     8.8069     79.210     45.564  32.428083     3.7800     0.1401     0.1278     0.1692 1.1633e-01     5.0476      5.967      8.654    10.5848 0.0000e+00
      6.107      0.084     8.8126     79.188     45.557  32.423336     3.7800     0.1401     0.1278     0.1692 1.1617e-01     5.3031      5.988      8.685    10.5842 0.0000e+00
      6.128      0.083     8.8168     79.150     45.554  32.420943     3.7800     0.1401     0.1278     0.1692 1.1617e-01     5.2430      6.009      8.715    10.5837 0.0000e+00
      6.149      0.082     8.8189     79.105     45.564  32.428185     3.7800     0.1592     0.0852     0.1269 1.1620e-01     5.2430      6.030      8.746    10.5833 0.0000e+00
      6.170      0.082     8.8186     79.062     45.579  32.439074     3.7800     0.1477     0.0852     0.1269 1.1623e-01     5.3031      6.051      8.775    10.5830 0.0000e+00
      6.190      0.081     8.8162     79.029     45.586  32.444631     3.7800     0.1286     0.0852     0.1269 1.1623e-01     5.2580      6.071      8.805    10.5830 0.0000e+00
      6.211      0.081     8.8119     79.011     45.589  32.446338     3.7800     0.1210     0.0852     0.1269 1.1607e-01     5.3782      6.091      8.834    10.5830 0.0000e+00
      6.232      0.081     8.8068     79.005     45.592  32.448611     3.7800     0.1363     0.1704     0.1269 1.1612e-01     5.2580      6.111      8.863    10.5831 0.0000e+00
      6.252      0.081     8.8020     79.008     45.590  32.448095     3.7800     0.1401     0.1704     0.1269 1.1617e-01     5.3482      6.131      8.893    10.5833 0.0000e+00
      6.273      0.081     8.7983     79.015     45.574  32.436732     3.7800     0.1515     0.1704     0.1269 1.1617e-01     5.3482      6.151      8.922    10.5834 0.0000e+00
      6.294      0.082     8.7963     79.025     45.554  32.423373     3.7800     0.1210     0.1704     0.1269 1.1607e-01     5.2430      6.172      8.952    10.5835 0.0000e+00
      6.314      0.082     8.7957     79.029     45.561  32.428218     3.8700     0.1363     0.1278     0.1692 1.1612e-01     5.2730      6.192      8.981    10.5837 0.0000e+00
      6.335      0.082     8.7959     79.020     45.583  32.444640     3.8700     0.1134     0.1278     0.1692 1.1620e-01     5.1829      6.213      9.011    10.5840 0.0000e+00
      6.356      0.082     8.7966     78.998     45.589  32.449294     3.8700     0.1325     0.1278     0.1692 1.1633e-01     4.9424      6.233      9.041    10.5845 0.0000e+00
      6.377      0.082     8.7976     78.977     45.574  32.439459     3.8700     0.1286     0.1278     0.1692 1.1630e-01     5.0175      6.254      9.071    10.5850 0.0000e+00
      6.398      0.082     8.7980     78.970     45.564  32.432316     3.8700     0.1363     0.1278     0.1692 1.1612e-01     5.0476      6.275      9.101    10.5855 0.0000e+00
      6.419      0.082     8.7968     78.990     45.565  32.433882     3.8700     0.1325     0.1278     0.1269 1.1607e-01     5.0927      6.295      9.131    10.5859 0.0000e+00
      6.440      0.082     8.7943     79.044     45.568  32.436652     3.8700     0.1058     0.1278     0.1269 1.1623e-01     5.2430      6.316      9.161    10.5864 0.0000e+00
      6.462      0.083     8.7918     79.130     45.568  32.437406     3.8700     0.1286     0.1278     0.1269 1.1617e-01     5.3031      6.337      9.191    10.5870 0.0000e+00
      6.483      0.083     8.7909     79.238     45.570  32.440304     3.8700     0.1592     0.1278     0.1269 1.1595e-01     5.3031      6.357      9.220    10.5877 0.0000e+00
      6.504      0.084     8.7930     79.353     45.577  32.446119     3.8700     0.1134     0.1278     0.0846 1.1630e-01     5.3031      6.378      9.250    10.5884 0.0000e+00
      6.525      0.086     8.7988     79.460     45.574  32.444520     3.8700     0.0981     0.1278     0.0846 1.1620e-01     5.3782      6.399      9.281    10.5893 0.0000e+00
      6.547      0.087     8.8082     79.545     45.559  32.435082     3.8700     0.1401     0.1278     0.0846 1.1628e-01     5.2580      6.420      9.312    10.5902 0.0000e+00
      6.569      0.088     8.8200     79.606     45.552  32.431128     3.8700     0.1515     0.1278     0.0846 1.1623e-01     5.2730      6.442      9.344    10.5912 0.0000e+00
      6.592      0.088     8.8326     79.643     45.557  32.435567     3.8700     0.1172     0.1278     0.1692 1.1617e-01     5.3031      6.465      9.377    10.5923 0.0000e+00
      6.616      0.087     8.8443     79.663     45.558  32.437699     3.8700     0.1477     0.1278     0.1692 1.1620e-01     5.2580      6.488      9.410    10.5932 0.0000e+00
      6.638      0.084     8.8537     79.671     45.551  32.434132     3.8700     0.1401     0.1278     0.1692 1.1617e-01     5.3482      6.510      9.442    10.5942 0.0000e+00
      6.660      0.081     8.8602     79.674     45.553  32.435798     3.8700     0.1363     0.1278     0.1692 1.1617e-01     5.2730      6.531      9.473    10.5953 0.0000e+00
      6.680      0.077     8.8641     79.676     45.563  32.443140     3.7800     0.1210     0.1278     0.1692 1.1597e-01     5.3782      6.551      9.501    10.5965 0.0000e+00
      6.699      0.072     8.8660     79.673     45.567  32.446234     3.7800     0.1172     0.1278     0.1692 1.1612e-01     5.6939      6.569      9.528    10.5977 0.0000e+00
      6.717      0.067     8.8667     79.669     45.567  32.445907     3.7800     0.1439     0.1278     0.1692 1.1617e-01     5.6939      6.587      9.553    10.5989 0.0000e+00
      6.733      0.062     8.8669     79.666     45.567  32.446030     3.7800     0.1592     0.1278     0.1692 1.1617e-01     5.7239      6.603      9.577    10.5997 0.0000e+00
      6.748      0.057     8.8669     79.667     45.568  32.446637     3.7800     0.1286     0.1278     0.1692 1.1615e-01     5.6638      6.617      9.598    10.6002 0.0000e+00
      6.762      0.052     8.8667     79.670     45.570  32.447890     3.7800     0.2011     0.0852     0.1269 1.1597e-01     8.0837      6.631      9.617    10.6002 0.0000e+00
      6.774      0.047     8.8662     79.678     45.568  32.446162     3.7800     0.1935     0.0852     0.1269 1.1617e-01     8.1438      6.643      9.635    10.5999 0.0000e+00
      6.786      0.043     8.8660     79.694     45.561  32.440992     3.7800     0.1782     0.0852     0.1269 1.1612e-01     8.0837      6.654      9.651    10.5997 0.0000e+00
      6.796      0.039     8.8661     79.715     45.553  32.434962     3.7800     0.1821     0.0852     0.1269 1.1623e-01     8.0987      6.665      9.666    10.5995 0.0000e+00
      6.805      0.035     8.8664     79.737     45.547  32.430426     3.8700     0.3690     0.2130     0.1269 1.1610e-01    18.3342      6.674      9.680    10.5994 0.0000e+00
      6.813      0.031     8.8674     79.750     45.552  32.434093     3.8700     0.3499     0.2130     0.1269 1.1615e-01    18.1539      6.682      9.691    10.5992 0.0000e+00
      6.821      0.027     8.8692     79.749     45.558  32.439022     3.8700     0.3613     0.2130     0.1269 1.1628e-01    18.2290      6.689      9.701    10.5990 0.0000e+00
      6.827      0.024     8.8716     79.740     45.551  32.434645     3.8700     0.3804     0.2130     0.1269 1.1605e-01    18.2290      6.695      9.710    10.5988 0.0000e+00
      6.833      0.021     8.8740     79.729     45.539  32.427715     3.5100     1.4562     1.2780     5.1183 1.1615e-01   163.1195      6.700      9.719    10.5987 0.0000e+00
      6.838      0.019     8.8754     79.717     45.533  32.424307     3.5100     1.4600     1.2780     5.1183 1.1617e-01   162.9692      6.705      9.726    10.5989 0.0000e+00
      6.842      0.016     8.8752     79.697     45.525  32.419550     3.5100     1.4524     1.2780     5.1183 1.1617e-01   163.0143      6.710      9.732    10.5996 0.0000e+00
      6.846      0.014     8.8740     79.665     45.519  32.416137     3.5100     1.4524     1.2780     5.1183 1.1623e-01   162.9692      6.713      9.737    10.6005 0.0000e+00
      6.849      0.011     8.8726     79.623     45.531  32.425038     0.7200     0.7733     0.4686     5.9643 1.1620e-01   370.0995      6.716      9.742    10.6016 0.0000e+00
      6.851      0.009     8.8710     79.567     45.552  32.440708     0.7200     0.7962     0.4686     5.9643 1.1617e-01   369.9793      6.719      9.745    10.6026 0.0000e+00
      6.853      0.006     8.8685     79.499     45.566  32.451482     0.7200     0.8191     0.4686     5.9643 1.1607e-01   370.0094      6.721      9.748    10.6037 0.0000e+00
      6.854      0.004     8.8648     79.421     45.578  32.460233     0.7200     0.7962     0.4686     5.9643 1.1610e-01   370.0394      6.722      9.749    10.6046 0.0000e+00
      6.855      0.002     8.8599     79.335     45.595  32.473255     0.7200     0.4262     0.4686     5.9643 1.1612e-01   369.5585      6.723      9.750    10.6055 0.0000e+00
      6.855      0.000     8.8536     79.252     45.612  32.486100     0.7200     0.4491     0.2982     6.5142 1.1612e-01   369.4683      6.723      9.751    10.6063 0.0000e+00
      6.855     -0.002     8.8459     79.180     45.616  32.490312     0.7200     0.4643     0.2982     6.5142 1.1623e-01   369.5585      6.723      9.751    10.6068 0.0000e+00
      6.855     -0.004     8.8371     79.122     45.610  32.487014     0.7200     0.4376     0.2982     6.5142 1.1612e-01   369.5284      6.722      9.750    10.6074 0.0000e+00
      6.854     -0.006     8.8274     79.087     45.603  32.483247     0.7200     0.7924     0.2982     6.5142 1.1623e-01   397.6949      6.721      9.748    10.6082 0.0000e+00
      6.852     -0.009     8.8179     79.084     45.599  32.481967     1.0800     0.7848     0.2982     6.9795 1.1623e-01   397.6949      6.719      9.746    10.6092 0.0000e+00
      6.850     -0.012     8.8096     79.110     45.593  32.478874     1.0800     0.7733     0.2982     6.9795 1.1620e-01   397.7249      6.717      9.743    10.6104 0.0000e+00
      6.846     -0.016     8.8029     79.151     45.583  32.473142     1.0800     0.7886     0.2982     6.9795 1.1607e-01   397.6348      6.714      9.738    10.6117 0.0000e+00
      6.842     -0.021     8.7987     79.198     45.573  32.467202     1.0800     1.7652     0.2982     6.9795 1.1628e-01   361.6827      6.710      9.733    10.6131 0.0000e+00
      6.837     -0.027     8.7981     79.242     45.568  32.463432     0.8100     1.7919     0.2556     5.6682 1.1610e-01   361.5324      6.705      9.725    10.6146 0.0000e+00
      6.830     -0.034     8.8006     79.270     45.565  32.460827     0.8100     1.7308     0.2556     5.6682 1.1628e-01   361.5023      6.698      9.715    10.6160 0.0000e+00
      6.821     -0.044     8.8049     79.273     45.557  32.454730     0.8100     1.7537     0.2556     5.6682 1.1628e-01   361.5324      6.689      9.702    10.6174 0.0000e+00
      6.810     -0.055     8.8100     79.243     45.552  32.451438     0.8100     0.5788     0.2556     5.6682 1.1623e-01    37.0167      6.678      9.686    10.6183 0.0000e+00
      6.795     -0.069     8.8148     79.182     45.556  32.454032     0.2700     0.6322     0.2556     3.0456 1.1605e-01    36.9866      6.664      9.665    10.6184 0.0000e+00
      6.777     -0.085     8.8180     79.106     45.557  32.455284     0.2700     0.5979     0.2556     3.0456 1.1612e-01    36.8514      6.646      9.640    10.6181 0.0000e+00
      6.755     -0.105     8.8184     79.046     45.556  32.455527     0.2700     0.6093     0.2556     3.0456 1.1617e-01    36.9415      6.624      9.608    10.6178 0.0000e+00
      6.727     -0.130     8.8152     79.025     45.564  32.462748     0.2700     0.1401     0.2556     3.0456 1.1617e-01     6.5656      6.597      9.569    10.6177 0.0000e+00
      6.694     -0.159     8.8083     79.052     45.583  32.478872     0.2700     0.1058     0.2556     3.0456 1.1610e-01     6.4304      6.564      9.521    10.6177 0.0000e+00
      6.652     -0.191     8.7998     79.124     45.603  32.496317     1.7100     0.1210     0.3408     6.1758 1.1597e-01     6.5205      6.523      9.461    10.6180 0.0000e+00
      6.600     -0.225     8.7929     79.232     45.609  32.503893     1.7100     0.1096     0.3408     6.1758 1.1605e-01     6.4153      6.472      9.387    10.6190 0.0000e+00
      6.537     -0.259     8.7903     79.360     45.594  32.495701     1.7100     0.1515     0.3408     6.1758 1.1602e-01     5.5586      6.411      9.298    10.6208 0.0000e+00
      6.464     -0.291     8.7927     79.490     45.561  32.473516     1.7100     0.1401     0.3408     6.1758 1.1633e-01     5.4835      6.339      9.194    10.6235 0.0000e+00
      6.383     -0.319     8.8000     79.603     45.525  32.447264     1.2600     0.1515     0.2556     1.3959 1.1620e-01     5.5135      6.259      9.078    10.6270 0.0000e+00
      6.296     -0.345     8.8112     79.677     45.504  32.429747     1.2600     0.1592     0.2556     1.3959 1.1612e-01     5.5736      6.174      8.954    10.6307 0.0000e+00
      6.204     -0.366     8.8248     79.714     45.506  32.428177     1.2600     0.1172     0.2556     1.3959 1.1615e-01     5.2580      6.084      8.824    10.6337 0.0000e+00
      6.108     -0.385     8.8391     79.724     45.525  32.438174     1.2600     0.1286     0.2556     1.3959 1.1617e-01     5.3632      5.990      8.688    10.6351 0.0000e+00
      6.007     -0.402     8.8518     79.714     45.541  32.446561     1.9800     0.1363     0.7668     1.4805 1.1612e-01     5.1829      5.891      8.544    10.6342 0.0000e+00
      5.902     -0.418     8.8606     79.690     45.552  32.451615     1.9800     0.1477     0.7668     1.4805 1.1617e-01     5.3181      5.788      8.394    10.6315 0.0000e+00
      5.792     -0.432     8.8655     79.659     45.564  32.458643     1.9800     0.1248     0.7668     1.4805 1.1610e-01     5.2730      5.680      8.239    10.6278 0.0000e+00
      5.680     -0.445     8.8673     79.629     45.576  32.465559     1.9800     0.1515     0.7668     1.4805 1.1617e-01     5.3031      5.570      8.078    10.6241 0.0000e+00
      5.564     -0.458     8.8669     79.609     45.579  32.466287     1.9800     0.1248     0.7668     1.4805 1.1605e-01     5.3031      5.457      7.914    10.6210 0.0000e+00
      5.446     -0.470     8.8648     79.596     45.573  32.461021     3.4200     0.1210     0.5964     0.4230 1.1607e-01     5.2279      5.341      7.747    10.6183 0.0000e+00
      5.326     -0.483     8.8618     79.584     45.572  32.460239     3.4200     0.1019     0.5964     0.4230 1.1693e-01     4.9724      5.223      7.575    10.6160 0.0000e+00
      5.202     -0.496     8.8588     79.569     45.583  32.467691     3.4200     0.1286     0.5964     0.4230 1.1612e-01     5.0626      5.101      7.399    10.6143 0.0000e+00
      5.074     -0.508     8.8568     79.546     45.584  32.469524     3.4200     0.1439     0.5964     0.4230 1.1623e-01     5.0175      4.975      7.216    10.6130 0.0000e+00
      4.942     -0.520     8.8556     79.517     45.566  32.458305     3.7800     0.1286     0.2556     0.2115 1.4899e-01     5.0326      4.846      7.029    10.6119 0.0000e+00
      4.807     -0.530     8.8544     79.484     45.548  32.446884     3.7800     0.1363     0.2556     0.2115 1.9892e-01     5.3181      4.713      6.837    10.6113 0.0000e+00
      4.669     -0.538     8.8526     79.447     45.539  32.444099     3.7800     0.1363     0.2556     0.2115 2.4448e-01     5.3782      4.579      6.641    10.6114 0.0000e+00
      4.530     -0.544     8.8499     79.403     45.540  32.449207     3.7800     0.1439     0.2556     0.2115 2.4769e-01     5.2279      4.442      6.443    10.6123 0.0000e+00
      4.389     -0.547     8.8465     79.352     45.558  32.467529     3.8700     0.1134     0.1704     0.2115 3.2379e-01     5.3332      4.304      6.243    10.6137 0.0000e+00
      4.248     -0.548     8.8424     79.289     45.591  32.499993     3.8700     0.1592     0.1704     0.2115 3.7017e-01     5.0175      4.166      6.042    10.6160 0.0000e+00
      4.108     -0.547     8.8375     79.204     45.635  32.543374     3.8700     0.1286     0.1704     0.2115 4.6686e-01     5.0626      4.029      5.843    10.6195 0.0000e+00
      3.969     -0.545     8.8317     79.086     45.691  32.601318     3.8700     0.1477     0.1704     0.2115 5.1954e-01     5.1077      3.892      5.645    10.6243 0.0000e+00
      3.830     -0.543     8.8247     78.922     45.759  32.677397     3.7800     0.1401     0.1278     0.0846 6.4089e-01     4.9875      3.756      5.447    10.6308 0.0000e+00
      3.692     -0.540     8.8159     78.687     45.827  32.766154     3.7800     0.1744     0.1278     0.0846 6.7417e-01     5.3031      3.620      5.251    10.6400 0.0000e+00
      3.555     -0.537     8.8039     78.341     45.873  32.855615     3.7800     0.1363     0.1278     0.0846 8.1129e-01     5.2730      3.486      5.056    10.6534 0.0000e+00
      3.418     -0.535     8.7870     77.818     45.913  32.955775     3.7800     0.1363     0.1278     0.0846 9.0775e-01     5.3181      3.352      4.862    10.6731 0.0000e+00
      3.282     -0.533     8.7630     77.009     45.964  33.085423     3.7800     0.1363     0.1278     0.0846 1.0380e+00     5.2730      3.219      4.669    10.7031 0.0000e+00
      3.147     -0.531     8.7285     75.772     45.987  33.225667     3.8700     0.2507     0.1278     0.0846 1.1426e+00     6.2801      3.086      4.476    10.7479 0.0000e+00
      3.012     -0.529     8.6787     73.973     45.915  33.330732     3.8700     0.2660     0.1278     0.0846 1.2760e+00     6.2500      2.953      4.284    10.8093 0.0000e+00
      2.877     -0.528     8.6064     71.532     45.730  33.375173     3.8700     0.2469     0.1278     0.0846 1.4562e+00     6.1899      2.821      4.092    10.8882 0.0000e+00
      2.743     -0.527     8.4990     68.403     45.445  33.362926     3.8700     0.2507     0.1278     0.0846 1.5526e+00     6.3251      2.690      3.901    10.9904 0.0000e+00
      2.609     -0.525     8.3390     64.523     45.050  33.302611     4.0500     0.3919     0.1704     0.1692 1.6973e+00     3.6498      2.558      3.710    11.1269 0.0000e+00
      2.475     -0.524     8.1122     59.851     44.569  33.227660     4.0500     0.3881     0.1704     0.1692 1.8454e+00     3.6348      2.427      3.520    11.3011 0.0000e+00
      2.342     -0.523     7.8132     54.456     44.086  33.177508     4.0500     0.3804     0.1704     0.1692 2.0060e+00     3.5746      2.296      3.330    11.5008 0.0000e+00
      2.209     -0.522     7.4397     48.522     43.624  33.138795     4.0500     0.3919     0.1704     0.1692 2.1735e+00     3.5897      2.166      3.141    11.7202 0.0000e+00
      2.075     -0.521     6.9835     42.285     43.152  33.099226     4.0500     0.3575     0.0852     0.2538 2.4261e+00     1.6808      2.035      2.952    11.9805 0.0000e+00
      1.943     -0.519     6.4389     35.976     42.682  33.089844     4.0500     0.3652     0.0852     0.2538 2.7086e+00     1.8311      1.905      2.763    12.2994 0.0000e+00
      1.810     -0.517     5.8194     29.807     42.266  33.137865     4.0500     0.3919     0.0852     0.2538 2.9823e+00     1.8161      1.775      2.574    12.6528 0.0000e+00
      1.679     -0.515     5.1515     24.035     41.924  33.244228     4.0500     0.3728     0.0852     0.2538 3.3319e+00     1.9063      1.646      2.387    13.0085 0.0000e+00
      1.547     -0.511     4.4602     18.949     41.618  33.383839     4.0500     0.4872     0.0426     0.2538 3.7909e+00     1.8011      1.517      2.201    13.3796 0.0000e+00
      1.417     -0.506     3.7678     14.769     41.308  33.508790     4.0500     0.4720     0.0426     0.2538 4.3984e+00     1.8462      1.389      2.015    13.7910 0.0000e+00
      1.288     -0.499     3.0982     11.623     41.001  33.596969     4.0500     0.4949     0.0426     0.2538 5.1032e+00     1.8913      1.263      1.832    14.2281 0.0000e+00
      1.161     -0.489     2.4791      9.620     40.739  33.681802     4.0500     0.5139     0.0426     0.2538 6.0893e+00     1.7710      1.138      1.651    14.6729 0.0000e+00
      1.036     -0.476     1.9385      8.881     40.513  33.785921     4.0500     1.0823     0.0426     0.2538 7.8914e+00     3.9804      1.016      1.474    15.1297 0.0000e+00
      0.915     -0.459     1.4971      9.436     40.276  33.889568     4.4100     1.0747     0.0852     0.5076 1.0721e+01     3.9053      0.898      1.302    15.5804 0.0000e+00
      0.799     -0.437     1.1659     11.176     40.045  33.994651     4.4100     1.0938     0.0852     0.5076 1.4759e+01     3.9203      0.784      1.137    15.9892 0.0000e+00
      0.689     -0.411     0.9529     13.937     39.883  34.141089     4.4100     1.1014     0.0852     0.5076 2.1937e+01     3.9354      0.676      0.980    16.3539 0.0000e+00
      0.587     -0.380     0.8665     17.593     39.820  34.363978     4.4100     2.0665     0.0852     0.5076 3.2353e+01     9.2260      0.575      0.834    16.7104 0.0000e+00
      0.493     -0.347     0.9068     22.072     39.841  34.665334     4.6800     2.0894     0.1278     1.9881 4.1828e+01     9.3312      0.483      0.701    17.0824 0.0000e+00
      0.410     -0.314     1.0606     27.334     39.914  35.016606     4.6800     2.1009     0.1278     1.9881 6.5401e+01     9.3763      0.402      0.583    17.4536 0.0000e+00
      0.339     -0.284     1.3102     33.368     40.007  35.376808     4.6800     2.0589     0.1278     1.9881 6.2362e+01     9.3161      0.332      0.482    17.8055 0.0000e+00
      0.277     -0.260     1.6415     40.200     40.064  35.681587     4.6800     2.2229     0.1278     1.9881 6.5686e+01     9.8121      0.272      0.394    18.1481 0.0000e+00
      0.223     -0.245     2.0456     47.896     40.065  35.901320     5.8500     2.2039     0.2556    10.7865 6.1567e+01     9.8272      0.219      0.317    18.4994 0.0000e+00
      0.172     -0.242     2.5173     56.529     40.131  36.142143     5.8500     2.2001     0.2556    10.7865 6.2920e+01     9.7670      0.169      0.245    18.8570 0.0000e+00
      0.122     -0.251     3.0552     66.037     40.399  36.551461     5.8500     2.2001     0.2556    10.7865 6.8351e+01     9.7821      0.120      0.174    19.2038 0.0000e+00
      0.069     -0.269     3.6619     76.104     40.887  37.182974     5.8500     2.2535     0.2556    10.7865 6.3538e+01    11.4204      0.068      0.099    19.5211 0.0000e+00
      0.011     -0.294     4.3443     86.152     41.509  37.987220     6.1200     2.2497     0.3408    13.7898 7.7852e+01    11.5105      0.011      0.016    19.7917 0.0000e+00
     -0.055     -0.318     5.1088     95.383     42.064  38.782533     6.1200     2.2649     0.3408    13.7898 1.7552e+02    11.5256     -0.054     -0.079    20.0146 0.0000e+00
     -0.129     -0.339     5.9472    102.891     42.319  39.305613     6.1200     2.2611     0.3408    13.7898 5.2807e+02    11.3753     -0.126     -0.183    20.2176 0.0000e+00
     -0.205     -0.353     6.8256    107.849     42.167  39.379024     6.1200     2.3870     0.3408    13.7898 5.3710e+02    19.3112     -0.201     -0.292    20.4447 0.0000e+00
     -0.278     -0.357     7.6859    109.597     41.989  39.291741     6.1200     2.3908     0.3408    13.7898 4.7195e+02    19.2661     -0.272     -0.394    20.7308 0.0000e+00
     -0.339 -9.990e-29     8.4559 -9.990e-29 -9.990e-29 -9.990e-29     6.2100 -9.990e-29     0.4686    14.9742 4.2883e+02 -9.990e-29     -0.332     -0.482    21.0757 0.0000e+00
     -0.386 -9.990e-29     9.0647 -9.990e-29 -9.990e-29 -9.990e-29     6.2100 -9.990e-29     0.4686    14.9742 2.9382e+02 -9.990e-29     -0.378     -0.549    21.4245 0.0000e+00
     -0.415 -9.990e-29     9.4573 -9.990e-29 -9.990e-29 -9.990e-29     6.2100 -9.990e-29     0.4686    14.9742 1.7332e+02 -9.990e-29     -0.407     -0.590    21.6880 0.0000e+00
     -0.425 -9.990e-29     9.5940 -9.990e-29 -9.990e-29 -9.990e-29     6.2100 -9.990e-29     0.4686    14.9742 1.3420e+02 -9.990e-29     -0.416     -0.604    21.7867 0.0000e+00
