* Sea-Bird SBE19plus  Data File:
* FileName = C:\R\Reservoirs\Data\DataNotYetUploadedToEDI\Raw_CTD\RawDownloads\062623_fcr50_S8188_0017.hex
* Software version 2.8.0.119
* Temperature SN = 8188
* Conductivity SN = 8188
* System UpLoad Time = Jul 03 2023 16:34:45
* <ApplicationData>
* <Seaterm232>
* <SoftwareVersion>2.8.0.119</SoftwareVersion>
* <BuildDate>07-Nov-2018</BuildDate>
* </Seaterm232>
* </ApplicationData>
* <InstrumentState>
* <HardwareData DeviceType='SBE19plus' SerialNumber='01908188'>
*
*    <Manufacturer>Sea-Bird Electronics, Inc.</Manufacturer>
*
*    <FirmwareVersion>3.1.8</FirmwareVersion>
*
*    <FirmwareDate>Mar  9 2016 16:22:29</FirmwareDate>
*
*    <CommandSetVersion>1.4</CommandSetVersion>
*
*    <PCBAssembly PCBSerialNum='260079' AssemblyNum='41054K'/>
*
*    <PCBAssembly PCBSerialNum='260083' AssemblyNum='41059E'/>
*
*    <PCBAssembly PCBSerialNum='260085' AssemblyNum='41606B'/>
*
*    <PCBAssembly PCBSerialNum='260081' AssemblyNum='41967C'/>
*
*    <MfgDate>30 Mar 2022</MfgDate>
*
*    <InternalSensors>
*
*       <Sensor id='Main Temperature'>
*
*          <type>temperature0</type>
*
*          <SerialNumber>01908188</SerialNumber>
*
*       </Sensor>
*
*       <Sensor id='Main Conductivity'>
*
*          <type>conductivity-0</type>
*
*          <SerialNumber>01908188</SerialNumber>
*
*       </Sensor>
*
*       <Sensor id='Main Pressure'>
*
*          <type>strain-0</type>
*
*          <SerialNumber>12220741</SerialNumber>
*
*       </Sensor>
*
*    </InternalSensors>
*
*    <ExternalSensors>
*
*       <Sensor id='volt 0'>
*
*          <type>CHL</type>
*
*          <SerialNumber>FLNTURT-7096</SerialNumber>
*
*       </Sensor>
*
*       <Sensor id='volt 1'>
*
*          <type>NTU</type>
*
*          <SerialNumber>FLNTURT-7096</SerialNumber>
*
*       </Sensor>
*
*       <Sensor id='volt 2'>
*
*          <type>OXY</type>
*
*          <SerialNumber>43-4269</SerialNumber>
*
*       </Sensor>
*
*       <Sensor id='volt 3'>
*
*          <type>not assigned</type>
*
*          <SerialNumber>not assigned</SerialNumber>
*
*       </Sensor>
*
*       <Sensor id='volt 4'>
*
*          <type>PAR</type>
*
*          <SerialNumber>PARLOGICSW-2209</SerialNumber>
*
*       </Sensor>
*
*       <Sensor id='volt 5'>
*
*          <type>not assigned</type>
*
*          <SerialNumber>not assigned</SerialNumber>
*
*       </Sensor>
*
*       <Sensor id='serial'>
*
*          <type>WETLABS</type>
*
*          <SerialNumber>FL3-7350</SerialNumber>
*
*       </Sensor>
*
*    </ExternalSensors>
*
* </HardwareData>
* <StatusData DeviceType='SBE19plus' SerialNumber='01908188'>
*
*    <DateTime>2023-07-03T16:29:20</DateTime>
*
*    <LoggingState>not logging</LoggingState>
*
*    <EventSummary numEvents='0'/>
*
*    <Power>
*
*       <vMain>12.2</vMain>
*
*       <vLith>8.8</vLith>
*
*       <iMain>61.8</iMain>
*
*       <iPump>48.2</iPump>
*
*       <iExt01>22.4</iExt01>
*
*       <iExt2345>20.3</iExt2345>
*
*       <iSerial>45.4</iSerial>
*
*    </Power>
*
*    <MemorySummary>
*
*       <Bytes>665325</Bytes>
*
*       <Samples>26613</Samples>
*
*       <SamplesFree>2605312</SamplesFree>
*
*       <SampleLength>25</SampleLength>
*
*       <Profiles>25</Profiles>
*
*    </MemorySummary>
*
* </StatusData>
* <ConfigurationData DeviceType='SBE19plus' SerialNumber='01908188'>
*
*    <ProfileMode>
*
*       <ScansToAverage>1</ScansToAverage>
*
*       <MinimumCondFreq>5</MinimumCondFreq>
*
*       <PumpDelay>40</PumpDelay>
*
*       <AutoRun>no</AutoRun>
*
*       <IgnoreSwitch>no</IgnoreSwitch>
*
*    </ProfileMode>
*
*    <Battery>
*
*       <Type>alkaline</Type>
*
*       <CutOff>7.5</CutOff>
*
*    </Battery>
*
*    <DataChannels>
*
*       <ExtVolt0>yes</ExtVolt0>
*
*       <ExtVolt1>yes</ExtVolt1>
*
*       <ExtVolt2>yes</ExtVolt2>
*
*       <ExtVolt3>no</ExtVolt3>
*
*       <ExtVolt4>yes</ExtVolt4>
*
*       <ExtVolt5>no</ExtVolt5>
*
*       <SBE38>no</SBE38>
*
*       <WETLABS>yes</WETLABS>
*
*       <OPTODE>no</OPTODE>
*
*       <SBE63>no</SBE63>
*
*       <SeaFET>no</SeaFET>
*
*       <GTD>no</GTD>
*
*    </DataChannels>
*
*    <EchoCharacters>yes</EchoCharacters>
*
*    <OutputExecutedTag>yes</OutputExecutedTag>
*
*    <OutputFormat>raw HEX</OutputFormat>
*
* </ConfigurationData>
* <CalibrationCoefficients DeviceType='SBE19plus' SerialNumber='01908188'>
*
*    <Calibration format='TEMP1' id='Main Temperature'>
*
*       <SerialNum>01908188</SerialNum>
*
*       <CalDate>21-Aug-22</CalDate>
*
*       <TA0>1.265284e-03</TA0>
*
*       <TA1>2.691806e-04</TA1>
*
*       <TA2>-5.655711e-07</TA2>
*
*       <TA3>1.602369e-07</TA3>
*
*       <TOFFSET>0.000000e+00</TOFFSET>
*
*    </Calibration>
*
*    <Calibration format='WBCOND0' id='Main Conductivity'>
*
*       <SerialNum>01908188</SerialNum>
*
*       <CalDate>21-Aug-22</CalDate>
*
*       <G>-1.009562e+00</G>
*
*       <H>1.439229e-01</H>
*
*       <I>-4.343583e-04</I>
*
*       <J>5.328694e-05</J>
*
*       <CPCOR>-9.570000e-08</CPCOR>
*
*       <CTCOR>3.250000e-06</CTCOR>
*
*       <CSLOPE>1.000000e+00</CSLOPE>
*
*    </Calibration>
*
*    <Calibration format='STRAIN0' id='Main Pressure'>
*
*       <SerialNum>12220741</SerialNum>
*
*       <CalDate>11-Aug-22</CalDate>
*
*       <PA0>1.627942e-01</PA0>
*
*       <PA1>4.835849e-04</PA1>
*
*       <PA2>-3.975488e-12</PA2>
*
*       <PTCA0>5.244803e+05</PTCA0>
*
*       <PTCA1>2.817194e+01</PTCA1>
*
*       <PTCA2>-5.842684e-01</PTCA2>
*
*       <PTCB0>2.522087e+01</PTCB0>
*
*       <PTCB1>5.750000e-04</PTCB1>
*
*       <PTCB2>0.000000e+00</PTCB2>
*
*       <PTEMPA0>-5.709556e+01</PTEMPA0>
*
*       <PTEMPA1>5.248567e+01</PTEMPA1>
*
*       <PTEMPA2>-2.281498e-01</PTEMPA2>
*
*       <POFFSET>-4.700000e-02</POFFSET>
*
*       <PRANGE>1.600000e+02</PRANGE>
*
*    </Calibration>
*
*    <Calibration format='VOLT0' id='Volt 0'>
*
*       <OFFSET>-4.657200e-02</OFFSET>
*
*       <SLOPE>1.248989e+00</SLOPE>
*
*    </Calibration>
*
*    <Calibration format='VOLT0' id='Volt 1'>
*
*       <OFFSET>-4.600800e-02</OFFSET>
*
*       <SLOPE>1.249849e+00</SLOPE>
*
*    </Calibration>
*
*    <Calibration format='VOLT0' id='Volt 2'>
*
*       <OFFSET>-4.668000e-02</OFFSET>
*
*       <SLOPE>1.250379e+00</SLOPE>
*
*    </Calibration>
*
*    <Calibration format='VOLT0' id='Volt 3'>
*
*       <OFFSET>-4.643200e-02</OFFSET>
*
*       <SLOPE>1.251002e+00</SLOPE>
*
*    </Calibration>
*
*    <Calibration format='VOLT0' id='Volt 4'>
*
*       <OFFSET>-4.606100e-02</OFFSET>
*
*       <SLOPE>1.249962e+00</SLOPE>
*
*    </Calibration>
*
*    <Calibration format='VOLT0' id='Volt 5'>
*
*       <OFFSET>-4.642700e-02</OFFSET>
*
*       <SLOPE>1.248530e+00</SLOPE>
*
*    </Calibration>
*
*    <Calibration format='FREQ0' id='external frequency channel'>
*
*       <EXTFREQSF>1.000018e+00</EXTFREQSF>
*
*    </Calibration>
*
* </CalibrationCoefficients>
* <EventCounters DeviceType='SBE19plus' SerialNumber='01908188'>
*
*    <EventSummary numEvents='0'/>
*
* </EventCounters></InstrumentState>
* <Headers>
*
* cast  17 27 Jun 2023 15:42:37 samples 16513 to 17182, avg = 1, stop = mag switch
*
# nquan = 16
# nvalues = 670                         
# units = specified
# name 0 = depFM: Depth [fresh water, m]
# name 1 = dz/dtM: Descent Rate [m/s]
# name 2 = sbeox0Mg/L: Oxygen, SBE 43 [mg/l]
# name 3 = sbeox0PS: Oxygen, SBE 43 [% saturation]
# name 4 = specc: Specific Conductance [uS/cm]
# name 5 = c0uS/cm: Conductivity [uS/cm]
# name 6 = wetCDOM: Fluorescence, WET Labs CDOM [mg/m^3]
# name 7 = flECO-AFL: Fluorescence, WET Labs ECO-AFL/FL [mg/m^3]
# name 8 = flECO-AFL1: Fluorescence, WET Labs ECO-AFL/FL, 2 [mg/m^3]
# name 9 = flECO-AFL2: Fluorescence, WET Labs ECO-AFL/FL, 3 [mg/m^3]
# name 10 = par/sat/log: PAR/Logarithmic, Satlantic
# name 11 = turbWETntu0: Turbidity, WET Labs ECO [NTU]
# name 12 = prdM: Pressure, Strain Gauge [db]
# name 13 = prdE: Pressure, Strain Gauge [psi]
# name 14 = tv290C: Temperature [ITS-90, deg C]
# name 15 = flag:  0.000e+00
# span 0 =     -0.725,      7.072       
# span 1 =     -0.268,      0.163       
# span 2 =    -0.1167,    17.5054       
# span 3 =     -1.131,    200.454       
# span 4 =      0.575,     49.373       
# span 5 =   0.501428,  49.368268       
# span 6 =    -4.5000,     7.2900       
# span 7 =    -0.1918,     3.3750       
# span 8 =    -2.1300,     0.6816       
# span 9 =    -2.0304,    20.6001       
# span 10 = 1.1590e-01, 5.8625e+02      
# span 11 =    -0.5436,    62.1621      
# span 12 =     -0.711,      6.935      
# span 13 =     -1.032,     10.058      
# span 14 =    10.5730,    25.0886      
# span 15 = 0.0000e+00, 0.0000e+00      
# interval = seconds: 0.25
# start_time = Jun 27 2023 15:42:37 [Instrument's time stamp, header]
# bad_flag = -9.990e-29
# <Sensors count="10" >
#   <sensor Channel="1" >
#     <!-- Count, Temperature -->
#     <TemperatureSensor SensorID="58" >
#       <SerialNumber>8188</SerialNumber>
#       <CalibrationDate>21-Aug-22</CalibrationDate>
#       <A0>1.26528397e-003</A0>
#       <A1>2.69180636e-004</A1>
#       <A2>-5.65571102e-007</A2>
#       <A3>1.60236871e-007</A3>
#       <Slope>1.00000000</Slope>
#       <Offset>0.0000</Offset>
#     </TemperatureSensor>
#   </sensor>
#   <sensor Channel="2" >
#     <!-- Frequency 0, Conductivity -->
#     <ConductivitySensor SensorID="3" >
#       <SerialNumber>8188</SerialNumber>
#       <CalibrationDate>21-Aug-22</CalibrationDate>
#       <UseG_J>1</UseG_J>
#       <!-- Cell const and series R are applicable only for wide range sensors. -->
#       <SeriesR>0.0000</SeriesR>
#       <CellConst>2000.0000</CellConst>
#       <ConductivityType>0</ConductivityType>
#       <Coefficients equation="0" >
#         <A>0.00000000e+000</A>
#         <B>0.00000000e+000</B>
#         <C>0.00000000e+000</C>
#         <D>0.00000000e+000</D>
#         <M>0.0</M>
#         <CPcor>-9.57000000e-008</CPcor>
#       </Coefficients>
#       <Coefficients equation="1" >
#         <G>-1.00956200e+000</G>
#         <H>1.43922862e-001</H>
#         <I>-4.34358337e-004</I>
#         <J>5.32869425e-005</J>
#         <CPcor>-9.57000000e-008</CPcor>
#         <CTcor>3.2500e-006</CTcor>
#         <!-- WBOTC not applicable unless ConductivityType = 1. -->
#         <WBOTC>0.00000000e+000</WBOTC>
#       </Coefficients>
#       <Slope>1.00000000</Slope>
#       <Offset>0.00000</Offset>
#     </ConductivitySensor>
#   </sensor>
#   <sensor Channel="3" >
#     <!-- Count, Pressure, Strain Gauge -->
#     <PressureSensor SensorID="46" >
#       <SerialNumber>8188</SerialNumber>
#       <CalibrationDate>11-Aug-22</CalibrationDate>
#       <PA0>1.62794185e-001</PA0>
#       <PA1>4.83584930e-004</PA1>
#       <PA2>-3.97548787e-012</PA2>
#       <PTEMPA0>-5.70955636e+001</PTEMPA0>
#       <PTEMPA1>5.24856726e+001</PTEMPA1>
#       <PTEMPA2>-2.28149804e-001</PTEMPA2>
#       <PTCA0>5.24480263e+005</PTCA0>
#       <PTCA1>2.81719406e+001</PTCA1>
#       <PTCA2>-5.84268386e-001</PTCA2>
#       <PTCB0>2.52208750e+001</PTCB0>
#       <PTCB1>5.75000000e-004</PTCB1>
#       <PTCB2>0.00000000e+000</PTCB2>
#       <Offset>0.000000</Offset>
#     </PressureSensor>
#   </sensor>
#   <sensor Channel="4" >
#     <!-- A/D voltage 0, Fluorometer, WET Labs ECO-AFL/FL -->
#     <FluoroWetlabECO_AFL_FL_Sensor SensorID="20" >
#       <SerialNumber>FLNTURT-7096</SerialNumber>
#       <CalibrationDate>01-Sep-2022</CalibrationDate>
#       <ScaleFactor>5.00000000e+001</ScaleFactor>
#       <!-- Dark output -->
#       <Vblank>0.0680</Vblank>
#     </FluoroWetlabECO_AFL_FL_Sensor>
#   </sensor>
#   <sensor Channel="5" >
#     <!-- A/D voltage 1, Turbidity Meter, WET Labs, ECO-NTU -->
#     <TurbidityMeter SensorID="67" >
#       <SerialNumber>FLNTURT-7096</SerialNumber>
#       <CalibrationDate>01-Sep-2022</CalibrationDate>
#       <ScaleFactor>197.000000</ScaleFactor>
#       <!-- Dark output -->
#       <DarkVoltage>0.067000</DarkVoltage>
#     </TurbidityMeter>
#   </sensor>
#   <sensor Channel="6" >
#     <!-- A/D voltage 2, Oxygen, SBE 43 -->
#     <OxygenSensor SensorID="38" >
#       <SerialNumber>4269</SerialNumber>
#       <CalibrationDate>16-Aug-22</CalibrationDate>
#       <Use2007Equation>1</Use2007Equation>
#       <CalibrationCoefficients equation="0" >
#         <!-- Coefficients for Owens-Millard equation. -->
#         <Boc>0.0000</Boc>
#         <Soc>0.0000e+000</Soc>
#         <offset>0.0000</offset>
#         <Pcor>0.00e+000</Pcor>
#         <Tcor>0.0000</Tcor>
#         <Tau>0.0</Tau>
#       </CalibrationCoefficients>
#       <CalibrationCoefficients equation="1" >
#         <!-- Coefficients for Sea-Bird equation - SBE calibration in 2007 and later. -->
#         <Soc>4.2506e-001</Soc>
#         <offset>-0.4922</offset>
#         <A>-4.5893e-003</A>
#         <B> 1.8653e-004</B>
#         <C>-2.0781e-006</C>
#         <D0> 2.5826e+000</D0>
#         <D1> 1.92634e-004</D1>
#         <D2>-4.64803e-002</D2>
#         <E> 3.6000e-002</E>
#         <Tau20> 2.3100</Tau20>
#         <H1>-3.3000e-002</H1>
#         <H2> 5.0000e+003</H2>
#         <H3> 1.4500e+003</H3>
#       </CalibrationCoefficients>
#     </OxygenSensor>
#   </sensor>
#   <sensor Channel="7" >
#     <!-- A/D voltage 3, PAR/Logarithmic, Satlantic -->
#     <PARLog_SatlanticSensor SensorID="76" >
#       <SerialNumber>2209</SerialNumber>
#       <CalibrationDate>14-Jan-2022</CalibrationDate>
#       <a0>9.8861e-001</a0>
#       <a1>8.0845e-001</a1>
#       <Im>1.3589e+000</Im>
#       <Multiplier>1.0000e+000</Multiplier>
#     </PARLog_SatlanticSensor>
#   </sensor>
#   <sensor Channel="8" >
#     <!-- Serial RS-232, Fluorometer, WET Labs ECO-AFL/FL, 2 -->
#     <FluoroWetlabECO_AFL_FL_Sensor SensorID="20" >
#       <SerialNumber>FL3-7350</SerialNumber>
#       <CalibrationDate>10-Mar-2022</CalibrationDate>
#       <ScaleFactor>4.26000000e-002</ScaleFactor>
#       <!-- Dark output -->
#       <Vblank>50.0000</Vblank>
#     </FluoroWetlabECO_AFL_FL_Sensor>
#   </sensor>
#   <sensor Channel="9" >
#     <!-- Serial RS-232, Fluorometer, WET Labs ECO-AFL/FL, 3 -->
#     <FluoroWetlabECO_AFL_FL_Sensor SensorID="20" >
#       <SerialNumber>FL3-7350</SerialNumber>
#       <CalibrationDate>10-Mar-2022</CalibrationDate>
#       <ScaleFactor>4.23000000e-002</ScaleFactor>
#       <!-- Dark output -->
#       <Vblank>48.0000</Vblank>
#     </FluoroWetlabECO_AFL_FL_Sensor>
#   </sensor>
#   <sensor Channel="10" >
#     <!-- Serial RS-232, Fluorometer, WET Labs ECO CDOM -->
#     <FluoroWetlabCDOM_Sensor SensorID="19" >
#       <SerialNumber>FL3-7350</SerialNumber>
#       <CalibrationDate>10-Mar-2022</CalibrationDate>
#       <ScaleFactor>0.090</ScaleFactor>
#       <!-- Dark output -->
#       <Vblank>50.000</Vblank>
#     </FluoroWetlabCDOM_Sensor>
#   </sensor>
# </Sensors>
# datcnv_date = Jul 03 2023 16:59:43, 7.26.7.129 [datcnv_vars = 15]
# datcnv_in = C:\R\Reservoirs\Data\DataNotYetUploadedToEDI\Raw_CTD\RawDownloads\062723_fcrXX_S8188017.hex C:\R\Reservoirs\Data\DataNotYetUploadedToEDI\Raw_CTD\RawDownloads\SBE19plusV2_8188_start20221003.xmlcon
# datcnv_skipover = 0
# datcnv_ox_hysteresis_correction = yes
# datcnv_ox_tau_correction = yes
# filter_date = Jul 03 2023 17:00:15, 7.26.7.129
# filter_in = C:\R\Reservoirs\Data\DataNotYetUploadedToEDI\Raw_CTD\RawDownloads\062723_fcrXX_S8188017.cnv
# filter_low_pass_tc_A = 0.500
# filter_low_pass_tc_B = 1.000
# filter_low_pass_A_vars = sbeox0Mg/L sbeox0PS specc c0uS/cm tv290C
# filter_low_pass_B_vars = depFM dz/dtM prdM prdE
# alignctd_date = Jul 03 2023 17:00:42, 7.26.7.129
# alignctd_in = C:\R\Reservoirs\Data\DataNotYetUploadedToEDI\Raw_CTD\RawDownloads\062723_fcrXX_S8188017.cnv
# alignctd_adv = dz/dtM 1.000, sbeox0PS 1.000, specc 1.000, c0uS/cm 1.000, flECO-AFL 1.000, turbWETntu0 1.000                                                                                                                        
# file_type = ascii
*END*
     -0.724 -3.967e-07     8.6432     92.281      0.763   0.663595    -4.5000    -0.0926    -2.1300    -2.0304 5.8612e+02     6.2801     -0.710     -1.030    18.5176 0.0000e+00
     -0.724 -5.101e-07     8.6434     92.282      0.760   0.660949    -4.5000    -0.0926    -2.1300    -2.0304 5.8625e+02     6.2801     -0.710     -1.030    18.5176 0.0000e+00
     -0.724 -6.558e-07     8.6435     92.283      0.758   0.659607    -4.5000    -0.1155    -2.1300    -2.0304 5.7979e+02     6.2650     -0.710     -1.030    18.5176 0.0000e+00
     -0.724 -8.432e-07     8.6437     92.283      0.758   0.659209     0.3600    -0.1651     0.0000     0.0423 5.7891e+02     3.8151     -0.710     -1.030    18.5176 0.0000e+00
     -0.724     -0.000     8.6440     92.280      0.753   0.655696     0.3600    -0.1842     0.0000     0.0423 5.7278e+02     3.9354     -0.710     -1.030    18.5175 0.0000e+00
     -0.724     -0.000     8.6441     92.278      0.745   0.648132     0.3600    -0.1536     0.0000     0.0423 5.8181e+02     3.8602     -0.710     -1.030    18.5174 0.0000e+00
     -0.724     -0.000     8.6442     92.278      0.738   0.642406     0.3600    -0.1651     0.0000     0.0423 5.7828e+02     3.8903     -0.710     -1.030    18.5174 0.0000e+00
     -0.724     -0.000     8.6442     92.280      0.737   0.640948     0.3600     0.0066     0.0000     0.0423 5.7740e+02     3.6498     -0.710     -1.030    18.5173 0.0000e+00
     -0.724     -0.000     8.6439     92.283      0.739   0.643367     0.0000     0.0218     0.0000     0.0000 5.7690e+02     3.6949     -0.710     -1.030    18.5173 0.0000e+00
     -0.724     -0.000     8.6437     92.285      0.743   0.646355     0.0000     0.0371     0.0000     0.0000 5.7992e+02     3.6348     -0.710     -1.030    18.5172 0.0000e+00
     -0.724     -0.000     8.6437     92.287      0.743   0.646755     0.0000     0.0066     0.0000     0.0000 5.8080e+02     3.6197     -0.710     -1.030    18.5172 0.0000e+00
     -0.725     -0.000     8.6439     92.287      0.741   0.644672     0.0000    -0.1155     0.0000     0.0000 5.7929e+02     2.7480     -0.711     -1.030    18.5171 0.0000e+00
     -0.725      0.000     8.6442     92.281      0.735   0.639552     0.2700    -0.1193     0.0000    -0.0423 5.6548e+02     2.8231     -0.711     -1.031    18.5171 0.0000e+00
     -0.725      0.000     8.6444     92.270      0.729   0.633983     0.2700    -0.1269     0.0000    -0.0423 5.5236e+02     2.8532     -0.711     -1.031    18.5170 0.0000e+00
     -0.725      0.000     8.6446     92.261      0.725   0.630435     0.2700    -0.1269     0.0000    -0.0423 4.6838e+02     2.8081     -0.711     -1.031    18.5169 0.0000e+00
     -0.725      0.000     8.6445     92.256      0.722   0.627961     0.2700    -0.1231     0.0000    -0.0423 2.6385e+02     4.0857     -0.711     -1.031    18.5168 0.0000e+00
     -0.725      0.000     8.6440     92.252      0.719   0.625901     0.0000    -0.0926     0.0000     0.0846 2.3938e+02     4.1157     -0.711     -1.031    18.5167 0.0000e+00
     -0.725      0.000     8.6430     92.250      0.717   0.623707     0.0000    -0.1002     0.0000     0.0846 1.8212e+02     4.0857     -0.711     -1.031    18.5166 0.0000e+00
     -0.725      0.000     8.6422     92.249      0.714   0.620793     0.0000    -0.1346     0.0000     0.0846 3.6355e+02     4.1458     -0.711     -1.031    18.5165 0.0000e+00
     -0.725      0.000     8.6418     92.254      0.709   0.616383     0.0000     0.3003     0.0000     0.0846 3.2001e+02    12.4274     -0.711     -1.030    18.5165 0.0000e+00
     -0.725      0.000     8.6415     92.264      0.701   0.609300     0.1800     0.3346     0.0426     0.0846 3.0223e+02    12.3823     -0.711     -1.030    18.5164 0.0000e+00
     -0.725      0.000     8.6412     92.277      0.692   0.601609     0.1800     0.3079     0.0426     0.0846 3.0388e+02    12.3522     -0.711     -1.030    18.5164 0.0000e+00
     -0.725      0.000     8.6412     92.289      0.689   0.599169     0.1800     0.3346     0.0426     0.0846 2.9153e+02    12.4424     -0.711     -1.030    18.5164 0.0000e+00
     -0.725      0.000     8.6416     92.299      0.691   0.601329     0.1800    -0.1269     0.0426     0.0846 2.9350e+02     0.8391     -0.711     -1.030    18.5164 0.0000e+00
     -0.725      0.000     8.6425     92.305      0.691   0.600756     0.1800    -0.1269     0.0426     0.0846 2.5258e+02     0.8091     -0.711     -1.031    18.5164 0.0000e+00
     -0.725      0.000     8.6437     92.307      0.687   0.597296     0.0000    -0.1041     0.0000     0.0846 2.0426e+02     0.8842     -0.711     -1.031    18.5164 0.0000e+00
     -0.725      0.000     8.6449     92.305      0.683   0.593983     0.0000    -0.1193     0.0000     0.0846 2.2900e+02     0.9444     -0.711     -1.031    18.5164 0.0000e+00
     -0.725      0.000     8.6457     92.299      0.678   0.589932     0.0000    -0.1155     0.0000     0.0846 2.4458e+02     1.8311     -0.711     -1.031    18.5165 0.0000e+00
     -0.725      0.000     8.6463     92.288      0.672   0.584062     0.0000    -0.1269     0.0000     0.0846 2.7224e+02     1.7560     -0.711     -1.031    18.5166 0.0000e+00
     -0.725      0.000     8.6465     92.273      0.661   0.574810     0.1800    -0.1193     0.0000     0.1692 2.5706e+02     1.7560     -0.711     -1.031    18.5167 0.0000e+00
     -0.725 2.2988e-07     8.6462     92.263      0.648   0.563661     0.1800    -0.0926     0.0000     0.1692 2.3014e+02     1.7259     -0.711     -1.031    18.5168 0.0000e+00
     -0.725 2.9556e-07     8.6457     92.259      0.634   0.551598     0.1800    -0.1079     0.0000     0.1692 2.8059e+02     0.7790     -0.711     -1.032    18.5169 0.0000e+00
     -0.725 3.8001e-07     8.6447     92.258      0.620   0.539358     0.1800    -0.1231     0.0000     0.1692 3.2343e+02     0.8091     -0.711     -1.032    18.5170 0.0000e+00
     -0.725 4.8859e-07     8.6433     92.258      0.611   0.531584     0.0000    -0.1155     0.0000     0.0846 3.2057e+02     0.7790     -0.711     -1.032    18.5170 0.0000e+00
     -0.725 6.2818e-07     8.6422     92.257      0.609   0.530158     0.0000    -0.0773     0.0000     0.0846 2.7313e+02     0.7640     -0.711     -1.031    18.5171 0.0000e+00
     -0.725 8.0766e-07     8.6419     92.255      0.614   0.534700     0.0000    -0.1651     0.0000     0.0846 3.0487e+02    -0.2430     -0.711     -1.031    18.5171 0.0000e+00
     -0.725      0.000     8.6418     92.253      0.623   0.542466     0.0000    -0.1613     0.0000     0.0846 2.7840e+02    -0.1528     -0.711     -1.031    18.5171 0.0000e+00
     -0.725      0.000     8.6418     92.249      0.629   0.547620     0.0000    -0.1880     0.0000    -0.0846 2.4709e+02    -0.1228     -0.711     -1.031    18.5172 0.0000e+00
     -0.725      0.000     8.6417     92.245      0.629   0.547581     0.0000    -0.1689     0.0000    -0.0846 2.4289e+02    -0.1078     -0.711     -1.031    18.5172 0.0000e+00
     -0.725      0.000     8.6415     92.240      0.627   0.546293     0.0000    -0.1155     0.0000    -0.0846 1.9196e+02    -0.3482     -0.711     -1.031    18.5173 0.0000e+00
     -0.724      0.000     8.6413     92.237      0.628   0.547367     0.0000    -0.1041     0.0000    -0.0846 1.6620e+02    -0.4084     -0.710     -1.031    18.5174 0.0000e+00
     -0.724      0.000     8.6409     92.239      0.628   0.547135     0.0000    -0.1002     0.0000    -0.0846 1.6663e+02    -0.3933     -0.710     -1.030    18.5175 0.0000e+00
     -0.724      0.000     8.6405     92.242      0.622   0.541581     0.0000    -0.1041     0.0000    -0.5076 1.7491e+02    -0.2881     -0.710     -1.030    18.5177 0.0000e+00
     -0.724      0.000     8.6400     92.244      0.612   0.533179     0.0000    -0.1041     0.0000    -0.5076 1.3296e+02    -0.2881     -0.710     -1.030    18.5178 0.0000e+00
     -0.724      0.000     8.6397     92.246      0.606   0.527597     0.0000    -0.1231     0.0000    -0.5076 7.0218e+01    -0.3332     -0.710     -1.030    18.5180 0.0000e+00
     -0.724      0.000     8.6398     92.243      0.608   0.529276     0.0000    -0.1155     0.0000    -0.5076 1.2522e+02    -0.4534     -0.710     -1.030    18.5182 0.0000e+00
     -0.724      0.000     8.6401     92.238      0.616   0.536688     0.0000    -0.0850     0.0426    -0.0846 1.7201e+02    -0.3933     -0.710     -1.030    18.5184 0.0000e+00
     -0.724      0.000     8.6403     92.235      0.622   0.541923     0.0000    -0.1155     0.0426    -0.0846 1.8149e+02    -0.3633     -0.710     -1.030    18.5186 0.0000e+00
     -0.724      0.000     8.6403     92.233      0.620   0.540446     0.0000    -0.0964     0.0426    -0.0846 2.0739e+02    -0.4534     -0.710     -1.030    18.5188 0.0000e+00
     -0.724      0.000     8.6401     92.233      0.615   0.535819     0.0000    -0.1155     0.0426    -0.0846 2.0449e+02    -0.3783     -0.710     -1.030    18.5191 0.0000e+00
     -0.724      0.000     8.6396     92.237      0.609   0.530760     0.0000    -0.1117     0.0000     0.0000 1.8649e+02    -0.3482     -0.710     -1.030    18.5193 0.0000e+00
     -0.724      0.000     8.6392     92.243      0.601   0.523920     0.0000    -0.1155     0.0000     0.0000 1.6978e+02    -0.4234     -0.710     -1.030    18.5195 0.0000e+00
     -0.724      0.000     8.6390     92.248      0.594   0.517431     0.0000    -0.1079     0.0000     0.0000 1.8133e+02    -0.4835     -0.710     -1.030    18.5198 0.0000e+00
     -0.724      0.000     8.6389     92.252      0.590   0.513516     0.0000    -0.1231     0.0000     0.0000 1.8608e+02    -0.4985     -0.710     -1.030    18.5200 0.0000e+00
     -0.724      0.000     8.6393     92.256      0.587   0.511131     0.0000    -0.1155     0.0000    -0.1269 1.4297e+02    -0.4534     -0.710     -1.030    18.5202 0.0000e+00
     -0.724      0.000     8.6398     92.259      0.585   0.509640     0.0000    -0.1193     0.0000    -0.1269 1.7249e+02    -0.4084     -0.710     -1.030    18.5204 0.0000e+00
     -0.724      0.000     8.6402     92.261      0.584   0.508645     0.0000    -0.1155     0.0000    -0.1269 2.0578e+02    -0.4835     -0.710     -1.030    18.5206 0.0000e+00
     -0.725      0.000     8.6406     92.260      0.583   0.507881     0.0000    -0.1079     0.0000    -0.1269 2.4464e+02    -0.4084     -0.711     -1.031    18.5208 0.0000e+00
     -0.725      0.000     8.6410     92.255      0.582   0.507145     0.0000    -0.1002     0.0000    -0.1269 2.6004e+02    -0.2881     -0.711     -1.031    18.5209 0.0000e+00
     -0.725      0.000     8.6413     92.249      0.581   0.506239     0.0000    -0.0888     0.0000     0.0846 2.5762e+02    -0.5436     -0.711     -1.030    18.5210 0.0000e+00
     -0.724      0.000     8.6414     92.245      0.579   0.504923     0.0000    -0.1308     0.0000     0.0846 2.6512e+02    -0.4234     -0.710     -1.030    18.5211 0.0000e+00
     -0.724      0.001     8.6414     92.243      0.577   0.502845     0.0000    -0.1155     0.0000     0.0846 2.6941e+02    -0.5136     -0.710     -1.030    18.5212 0.0000e+00
     -0.724      0.001     8.6409     92.244      0.575   0.501428     0.0000    -0.1308     0.0000     0.0846 2.7539e+02    -0.3633     -0.710     -1.030    18.5213 0.0000e+00
     -0.724      0.001     8.6402     92.251      0.576   0.502272     1.2600    -0.0850     0.0426     1.4382 2.8694e+02    -0.4384     -0.710     -1.029    18.5214 0.0000e+00
     -0.723      0.001     8.6399     92.263      0.580   0.505602     1.2600    -0.1117     0.0426     1.4382 2.9832e+02    -0.4234     -0.709     -1.029    18.5215 0.0000e+00
     -0.723      0.002     8.6397     92.277      0.587   0.512306     1.2600    -0.1308     0.0426     1.4382 2.8538e+02    -0.4534     -0.709     -1.028    18.5217 0.0000e+00
     -0.722      0.002     8.6398     92.290      0.597   0.522194     1.2600    -0.1346     0.0426     1.4382 2.4865e+02    -0.3332     -0.708     -1.028    18.5220 0.0000e+00
     -0.722      0.003     8.6403     92.298      0.612   0.535926     1.7100    -0.1498     0.0426     2.7918 1.7786e+02    -0.4234     -0.708     -1.027    18.5224 0.0000e+00
     -0.721      0.003     8.6413     92.297      0.634   0.557163     1.7100    -0.1651     0.0426     2.7918 1.3359e+02    -0.4685     -0.707     -1.026    18.5231 0.0000e+00
     -0.720      0.004     8.6424     92.293      0.669   0.591570     1.7100    -0.1918     0.0426     2.7918 1.4751e+02    -0.4685     -0.706     -1.025    18.5242 0.0000e+00
     -0.719      0.005     8.6434     92.290      0.730   0.650298     1.7100    -0.1880     0.0426     2.7918 1.5962e+02    -0.3482     -0.705     -1.023    18.5260 0.0000e+00
     -0.718      0.007     8.6436     92.288      0.836   0.752963     0.0000    -0.1117     0.0000     0.1269 1.5858e+02    -0.2881     -0.704     -1.021    18.5288 0.0000e+00
     -0.716      0.009     8.6428     92.287      1.017   0.926940     0.0000    -0.1155     0.0000     0.1269 1.9137e+02    -0.3933     -0.702     -1.019    18.5333 0.0000e+00
     -0.714      0.011     8.6412     92.288      1.316   1.214672     0.0000    -0.1346     0.0000     0.1269 2.2865e+02    -0.4084     -0.700     -1.016    18.5407 0.0000e+00
     -0.711      0.015     8.6388     92.293      1.813   1.692885     0.0000    -0.1269     0.0000     0.1269 2.9484e+02    -0.4384     -0.697     -1.011    18.5529 0.0000e+00
     -0.707      0.019     8.6353     92.299      2.644   2.493057     0.0000    -0.1231     0.0000     0.1269 3.3913e+02    -0.1228     -0.694     -1.006    18.5730 0.0000e+00
     -0.703      0.024     8.6297     92.310      4.035   3.830545    -0.0900    -0.1079     0.0000    -0.1692 4.0281e+02    -0.0627     -0.689     -0.999    18.6064 0.0000e+00
     -0.696      0.031     8.6206     92.331      6.368   6.073875    -0.0900    -0.1269     0.0000    -0.1692 4.6161e+02    -0.1378     -0.683     -0.991    18.6620 0.0000e+00
     -0.688      0.040     8.6057     92.361     10.312   9.860810    -0.0900    -0.1117     0.0000    -0.1692 4.6817e+02    -0.1078     -0.675     -0.979    18.7545 0.0000e+00
     -0.678      0.050     8.5808     92.403     16.182  15.518926    -0.0900     1.1663     0.0000    -0.1692 4.8579e+02    14.7871     -0.665     -0.965    18.9087 0.0000e+00
     -0.665      0.061     8.5393     92.454     23.500  22.644531     3.7800     1.1586     0.2556     7.7409 5.0616e+02    14.7270     -0.652     -0.946    19.1657 0.0000e+00
     -0.649      0.074     8.4706     92.507     31.181  30.215161     3.7800     1.1586     0.2556     7.7409 5.1705e+02    14.7420     -0.636     -0.923    19.5919 0.0000e+00
     -0.628      0.087     8.3686     92.559     37.596  36.638534     3.7800     1.1510     0.2556     7.7409 5.0004e+02    14.7721     -0.616     -0.893    20.2284 0.0000e+00
     -0.604      0.100     8.2457     92.613     41.892  41.047069     3.7800     1.9407     0.2556     7.7409 5.3291e+02    21.8663     -0.592     -0.859    21.0074 0.0000e+00
     -0.576      0.112     8.1247     92.677     44.522  43.837792     6.3900     1.9521     0.3834    14.7627 5.2123e+02    21.7761     -0.565     -0.819    21.7924 0.0000e+00
     -0.545      0.122     8.0193     92.768     46.105  45.586468     6.3900     1.9292     0.3834    14.7627 5.2715e+02    21.8964     -0.534     -0.775    22.4920 0.0000e+00
     -0.511      0.130     7.9324     92.906     47.001  46.630613     6.3900     1.9292     0.3834    14.7627 5.2055e+02    21.7611     -0.501     -0.727    23.0831 0.0000e+00
     -0.475      0.136     7.8631     93.113     47.430  47.177331     6.3900     2.2191     0.3834    14.7627 5.2418e+02    22.7230     -0.466     -0.676    23.5675 0.0000e+00
     -0.439      0.139     7.8103     93.412     47.555  47.384309     6.3900     2.2115     0.3834    14.7627 5.3511e+02    22.6328     -0.430     -0.625    23.9548 0.0000e+00
     -0.403      0.139     7.7726     93.825     47.535  47.407814     6.3900     2.1848     0.4260    15.8202 5.3256e+02    22.5727     -0.395     -0.573    24.2595 0.0000e+00
     -0.367      0.136     7.7497     94.351     47.485  47.367071     6.3900     2.2229     0.4260    15.8202 5.1717e+02    22.5577     -0.359     -0.521    24.4926 0.0000e+00
     -0.330      0.128     7.7420     94.965     47.461  47.326516     6.3900     2.4480     0.4260    15.8202 4.1961e+02    25.8643     -0.323     -0.469    24.6620 0.0000e+00
     -0.295      0.116     7.7503     95.634     47.487  47.326856     6.3900     2.4442     0.4260    15.8202 3.9364e+02    25.8042     -0.289     -0.419    24.7744 0.0000e+00
     -0.265      0.101     7.7755     96.345     47.569  47.393936     6.4800     2.4671     0.4260    16.0317 2.8077e+02    25.7140     -0.259     -0.376    24.8364 0.0000e+00
     -0.241      0.084     7.8163     97.135     47.699  47.527808     6.4800     2.4328     0.4260    16.0317 2.8495e+02    25.7291     -0.236     -0.343    24.8554 0.0000e+00
     -0.223      0.066     7.8687     98.108     47.842  47.694815     6.4800     2.1924     0.4260    16.0317 2.7943e+02    21.2050     -0.219     -0.318    24.8436 0.0000e+00
     -0.211      0.051     7.9275     99.472     47.958  47.846356     6.4800     2.1962     0.4260    16.0317 2.8261e+02    21.2200     -0.206     -0.300    24.8204 0.0000e+00
     -0.201      0.038     7.9884    101.455     48.028  47.953486     6.4800     2.2001     0.5112    17.1315 2.9696e+02    21.1449     -0.197     -0.286    24.8063 0.0000e+00
     -0.195      0.028     8.0527    104.092     48.055  48.013068     6.4800     2.2077     0.5112    17.1315 2.9305e+02    21.2050     -0.191     -0.277    24.8125 0.0000e+00
     -0.190      0.021     8.1293    107.193     48.057  48.040993     6.4800     2.1962     0.5112    17.1315 3.1042e+02    20.8443     -0.186     -0.269    24.8385 0.0000e+00
     -0.186      0.016     8.2364    110.429     48.060  48.064525     6.4800     2.2001     0.5112    17.1315 3.0283e+02    20.9194     -0.182     -0.264    24.8761 0.0000e+00
     -0.183      0.012     8.3945    113.300     48.076  48.097867     6.3900     2.2039     0.4260    16.5816 2.9845e+02    20.9194     -0.179     -0.260    24.9154 0.0000e+00
     -0.180      0.010     8.6072    115.315     48.094  48.130095     6.3900     2.2229     0.4260    16.5816 2.9715e+02    20.8593     -0.177     -0.256    24.9498 0.0000e+00
     -0.178      0.008     8.8592    116.210     48.095  48.142057     6.3900     2.1581     0.4260    16.5816 2.9388e+02    20.6489     -0.175     -0.253    24.9771 0.0000e+00
     -0.176      0.006     9.1230    115.993     48.068  48.125055     6.3900     2.1200     0.4260    16.5816 2.9503e+02    20.7240     -0.173     -0.251    24.9986 0.0000e+00
     -0.175      0.005     9.3574    114.883     48.015  48.078519     6.3900     2.1657     0.4260    16.5816 2.9599e+02    20.7090     -0.172     -0.249    25.0163 0.0000e+00
     -0.174      0.004     9.5214    113.223     47.934  48.001930     6.4800     2.1352     0.4260    17.2161 2.9407e+02    20.7240     -0.171     -0.248    25.0311 0.0000e+00
     -0.174      0.003     9.5933    111.353     47.842  47.912516     6.4800     2.2229     0.4260    17.2161 2.9401e+02    20.8893     -0.170     -0.247    25.0432 0.0000e+00
     -0.173      0.003     9.5737    109.539     47.784  47.857774     6.4800     2.2191     0.4260    17.2161 2.9343e+02    20.9645     -0.170     -0.246    25.0529 0.0000e+00
     -0.172      0.003     9.4810    107.942     47.781  47.858777     6.4800     2.1734     0.4260    17.2161 2.9356e+02    20.9495     -0.169     -0.245    25.0602 0.0000e+00
     -0.172      0.003     9.3432    106.586     47.798  47.880121     6.4800     2.2153     0.4686    17.2161 2.9134e+02    20.8743     -0.168     -0.244    25.0649 0.0000e+00
     -0.171      0.003     9.1884    105.397     47.815  47.901739     6.4800     2.2115     0.4686    17.2161 2.9077e+02    21.3403     -0.168     -0.243    25.0677 0.0000e+00
     -0.170      0.004     9.0382    104.322     47.848  47.937320     6.4800     2.2001     0.4686    17.2161 2.8856e+02    21.5206     -0.167     -0.242    25.0708 0.0000e+00
     -0.169      0.004     8.9058    103.391     47.890  47.980501     6.4800     2.2268     0.4686    17.2161 2.8501e+02    21.3853     -0.166     -0.241    25.0752 0.0000e+00
     -0.168      0.005     8.7931    102.691     47.914  48.003161     6.5700     2.2115     0.4260    16.9623 2.8384e+02    21.4304     -0.165     -0.239    25.0801 0.0000e+00
     -0.167      0.005     8.6943    102.323     47.906  47.991528     6.5700     2.2725     0.4260    16.9623 2.8273e+02    21.6258     -0.163     -0.237    25.0845 0.0000e+00
     -0.165      0.005     8.6051    102.380     47.875  47.954389     6.5700     2.2802     0.4260    16.9623 2.8218e+02    21.6409     -0.162     -0.236    25.0875 0.0000e+00
     -0.164      0.005     8.5282    102.921     47.841  47.913546     6.5700     2.2573     0.4260    16.9623 2.7907e+02    21.6559     -0.161     -0.234    25.0886 0.0000e+00
     -0.162      0.005     8.4706    103.967     47.822  47.889815     6.4800     2.2687     0.4260    16.8354 2.7557e+02    21.6559     -0.159     -0.232    25.0872 0.0000e+00
     -0.161      0.005     8.4409    105.485     47.821  47.884795     6.4800     2.3221     0.4260    16.8354 2.7147e+02    21.7310     -0.158     -0.229    25.0831 0.0000e+00
     -0.159      0.004     8.4465    107.370     47.823  47.885255     6.4800     2.3069     0.4260    16.8354 2.6830e+02    21.6859     -0.156     -0.227    25.0771 0.0000e+00
     -0.158      0.003     8.4922    109.480     47.821  47.883392     6.4800     2.3259     0.4260    16.8354 2.6720e+02    21.6859     -0.155     -0.226    25.0704 0.0000e+00
     -0.158      0.002     8.5794    111.681     47.815  47.878710     6.4800     2.3527     0.4260    16.8354 2.6500e+02    21.7461     -0.155     -0.225    25.0647 0.0000e+00
     -0.157      0.001     8.7052    113.866     47.801  47.865997     6.7500     2.5091     0.4686    17.8506 2.6737e+02    21.8813     -0.154     -0.224    25.0610 0.0000e+00
     -0.157      0.000     8.8611    115.963     47.776  47.841862     6.7500     2.4900     0.4686    17.8506 2.6691e+02    21.8513     -0.154     -0.224    25.0593 0.0000e+00
     -0.158     -0.001     9.0352    117.941     47.745  47.811759     6.7500     2.4976     0.4686    17.8506 2.6633e+02    21.8513     -0.154     -0.225    25.0594 0.0000e+00
     -0.158     -0.001     9.2166    119.794     47.713  47.779552     6.7500     2.5014     0.4686    17.8506 2.6854e+02    21.9565     -0.155     -0.225    25.0605 0.0000e+00
     -0.158     -0.001     9.3967    121.510     47.678  47.746560     6.7500     2.4518     0.4260    18.3159 2.6702e+02    21.4906     -0.155     -0.225    25.0619 0.0000e+00
     -0.159     -0.001     9.5696    123.058     47.650  47.719839     6.7500     2.4671     0.4260    18.3159 2.6616e+02    21.3703     -0.155     -0.226    25.0629 0.0000e+00
     -0.159     -0.001     9.7328    124.380     47.629  47.702171     6.7500     2.4595     0.4260    18.3159 2.6668e+02    21.4605     -0.156     -0.226    25.0635 0.0000e+00
     -0.159     -0.001     9.8855    125.406     47.614  47.688846     6.7500     2.4442     0.4260    18.3159 2.6581e+02    21.3703     -0.156     -0.226    25.0641 0.0000e+00
     -0.159     -0.001    10.0268    126.075     47.599  47.676310     6.8400     2.5739     0.4260    17.8506 2.6569e+02    22.2270     -0.156     -0.226    25.0654 0.0000e+00
     -0.160     -0.001    10.1542    126.352     47.579  47.657257     6.8400     2.5930     0.4260    17.8506 2.6483e+02    22.1819     -0.156     -0.227    25.0676 0.0000e+00
     -0.160     -0.001    10.2628    126.247     47.549  47.626606     6.8400     2.5586     0.4260    17.8506 2.6357e+02    22.1369     -0.156     -0.227    25.0702 0.0000e+00
     -0.160     -0.001    10.3470    125.823     47.515  47.592037     6.8400     2.5968     0.4260    17.8506 2.6339e+02    22.0467     -0.156     -0.227    25.0727 0.0000e+00
     -0.160     -0.001    10.4019    125.185     47.489  47.564149     6.8400     2.5091     0.4260    17.8506 2.6225e+02    22.6328     -0.157     -0.227    25.0746 0.0000e+00
     -0.160     -0.001    10.4245    124.451     47.476  47.547394     6.6600     2.5205     0.4686    17.7237 2.6191e+02    22.6930     -0.157     -0.227    25.0757 0.0000e+00
     -0.160     -0.001    10.4158    123.721     47.475  47.541267     6.6600     2.4976     0.4686    17.7237 2.6151e+02    22.6328     -0.157     -0.228    25.0760 0.0000e+00
     -0.161     -0.001    10.3810    123.047     47.476  47.536208     6.6600     2.5129     0.4686    17.7237 2.6231e+02    22.6629     -0.157     -0.228    25.0751 0.0000e+00
     -0.161     -0.000    10.3288    122.433     47.465  47.518977     6.6600     2.5854     0.4686    17.7237 2.6185e+02    22.4224     -0.157     -0.228    25.0727 0.0000e+00
     -0.161     -0.000    10.2690    121.870     47.437  47.484979     6.6600     2.5968     0.4260    18.0198 2.6163e+02    22.4074     -0.157     -0.228    25.0689 0.0000e+00
     -0.161     -0.000    10.2097    121.368     47.399  47.441001     6.6600     2.6082     0.4260    18.0198 2.6083e+02    22.3773     -0.157     -0.228    25.0637 0.0000e+00
     -0.161      0.000    10.1552    120.948     47.361  47.399096     6.6600     2.5625     0.4260    18.0198 2.6015e+02    22.4224     -0.157     -0.228    25.0577 0.0000e+00
     -0.161      0.000    10.1057    120.614     47.329  47.363940     6.6600     2.5930     0.4260    18.0198 2.6043e+02    22.1519     -0.157     -0.228    25.0512 0.0000e+00
     -0.161      0.000    10.0604    120.327     47.299  47.330123     6.6600     2.5548     0.4686    17.5968 2.6032e+02    22.1218     -0.158     -0.229    25.0447 0.0000e+00
     -0.161      0.000    10.0200    120.009     47.267  47.294572     6.6600     2.5625     0.4686    17.5968 2.6111e+02    22.0918     -0.158     -0.229    25.0390 0.0000e+00
     -0.161      0.000     9.9862    119.584     47.236  47.257714     6.6600     2.5586     0.4686    17.5968 2.6026e+02    22.1369     -0.158     -0.229    25.0345 0.0000e+00
     -0.161      0.000     9.9593    119.017     47.196  47.211702     6.6600     2.3946     0.4686    17.5968 2.5981e+02    22.0617     -0.158     -0.229    25.0310 0.0000e+00
     -0.161      0.000     9.9362    118.323     47.142  47.152192     6.5700     2.3794     0.4260    17.4699 2.5947e+02    22.0467     -0.158     -0.228    25.0275 0.0000e+00
     -0.161      0.001     9.9108    117.555     47.093  47.098984     6.5700     2.3908     0.4260    17.4699 2.5852e+02    22.0016     -0.157     -0.228    25.0231 0.0000e+00
     -0.160      0.001     9.8768    116.790     47.067  47.071575     6.5700     2.4022     0.4260    17.4699 2.5824e+02    22.1819     -0.157     -0.228    25.0172 0.0000e+00
     -0.160      0.001     9.8312    116.114     47.052  47.054730     6.5700     2.3717     0.4260    17.4699 2.5773e+02    22.1068     -0.157     -0.228    25.0105 0.0000e+00
     -0.160      0.001     9.7749    115.603     47.032  47.032068     6.5700     2.3298     0.4260    17.4699 2.5645e+02    21.5657     -0.157     -0.228    25.0047 0.0000e+00
     -0.160      0.001     9.7121    115.326     47.040  47.035197     6.5700     2.3450     0.4260    17.1315 2.5617e+02    21.6258     -0.157     -0.227    25.0009 0.0000e+00
     -0.159      0.001     9.6492    115.379     47.140  47.128360     6.5700     2.3259     0.4260    17.1315 2.5528e+02    21.7010     -0.156     -0.227    24.9989 0.0000e+00
     -0.159      0.001     9.5937    115.925     47.381  47.362162     6.5700     2.3107     0.4260    17.1315 2.5634e+02    21.6258     -0.156     -0.226    24.9974 0.0000e+00
     -0.159      0.001     9.5519    117.244     47.773  47.749409     6.5700     2.3221     0.4260    17.1315 2.5561e+02    20.8593     -0.156     -0.226    24.9946 0.0000e+00
     -0.159      0.000     9.5299    119.837     48.242  48.217000     6.5700     2.3145     0.3834    16.9623 2.5589e+02    20.8743     -0.156     -0.226    24.9894 0.0000e+00
     -0.159      0.000     9.5356    124.339     48.645  48.624078     6.5700     2.3298     0.3834    16.9623 2.5606e+02    20.9495     -0.156     -0.226    24.9821 0.0000e+00
     -0.159      0.000     9.5819    131.076     48.916  48.902824     6.5700     2.3374     0.3834    16.9623 2.5645e+02    20.8593     -0.156     -0.226    24.9747 0.0000e+00
     -0.159      0.000     9.6917    139.671     49.082  49.080005     6.5700     2.3221     0.3834    16.9623 2.5622e+02    21.4304     -0.156     -0.226    24.9697 0.0000e+00
     -0.159      0.000     9.9061    149.179     49.182  49.190981     6.4800     2.2954     0.4260    16.7931 2.5723e+02    21.4304     -0.156     -0.226    24.9685 0.0000e+00
     -0.159      0.001    10.2774    158.478     49.239  49.259400     6.4800     2.3374     0.4260    16.7931 2.6066e+02    21.3853     -0.156     -0.226    24.9720 0.0000e+00
     -0.159      0.001    10.8324    166.539     49.273  49.303508     6.4800     2.3527     0.4260    16.7931 2.6322e+02    21.5206     -0.156     -0.226    24.9800 0.0000e+00
     -0.159      0.003    11.5403    172.577     49.298  49.335068     6.4800     2.1924     0.4260    16.7931 2.6202e+02    20.9044     -0.155     -0.225    24.9911 0.0000e+00
     -0.158      0.005    12.3231    176.145     49.318  49.358532     6.3900     2.2191     0.4260    16.4970 2.6650e+02    20.9044     -0.155     -0.225    25.0033 0.0000e+00
     -0.158      0.008    13.0885    177.218     49.328  49.368268     6.3900     2.2001     0.4260    16.4970 2.7094e+02    20.9795     -0.154     -0.224    25.0150 0.0000e+00
     -0.156      0.011    13.7520    176.212     49.324  49.358943     6.3900     2.1924     0.4260    16.4970 2.7390e+02    20.9044     -0.153     -0.221    25.0249 0.0000e+00
     -0.153      0.016    14.2490    173.852     49.297  49.320143     6.3900     2.2649     0.4260    16.4970 2.7647e+02    21.6559     -0.149     -0.217    25.0319 0.0000e+00
     -0.148      0.021    14.5428    170.892     49.223  49.225669     6.3900     2.2458     0.4260    16.4970 2.6237e+02    21.5657     -0.145     -0.210    25.0353 0.0000e+00
     -0.142      0.027    14.6316    167.893     49.127  49.091944     6.4800     2.2420     0.4260    16.4547 2.5824e+02    21.5657     -0.139     -0.202    25.0346 0.0000e+00
     -0.135      0.030    14.5500    165.183     49.078  48.988342     6.4800     2.2611     0.4260    16.4547 2.4000e+02    21.6409     -0.132     -0.191    25.0290 0.0000e+00
     -0.125      0.032    14.3580    162.992     49.112  48.964523     6.4800     2.6159     0.4260    16.4547 1.0505e+02    24.1208     -0.123     -0.178    25.0175 0.0000e+00
     -0.114      0.031    14.1189    161.526     49.213  49.026020     6.4800     2.6502     0.4260    16.4547 1.2181e+02    23.9705     -0.112     -0.163    24.9963 0.0000e+00
     -0.104      0.028    13.8806    160.888     49.318  49.125810     6.5700     2.6235     0.4686    17.1738 1.3075e+02    24.0607     -0.102     -0.148    24.9582 0.0000e+00
     -0.097      0.022    13.6705    160.978     49.370  49.203305     6.5700     2.6426     0.4686    17.1738 1.3106e+02    24.0306     -0.095     -0.138    24.9029 0.0000e+00
     -0.093      0.016    13.5037    161.475     49.373  49.243502     6.5700     2.6349     0.4686    17.1738 1.4544e+02    21.4304     -0.091     -0.132    24.8445 0.0000e+00
     -0.091      0.011    13.3923    161.955     49.361  49.265051     6.5700     2.6502     0.4686    17.1738 1.7000e+02    21.3553     -0.089     -0.129    24.8047 0.0000e+00
     -0.090      0.006    13.3409    162.126     49.357  49.283611     6.7500     2.6426     0.4260    18.6543 1.7354e+02    21.3853     -0.088     -0.128    24.7995 0.0000e+00
     -0.090      0.003    13.3422    161.889     49.358  49.300168     6.7500     2.6349     0.4260    18.6543 1.7929e+02    21.4906     -0.088     -0.128    24.8255 0.0000e+00
     -0.089      0.002    13.3742    161.244     49.357  49.311210     6.7500     2.7646     0.4260    18.6543 1.8288e+02    21.8663     -0.088     -0.127    24.8633 0.0000e+00
     -0.089      0.003    13.4058    160.249     49.345  49.305809     6.7500     2.7379     0.4260    18.6543 1.7430e+02    21.9264     -0.087     -0.126    24.8964 0.0000e+00
     -0.088      0.005    13.4142    159.038     49.310  49.268652     6.7500     2.7379     0.4260    18.6543 2.0005e+02    21.8362     -0.087     -0.126    24.9199 0.0000e+00
     -0.088      0.009    13.3907    157.802     49.247  49.189833     6.8400     2.7456     0.4260    18.8658 2.2711e+02    21.8513     -0.086     -0.125    24.9359 0.0000e+00
     -0.086      0.015    13.3346    156.734     49.154  49.062206     6.8400     2.4022     0.4260    18.8658 2.3230e+02    21.1599     -0.085     -0.123    24.9473 0.0000e+00
     -0.083      0.022    13.2507    155.964     49.017  48.865609     6.8400     2.3870     0.4260    18.8658 2.2885e+02    21.2050     -0.081     -0.117    24.9540 0.0000e+00
     -0.076      0.031    13.1511    155.516     48.832  48.585270     6.8400     2.3832     0.4260    18.8658 2.2633e+02    21.2050     -0.075     -0.108    24.9520 0.0000e+00
     -0.067      0.041    13.0529    155.344     48.638  48.253444     6.7500     2.3870     0.4260    18.2313 2.1071e+02    21.0847     -0.066     -0.096    24.9357 0.0000e+00
     -0.055      0.050    12.9734    155.442     48.485  47.930269     6.7500     2.5892     0.4260    18.2313 1.8714e+02    23.0988     -0.054     -0.079    24.8994 0.0000e+00
     -0.040      0.058    12.9248    155.943     48.384  47.646476     6.7500     2.5663     0.4260    18.2313 1.4557e+02    23.0687     -0.040     -0.058    24.8368 0.0000e+00
     -0.023      0.065    12.9117    157.022     48.303  47.387808     6.7500     2.5854     0.4260    18.2313 1.3790e+02    23.0236     -0.023     -0.033    24.7379 0.0000e+00
     -0.005      0.071    12.9320    158.727     48.202  47.126891     6.8400     2.5930     0.4686    18.6120 1.2478e+02    23.1288     -0.005     -0.007    24.5956 0.0000e+00
      0.014      0.076    12.9835    160.947     48.029  46.811977     6.8400     2.9592     0.4686    18.6120 1.1397e+02    22.8282      0.014      0.020    24.4184 0.0000e+00
      0.034      0.081    13.0724    163.462     47.709  46.353138     6.8400     2.9439     0.4686    18.6120 1.1138e+02    22.8583      0.033      0.048    24.2274 0.0000e+00
      0.055      0.087    13.2092    165.963     47.236  45.719169     6.8400     2.9516     0.4686    18.6120 1.0505e+02    22.9485      0.054      0.078    24.0417 0.0000e+00
      0.077      0.093    13.3957    168.066     46.718  45.008514     7.2000     2.9363     0.4686    19.7541 9.5849e+01    22.8884      0.075      0.109    23.8725 0.0000e+00
      0.101      0.098    13.6227    169.448     46.236  44.318966     7.2000     3.3750     0.4686    19.7541 9.9067e+01    25.6990      0.099      0.143    23.7188 0.0000e+00
      0.127      0.104    13.8769    169.964     45.738  43.621185     7.2000     3.3712     0.4686    19.7541 7.6727e+01    25.7291      0.125      0.181    23.5615 0.0000e+00
      0.156      0.107    14.1391    169.622     45.219  42.923249     7.2000     3.3712     0.4686    19.7541 5.9154e+01    25.8944      0.153      0.221    23.3742 0.0000e+00
      0.185      0.109    14.3788    168.497     44.792  42.334238     7.2000     3.3712     0.4686    19.7541 5.2116e+01    25.7741      0.182      0.263    23.1488 0.0000e+00
      0.214      0.110    14.5634    166.673     44.453  41.855570     7.2900     2.6769     0.4686    20.6001 4.6709e+01    21.5657      0.210      0.305    22.9036 0.0000e+00
      0.243      0.109    14.6731    164.254     44.093  41.379406     7.2900     2.6922     0.4686    20.6001 4.3326e+01    21.5958      0.238      0.345    22.6629 0.0000e+00
      0.270      0.107    14.7048    161.370     43.612  40.796597     7.2900     2.6998     0.4686    20.6001 4.0442e+01    21.6859      0.265      0.384    22.4382 0.0000e+00
      0.296      0.105    14.6626    158.121     42.941  40.025023     7.2900     2.7036     0.4686    20.6001 3.4698e+01    21.6859      0.290      0.421    22.2346 0.0000e+00
      0.322      0.104    14.5517    154.506     42.112  39.086742     6.8400     2.5586     0.4260    19.2042 3.3367e+01    17.1919      0.316      0.458    22.0573 0.0000e+00
      0.348      0.104    14.3823    150.393     41.291  38.139606     6.8400     2.5701     0.4260    19.2042 3.2031e+01    17.1468      0.341      0.495    21.9010 0.0000e+00
      0.374      0.105    14.1702    145.578     40.641  37.347004     6.8400     2.5663     0.4260    19.2042 3.0943e+01    17.2220      0.366      0.531    21.7469 0.0000e+00
      0.401      0.105    13.9292    139.875     40.210  36.770899     6.8400     2.5663     0.4260    19.2042 2.6797e+01    17.1018      0.393      0.570    21.5761 0.0000e+00
      0.428      0.105    13.6616    133.176     39.955  36.388375     6.4800     2.2306     0.3408    16.8354 2.1643e+01    12.2621      0.420      0.609    21.3775 0.0000e+00
      0.457      0.104    13.3543    125.539     39.784  36.119205     6.4800     2.2229     0.3408    16.8354 1.8809e+01    12.0516      0.448      0.649    21.1537 0.0000e+00
      0.484      0.102    12.9844    117.267     39.606  35.875762     6.4800     2.2115     0.3408    16.8354 1.7105e+01    12.1869      0.474      0.688    20.9206 0.0000e+00
      0.509      0.099    12.5285    108.887     39.404  35.630756     6.4800     2.2229     0.3408    16.8354 1.6596e+01    12.1568      0.499      0.724    20.7022 0.0000e+00
      0.533      0.096    11.9713    101.001     39.195  35.386191     5.7600     2.2001     0.2130    10.3212 1.5894e+01     8.5947      0.523      0.759    20.5193 0.0000e+00
      0.556      0.093    11.3160     94.096     38.999  35.154086     5.7600     2.1886     0.2130    10.3212 1.4904e+01     8.6398      0.546      0.791    20.3805 0.0000e+00
      0.579      0.091    10.5920     88.415     38.878  34.987413     5.7600     2.2077     0.2130    10.3212 1.3884e+01     8.6398      0.568      0.824    20.2797 0.0000e+00
      0.602      0.091     9.8507     83.957     38.848  34.903118     5.7600     2.2153     0.2130    10.3212 1.3014e+01     8.6097      0.590      0.856    20.2019 0.0000e+00
      0.624      0.091     9.1503     80.514     38.852  34.854955     5.7600     2.2420     0.2130    10.3212 1.1500e+01     7.6628      0.613      0.888    20.1328 0.0000e+00
      0.648      0.093     8.5370     77.722     38.851  34.800370     5.4000     2.2611     0.2130     7.4025 1.0749e+01     7.6328      0.635      0.921    20.0632 0.0000e+00
      0.671      0.095     8.0338     75.207     38.879  34.758477     5.4000     2.2802     0.2130     7.4025 1.0515e+01     7.7230      0.658      0.954    19.9898 0.0000e+00
      0.695      0.099     7.6403     72.670     38.984  34.767612     5.4000     2.2573     0.2130     7.4025 1.0463e+01     7.7981      0.681      0.988    19.9177 0.0000e+00
      0.720      0.102     7.3370     69.832     39.133  34.808422     5.4000     2.4785     0.2130     7.4025 8.7609e+00     6.1147      0.706      1.024    19.8516 0.0000e+00
      0.747      0.105     7.0923     66.386     39.286  34.854155     5.2200     2.4480     0.1704     6.2181 7.4807e+00     6.0847      0.733      1.063    19.7835 0.0000e+00
      0.775      0.107     6.8742     62.096     39.434  34.905122     5.2200     2.4633     0.1704     6.2181 6.2367e+00     5.9795      0.761      1.103    19.6981 0.0000e+00
      0.804      0.109     6.6561     56.946     39.577  34.959065     5.2200     2.4671     0.1704     6.2181 5.6667e+00     6.1147      0.789      1.144    19.5905 0.0000e+00
      0.832      0.109     6.4108     51.182     39.708  35.010563     5.2200     2.2725     0.1704     6.2181 5.1355e+00     4.7921      0.816      1.184    19.4722 0.0000e+00
      0.860      0.109     6.1078     45.210     39.825  35.057503     4.8600     2.2687     0.1278     3.2571 4.8883e+00     4.7921      0.844      1.223    19.3581 0.0000e+00
      0.888      0.108     5.7242     39.460     39.920  35.092594     4.8600     2.2687     0.1278     3.2571 4.3170e+00     4.8973      0.870      1.262    19.2553 0.0000e+00
      0.915      0.108     5.2585     34.321     39.996  35.113310     4.8600     2.2420     0.1278     3.2571 4.0994e+00     4.8071      0.897      1.301    19.1640 0.0000e+00
      0.942      0.109     4.7336     30.136     40.057  35.121214     4.8600     2.0971     0.1278     3.2571 3.8885e+00     4.0857      0.924      1.340    19.0831 0.0000e+00
      0.969      0.111     4.1871     27.140     40.099  35.110488     4.8600     2.0856     0.1278     3.2571 3.7175e+00     4.0706      0.950      1.378    19.0121 0.0000e+00
      0.997      0.112     3.6591     25.361     40.114  35.074312     4.7700     2.0704     0.1278     2.1150 3.3457e+00     4.2059      0.978      1.418    18.9500 0.0000e+00
      1.027      0.114     3.1864     24.594     40.107  35.018878     4.7700     2.0704     0.1278     2.1150 2.9527e+00     4.2360      1.007      1.460    18.8929 0.0000e+00
      1.057      0.114     2.8014     24.527     40.095  34.961090     4.7700     1.6507     0.1278     2.1150 2.6568e+00     3.1688      1.036      1.503    18.8357 0.0000e+00
      1.087      0.113     2.5264     24.892     40.076  34.901379     4.7700     1.6355     0.1278     2.1150 2.3962e+00     3.1688      1.066      1.546    18.7758 0.0000e+00
      1.116      0.112     2.3644     25.515     40.047  34.835705     4.7700     1.6546     0.1278     1.7343 2.2169e+00     3.1989      1.095      1.588    18.7139 0.0000e+00
      1.145      0.110     2.2963     26.305     40.022  34.776259     4.7700     1.6469     0.1278     1.7343 2.0951e+00     3.0937      1.122      1.628    18.6521 0.0000e+00
      1.172      0.108     2.2933     27.210     40.010  34.728973     4.7700     1.4600     0.1278     1.7343 2.0108e+00     2.7480      1.149      1.667    18.5933 0.0000e+00
      1.198      0.106     2.3304     28.191     40.004  34.685198     4.7700     1.4714     0.1278     1.7343 1.9186e+00     2.8832      1.175      1.704    18.5392 0.0000e+00
      1.224      0.104     2.3914     29.223     39.994  34.639198     4.6800     1.4943     0.0852     1.1844 1.8187e+00     2.7780      1.201      1.742    18.4896 0.0000e+00
      1.251      0.104     2.4680     30.270     39.984  34.592571     4.6800     1.4524     0.0852     1.1844 1.7006e+00     2.7480      1.227      1.779    18.4425 0.0000e+00
      1.277      0.105     2.5554     31.275     39.965  34.536840     4.6800     1.2960     0.0852     1.1844 1.6230e+00     2.3873      1.252      1.817    18.3956 0.0000e+00
      1.303      0.107     2.6502     32.163     39.930  34.461105     4.6800     1.2960     0.0852     1.1844 1.5658e+00     2.2971      1.278      1.854    18.3482 0.0000e+00
      1.330      0.109     2.7499     32.880     39.888  34.372894     4.5900     1.2654     0.0852     0.9306 1.5792e+00     2.2520      1.304      1.892    18.3006 0.0000e+00
      1.358      0.112     2.8512     33.395     39.854  34.286310     4.5900     1.2883     0.0852     0.9306 1.5570e+00     2.2670      1.331      1.931    18.2533 0.0000e+00
      1.387      0.114     2.9487     33.695     39.828  34.204007     4.5900     0.7352     0.0852     0.9306 1.5506e+00     1.6207      1.360      1.972    18.2039 0.0000e+00
      1.417      0.117     3.0358     33.787     39.795  34.115916     4.5900     0.7276     0.0852     0.9306 1.4769e+00     1.5305      1.389      2.015    18.1476 0.0000e+00
      1.448      0.119     3.1077     33.699     39.754  34.020330     4.5900     0.7161     0.0852     0.9306 1.4389e+00     1.4704      1.420      2.059    18.0821 0.0000e+00
      1.479      0.121     3.1609     33.473     39.714  33.925423     4.5000     0.7085     0.0852     0.5499 1.4705e+00     1.4854      1.450      2.103    18.0097 0.0000e+00
      1.509      0.123     3.1940     33.147     39.681  33.833609     4.5000     0.6208     0.0852     0.5499 1.3771e+00     1.2600      1.480      2.146    17.9346 0.0000e+00
      1.540      0.125     3.2075     32.747     39.648  33.740207     4.5000     0.6169     0.0852     0.5499 1.3578e+00     1.3502      1.510      2.190    17.8595 0.0000e+00
      1.572      0.126     3.2040     32.283     39.612  33.642090     4.5000     0.6436     0.0852     0.5499 1.3278e+00     1.2750      1.541      2.235    17.7842 0.0000e+00
      1.604      0.128     3.1874     31.743     39.578  33.544778     4.4100     0.6208     0.0426     0.4230 1.2958e+00     1.3652      1.573      2.282    17.7072 0.0000e+00
      1.638      0.128     3.1614     31.107     39.554  33.459942     4.4100     0.5063     0.0426     0.4230 1.1723e+00     1.1398      1.606      2.330    17.6276 0.0000e+00
      1.672      0.127     3.1285     30.360     39.535  33.384761     4.4100     0.5025     0.0426     0.4230 1.1451e+00     1.1097      1.639      2.378    17.5449 0.0000e+00
      1.705      0.125     3.0895     29.502     39.497  33.299185     4.4100     0.5063     0.0426     0.4230 1.1330e+00     1.1398      1.672      2.425    17.4593 0.0000e+00
      1.737      0.122     3.0431     28.559     39.444  33.202176     4.3200     0.5101     0.0426     0.1692 1.0971e+00     1.1097      1.703      2.470    17.3738 0.0000e+00
      1.767      0.119     2.9871     27.566     39.395  33.107468     4.3200     0.5178     0.0426     0.1692 1.0626e+00     1.0646      1.733      2.513    17.2926 0.0000e+00
      1.796      0.116     2.9198     26.568     39.359  33.023469     4.3200     0.4529     0.0426     0.1692 1.0719e+00     1.0796      1.761      2.555    17.2180 0.0000e+00
      1.825      0.114     2.8413     25.609     39.335  32.951542     4.3200     0.5101     0.0426     0.1692 1.0344e+00     0.9594      1.789      2.596    17.1494 0.0000e+00
      1.853      0.113     2.7541     24.725     39.314  32.884385     4.1400     0.4949     0.0426     0.1692 1.0126e+00     1.0045      1.818      2.637    17.0831 0.0000e+00
      1.882      0.114     2.6622     23.934     39.294  32.815971     4.1400     0.4300     0.0426     0.1692 9.9406e-01     1.2901      1.846      2.677    17.0151 0.0000e+00
      1.910      0.115     2.5694     23.239     39.284  32.749837     4.1400     0.4453     0.0426     0.1692 9.9883e-01     1.3051      1.874      2.717    16.9465 0.0000e+00
      1.939      0.116     2.4801     22.621     39.285  32.688147     4.1400     0.4453     0.0426     0.1692 9.8717e-01     1.3351      1.902      2.759    16.8812 0.0000e+00
      1.969      0.116     2.3976     22.043     39.299  32.636232     4.1400     0.4453     0.0426     0.1692 8.9560e-01     1.2901      1.931      2.801    16.8185 0.0000e+00
      2.000      0.116     2.3241     21.469     39.342  32.611929     4.0500     0.3613     0.0000     0.2538 9.0913e-01     1.6357      1.961      2.844    16.7524 0.0000e+00
      2.030      0.115     2.2601     20.874     39.410  32.612714     4.0500     0.3728     0.0000     0.2538 8.2569e-01     1.5907      1.991      2.887    16.6791 0.0000e+00
      2.060      0.114     2.2036     20.235     39.476  32.615032     4.0500     0.3919     0.0000     0.2538 8.0847e-01     1.5456      2.020      2.930    16.6000 0.0000e+00
      2.088      0.112     2.1510     19.535     39.522  32.603658     4.0500     0.3690     0.0000     0.2538 7.8272e-01     1.5456      2.048      2.971    16.5196 0.0000e+00
      2.116      0.110     2.0984     18.755     39.550  32.575557     3.9600     0.3499     0.0852     0.3384 8.1500e-01     1.4704      2.075      3.010    16.4429 0.0000e+00
      2.143      0.108     2.0432     17.880     39.575  32.543036     3.9600     0.3575     0.0852     0.3384 7.9471e-01     1.4854      2.102      3.048    16.3723 0.0000e+00
      2.170      0.108     1.9834     16.908     39.619  32.521184     3.9600     0.3575     0.0852     0.3384 7.7814e-01     1.5606      2.128      3.087    16.3068 0.0000e+00
      2.197      0.108     1.9172     15.857     39.677  32.504173     3.9600     0.3728     0.0852     0.3384 7.5811e-01     1.6207      2.155      3.125    16.2436 0.0000e+00
      2.225      0.107     1.8429     14.755     39.736  32.483502     3.9600     0.3919     0.0852     0.1692 7.8051e-01     2.0416      2.182      3.164    16.1797 0.0000e+00
      2.253      0.107     1.7592     13.619     39.806  32.465540     3.9600     0.3919     0.0852     0.1692 6.7388e-01     2.0416      2.209      3.204    16.1124 0.0000e+00
      2.281      0.106     1.6660     12.461     39.890  32.453414     3.9600     0.3728     0.0852     0.1692 7.0442e-01     2.1618      2.237      3.244    16.0391 0.0000e+00
      2.308      0.104     1.5649     11.300     39.984  32.447849     3.9600     0.3804     0.0852     0.1692 6.6529e-01     2.1017      2.263      3.282    15.9585 0.0000e+00
      2.334      0.103     1.4586     10.164     40.087  32.451316     3.8700     0.4148     0.0426     0.2538 6.4873e-01     2.5225      2.289      3.319    15.8712 0.0000e+00
      2.359      0.102     1.3488      9.070     40.188  32.452857     3.8700     0.4491     0.0426     0.2538 6.6414e-01     2.5376      2.314      3.356    15.7773 0.0000e+00
      2.384      0.102     1.2365      8.031     40.278  32.437039     3.8700     0.4262     0.0426     0.2538 6.6054e-01     2.5826      2.338      3.391    15.6769 0.0000e+00
      2.410      0.103     1.1236      7.051     40.370  32.415483     3.8700     0.4376     0.0426     0.2538 6.5170e-01     2.6277      2.363      3.427    15.5741 0.0000e+00
      2.436      0.103     1.0126      6.133     40.481  32.410157     3.8700     0.3804     0.0426     0.2538 6.5825e-01     2.5225      2.389      3.465    15.4742 0.0000e+00
      2.463      0.104     0.9054      5.263     40.595  32.419639     3.8700     0.3804     0.0852     0.2115 6.2589e-01     2.5977      2.416      3.503    15.3744 0.0000e+00
      2.491      0.105     0.8033      4.411     40.689  32.426652     3.8700     0.3613     0.0852     0.2115 6.3589e-01     2.5676      2.443      3.542    15.2650 0.0000e+00
      2.518      0.106     0.7070      3.551     40.754  32.417220     3.8700     0.3842     0.0852     0.2115 6.4916e-01     2.5075      2.469      3.581    15.1461 0.0000e+00
      2.544      0.107     0.6164      2.685     40.810  32.396751     3.8700     0.3079     0.0852     0.2115 5.9073e-01     2.5225      2.495      3.618    15.0300 0.0000e+00
      2.570      0.108     0.5300      1.841     40.887  32.383546     3.8700     0.3346     0.0852     0.3384 6.0647e-01     2.6277      2.521      3.656    14.9288 0.0000e+00
      2.597      0.109     0.4449      1.060     41.001  32.393883     3.8700     0.3079     0.0852     0.3384 6.0214e-01     2.4323      2.547      3.694    14.8448 0.0000e+00
      2.626      0.109     0.3586      0.383     41.145  32.430516     3.8700     0.3003     0.0852     0.3384 5.8372e-01     2.4925      2.575      3.735    14.7697 0.0000e+00
      2.655      0.109     0.2713     -0.163     41.300  32.483408     3.8700     0.4987     0.0852     0.3384 5.7578e-01     3.1688      2.604      3.776    14.6902 0.0000e+00
      2.684      0.108     0.1860     -0.564     41.453  32.542897     3.8700     0.5216     0.0852     0.2961 5.5297e-01     3.1087      2.632      3.817    14.5997 0.0000e+00
      2.711      0.106     0.1070     -0.829     41.615  32.612965     3.8700     0.4720     0.0852     0.2961 5.8422e-01     3.1838      2.659      3.856    14.5029 0.0000e+00
      2.737      0.104     0.0382     -0.987     41.805  32.704374     3.8700     0.5063     0.0852     0.2961 5.4203e-01     3.1838      2.684      3.894    14.4093 0.0000e+00
      2.763      0.102    -0.0174     -1.077     42.010  32.811793     3.8700     0.6208     0.0852     0.2961 5.3979e-01     3.6798      2.710      3.930    14.3257 0.0000e+00
      2.789      0.101    -0.0584     -1.124     42.234  32.942082     3.8700     0.5940     0.0852     0.4653 5.2214e-01     3.7249      2.735      3.966    14.2522 0.0000e+00
      2.814      0.099    -0.0855     -1.131     42.522  33.131962     3.8700     0.6169     0.0852     0.4653 5.2521e-01     3.6798      2.760      4.003    14.1832 0.0000e+00
      2.840      0.098    -0.1017     -1.099     42.945  33.430088     3.8700     0.6284     0.0852     0.4653 4.8983e-01     3.5897      2.785      4.039    14.1154 0.0000e+00
      2.864      0.098    -0.1111     -1.026     43.611  33.912000     3.8700     0.5788     0.0852     0.4653 5.0518e-01     3.9504      2.809      4.074    14.0524 0.0000e+00
      2.889      0.100    -0.1159     -0.911     44.589  34.621053     3.8700     0.5597     0.0852     0.4653 4.8601e-01     3.8301      2.833      4.109    14.0001 0.0000e+00
      2.913      0.102    -0.1167     -0.755     45.775  35.471051     3.9600     0.5368     0.0852     0.6345 4.8675e-01     3.9504      2.857      4.143    13.9597 0.0000e+00
      2.938      0.105    -0.1134     -0.562     46.936  36.282657     3.9600     0.5559     0.0852     0.6345 5.0518e-01     3.8903      2.881      4.179    13.9250 0.0000e+00
      2.966      0.108    -0.1059     -0.337     47.838  36.884091     3.9600     0.3690     0.0852     0.6345 4.7114e-01     3.1538      2.908      4.218    13.8856 0.0000e+00
      2.995      0.111    -0.0941     -0.095     48.400  37.225778     3.9600     0.3842     0.0852     0.6345 4.6879e-01     3.2740      2.937      4.260    13.8307 0.0000e+00
      3.025      0.113    -0.0780      0.149     48.717  37.388927     4.0500     0.3804     0.0852     0.3807 4.5022e-01     3.1989      2.966      4.302    13.7545 0.0000e+00
      3.054      0.113    -0.0581      0.387     48.882  37.444773     4.0500     0.3957     0.0852     0.3807 4.2172e-01     3.1838      2.995      4.344    13.6600 0.0000e+00
      3.083      0.113    -0.0348      0.613     48.952  37.429994     4.0500     0.3156     0.0852     0.3807 4.4652e-01     3.3642      3.024      4.385    13.5579 0.0000e+00
      3.111      0.113    -0.0096      0.820     48.996  37.392148     4.0500     0.3118     0.0852     0.3807 4.0651e-01     3.4995      3.051      4.426    13.4609 0.0000e+00
      3.140      0.112     0.0159      1.004     49.049  37.358776     4.2300     0.3079     0.0852     0.2961 3.9734e-01     3.4093      3.079      4.466    13.3759 0.0000e+00
      3.168      0.112     0.0408      1.165     49.108  37.332857     4.2300     0.3232     0.0852     0.2961 4.2725e-01     3.4394      3.107      4.507    13.3011 0.0000e+00
      3.197      0.111     0.0646      1.304     49.160  37.311440     4.2300     0.2927     0.0852     0.2961 4.0572e-01     4.3562      3.136      4.548    13.2301 0.0000e+00
      3.226      0.112     0.0864      1.422     49.208  37.292773     4.2300     0.2927     0.0852     0.2961 3.6736e-01     4.3111      3.164      4.589    13.1569 0.0000e+00
      3.254      0.112     0.1059      1.525     49.224  37.246128     4.2300     0.3346     0.0852     0.2961 3.7033e-01     4.4013      3.191      4.628    13.0807 0.0000e+00
      3.282      0.114     0.1229      1.612     49.120  37.095681     4.2300     0.3041     0.1278     0.2115 3.8669e-01     4.4464      3.218      4.668    13.0083 0.0000e+00
      3.310      0.116     0.1377      1.685     48.847  36.805272     4.2300     0.3194     0.1278     0.2115 3.7291e-01     5.4835      3.246      4.708    12.9457 0.0000e+00
      3.340      0.119     0.1503      1.744     48.495  36.449969     4.2300     0.3423     0.1278     0.2115 3.3817e-01     5.5135      3.275      4.750    12.8895 0.0000e+00
      3.371      0.121     0.1613      1.797     48.195  36.135070     4.2300     0.3194     0.1278     0.2115 3.6103e-01     5.5436      3.306      4.795    12.8287 0.0000e+00
      3.404      0.122     0.1709      1.848     47.917  35.843941     4.3200     0.3232     0.1278     0.1692 3.2804e-01     5.4684      3.338      4.841    12.7545 0.0000e+00
      3.436      0.123     0.1789      1.900     47.601  35.528652     4.3200     0.2011     0.1278     0.1692 3.4553e-01     7.1819      3.369      4.887    12.6677 0.0000e+00
      3.467      0.122     0.1856      1.956     47.323  35.241786     4.3200     0.2011     0.1278     0.1692 3.2218e-01     7.2270      3.400      4.932    12.5743 0.0000e+00
      3.498      0.121     0.1917      2.021     47.141  35.027655     4.3200     0.1744     0.1278     0.1692 3.1573e-01     7.1969      3.431      4.976    12.4816 0.0000e+00
      3.529      0.119     0.1975      2.104     47.024  34.868765     4.3200     0.1821     0.2130     0.2115 3.0171e-01     7.2119      3.460      5.019    12.3951 0.0000e+00
      3.559      0.117     0.2035      2.222     46.921  34.730664     4.3200     0.1286     0.2130     0.2115 3.0627e-01     8.8202      3.490      5.062    12.3128 0.0000e+00
      3.589      0.116     0.2099      2.398     46.803  34.586426     4.3200     0.1134     0.2130     0.2115 2.8298e-01     8.8051      3.520      5.105    12.2291 0.0000e+00
      3.618      0.114     0.2173      2.675     46.646  34.407491     4.3200     0.1210     0.2130     0.2115 2.8010e-01     8.9254      3.548      5.147    12.1459 0.0000e+00
      3.647      0.114     0.2268      3.121     46.440  34.179807     4.3200     0.1210     0.2556     0.0846 2.8029e-01     8.8652      3.576      5.187    12.0702 0.0000e+00
      3.675      0.115     0.2400      3.826     46.215  33.919897     4.3200     0.1248     0.2556     0.0846 2.8508e-01     9.1809      3.604      5.227    12.0046 0.0000e+00
      3.703      0.117     0.2596      4.932     45.958  33.621821     4.3200     0.1134     0.2556     0.0846 2.5959e-01     9.0907      3.631      5.267    11.9431 0.0000e+00
      3.733      0.121     0.2905      6.657     45.680  33.297187     4.3200     0.1248     0.2556     0.0846 2.6420e-01     9.1208      3.660      5.309    11.8758 0.0000e+00
      3.764      0.124     0.3400      9.306     45.477  33.023790     4.3200     0.1286     0.2556     0.0846 2.5684e-01     9.0907      3.691      5.353    11.7934 0.0000e+00
      3.796      0.128     0.4184     13.223     45.384  32.839617     4.2300     0.1325     0.2130     0.1269 2.3607e-01     5.5436      3.723      5.400    11.6909 0.0000e+00
      3.830      0.130     0.5410     18.716     45.342  32.713374     4.2300     0.1325     0.2130     0.1269 2.3276e-01     5.6338      3.757      5.448    11.5713 0.0000e+00
      3.865      0.132     0.7323     25.981     45.325  32.627234     4.2300     0.1363     0.2130     0.1269 2.4780e-01     5.5436      3.790      5.497    11.4392 0.0000e+00
      3.899      0.133     1.0260     34.985     45.333  32.578029     4.2300     0.1439     0.2130     0.1269 2.0857e-01     5.6037      3.824      5.546    11.3020 0.0000e+00
      3.933      0.133     1.4601     45.387     45.354  32.552636     3.8700     0.1706     0.1278     0.2115 2.2855e-01     4.8221      3.857      5.595    11.1749 0.0000e+00
      3.967      0.133     2.0689     56.568     45.376  32.536361     3.8700     0.1210     0.1278     0.2115 2.1988e-01     4.8071      3.890      5.642    11.0700 0.0000e+00
      4.000      0.134     2.8741     67.741     45.399  32.520905     3.8700     0.1515     0.1278     0.2115 1.9034e-01     4.7921      3.923      5.689    10.9889 0.0000e+00
      4.034      0.135     3.8722     78.096     45.417  32.502144     3.8700     0.1096     0.1278     0.2115 2.2069e-01     4.8823      3.956      5.737    10.9288 0.0000e+00
      4.068      0.136     5.0257     86.963     45.431  32.482995     3.7800     0.1210     0.0852     0.1269 2.2002e-01     4.8372      3.990      5.786    10.8848 0.0000e+00
      4.104      0.136     6.2665     93.943     45.443  32.470232     3.7800     0.1477     0.0852     0.1269 1.7201e-01     4.8372      4.025      5.837    10.8490 0.0000e+00
      4.140      0.136     7.5083     98.967     45.452  32.460451     3.7800     0.1363     0.0852     0.1269 1.7279e-01     4.8372      4.060      5.888    10.8142 0.0000e+00
      4.175      0.136     8.6612    102.224     45.456  32.451044     3.7800     0.1286     0.0852     0.1269 1.6649e-01     4.8672      4.094      5.938    10.7790 0.0000e+00
      4.209      0.135     9.6497    104.032     45.461  32.443463     3.7800     0.1401     0.1278     0.0846 1.6725e-01     4.8672      4.128      5.987    10.7476 0.0000e+00
      4.243      0.134    10.4284    104.725     45.466  32.435685     3.7800     0.1439     0.1278     0.0846 1.7510e-01     4.7921      4.161      6.035    10.7235 0.0000e+00
      4.277      0.133    10.9891    104.602     45.476  32.433557     3.7800     0.1515     0.1278     0.0846 1.4964e-01     4.8672      4.194      6.083    10.7062 0.0000e+00
      4.311      0.132    11.3535    103.906     45.495  32.440471     3.7800     0.1286     0.1278     0.0846 1.3215e-01     4.8522      4.227      6.132    10.6925 0.0000e+00
      4.345      0.131    11.5570    102.815     45.515  32.450351     3.7800     0.1172     0.1278     0.0846 1.2897e-01     5.1227      4.261      6.180    10.6798 0.0000e+00
      4.378      0.131    11.6369    101.442     45.530  32.457909     3.8700     0.1439     0.1278     0.1692 1.1617e-01     5.1077      4.294      6.228    10.6677 0.0000e+00
      4.411      0.131    11.6256     99.863     45.540  32.461200     3.8700     0.1363     0.1278     0.1692 1.4649e-01     5.0776      4.325      6.274    10.6578 0.0000e+00
      4.443      0.131    11.5499     98.161     45.546  32.461103     3.8700     0.1401     0.1278     0.1692 1.2667e-01     5.0025      4.357      6.320    10.6507 0.0000e+00
      4.476      0.131    11.4298     96.426     45.547  32.457591     3.8700     0.1286     0.1278     0.1692 1.2730e-01     5.0476      4.390      6.367    10.6459 0.0000e+00
      4.510      0.131    11.2782     94.727     45.547  32.453687     3.7800     0.1515     0.1278     0.1692 1.2010e-01     5.0175      4.423      6.415    10.6418 0.0000e+00
      4.545      0.131    11.1036     93.100     45.549  32.452311     3.7800     0.1439     0.1278     0.1692 1.1623e-01     5.1829      4.457      6.464    10.6377 0.0000e+00
      4.578      0.131    10.9155     91.565     45.558  32.457057     3.7800     0.1210     0.1278     0.1692 1.1775e-01     5.0326      4.490      6.512    10.6332 0.0000e+00
      4.612      0.131    10.7238     90.129     45.572  32.465230     3.7800     0.1210     0.1278     0.1692 1.1891e-01     5.0626      4.523      6.559    10.6285 0.0000e+00
      4.644      0.131    10.5358     88.795     45.577  32.467126     3.8700     0.1286     0.1278     0.1269 1.4867e-01     5.0025      4.555      6.606    10.6244 0.0000e+00
      4.677      0.131    10.3557     87.573     45.573  32.463253     3.8700     0.1134     0.1278     0.1269 1.1633e-01     4.9273      4.587      6.653    10.6212 0.0000e+00
      4.710      0.131    10.1855     86.467     45.571  32.460499     3.8700     0.1477     0.1278     0.1269 1.1602e-01     5.0776      4.619      6.700    10.6189 0.0000e+00
      4.744      0.131    10.0262     85.472     45.575  32.462088     3.8700     0.1592     0.1278     0.1269 1.1612e-01     5.1528      4.652      6.747    10.6171 0.0000e+00
      4.778      0.132     9.8782     84.578     45.580  32.464485     3.7800     0.1286     0.0852     0.1269 1.1605e-01     5.1077      4.685      6.795    10.6156 0.0000e+00
      4.812      0.132     9.7426     83.773     45.582  32.464367     3.7800     0.1325     0.0852     0.1269 1.1597e-01     5.0476      4.719      6.844    10.6143 0.0000e+00
      4.846      0.132     9.6198     83.050     45.580  32.461704     3.7800     0.1401     0.0852     0.1269 1.1623e-01     5.0326      4.752      6.892    10.6129 0.0000e+00
      4.880      0.131     9.5094     82.405     45.578  32.459746     3.7800     0.1019     0.0852     0.1269 1.1625e-01     4.9724      4.786      6.941    10.6114 0.0000e+00
      4.913      0.130     9.4103     81.839     45.582  32.461931     3.7800     0.1363     0.0852     0.1269 1.1597e-01     5.2580      4.818      6.989    10.6098 0.0000e+00
      4.946      0.129     9.3210     81.352     45.581  32.460920     3.7800     0.1210     0.1278     0.1269 1.1625e-01     5.1378      4.851      7.035    10.6084 0.0000e+00
      4.979      0.128     9.2408     80.935     45.564  32.448522     3.7800     0.1363     0.1278     0.1269 1.1617e-01     4.9875      4.882      7.082    10.6073 0.0000e+00
      5.011      0.127     9.1692     80.582     45.544  32.433315     3.7800     0.1286     0.1278     0.1269 1.1605e-01     5.1678      4.914      7.128    10.6066 0.0000e+00
      5.044      0.126     9.1064     80.284     45.536  32.427083     3.7800     0.1325     0.1278     0.1269 1.1623e-01     5.0476      4.946      7.174    10.6060 0.0000e+00
      5.076      0.126     9.0523     80.028     45.538  32.428166     3.7800     0.1134     0.0852     0.1692 1.1595e-01     5.1227      4.978      7.220    10.6054 0.0000e+00
      5.107      0.127     9.0060     79.801     45.540  32.428931     3.7800     0.1401     0.0852     0.1692 1.1628e-01     5.0476      5.009      7.265    10.6048 0.0000e+00
      5.139      0.128     8.9669     79.600     45.542  32.429582     3.7800     0.1668     0.0852     0.1692 1.1617e-01     5.0175      5.040      7.310    10.6042 0.0000e+00
      5.171      0.130     8.9338     79.431     45.545  32.430292     3.7800     0.0981     0.0852     0.1692 1.1628e-01     4.9574      5.072      7.356    10.6037 0.0000e+00
      5.205      0.131     8.9055     79.291     45.544  32.427291     3.7800     0.1134     0.0852     0.0846 1.1625e-01     5.0626      5.105      7.404    10.6033 0.0000e+00
      5.240      0.132     8.8804     79.165     45.541  32.423739     3.7800     0.1401     0.0852     0.0846 1.1620e-01     5.0326      5.139      7.453    10.6027 0.0000e+00
      5.274      0.133     8.8582     79.051     45.541  32.422648     3.7800     0.1477     0.0852     0.0846 1.1602e-01     5.1077      5.172      7.502    10.6014 0.0000e+00
      5.308      0.133     8.8398     78.950     45.550  32.427689     3.7800     0.1134     0.0852     0.0846 1.1612e-01     5.0927      5.206      7.550    10.5996 0.0000e+00
      5.342      0.134     8.8246     78.859     45.569  32.440204     3.7800     0.1439     0.0852     0.1269 1.1612e-01     5.0326      5.239      7.598    10.5977 0.0000e+00
      5.375      0.134     8.8110     78.774     45.587  32.451652     3.7800     0.1210     0.0852     0.1269 1.1610e-01     5.0776      5.272      7.645    10.5960 0.0000e+00
      5.409      0.136     8.7985     78.690     45.596  32.457162     3.7800     0.1477     0.0852     0.1269 1.1643e-01     5.3632      5.305      7.693    10.5947 0.0000e+00
      5.443      0.138     8.7875     78.609     45.600  32.458204     3.7800     0.1248     0.0852     0.1269 1.1607e-01     5.2580      5.339      7.743    10.5935 0.0000e+00
      5.479      0.141     8.7776     78.540     45.592  32.451095     3.7800     0.1439     0.0852     0.1269 1.1605e-01     5.2730      5.373      7.793    10.5922 0.0000e+00
      5.515      0.144     8.7685     78.488     45.576  32.437900     3.7800     0.1325     0.1278     0.1692 1.1600e-01     5.2580      5.409      7.844    10.5909 0.0000e+00
      5.553      0.147     8.7595     78.445     45.568  32.430942     3.7800     0.1134     0.1278     0.1692 1.1607e-01     5.0476      5.446      7.898    10.5894 0.0000e+00
      5.591      0.149     8.7508     78.400     45.571  32.432326     3.7800     0.1592     0.1278     0.1692 1.1633e-01     4.9273      5.484      7.953    10.5877 0.0000e+00
      5.630      0.151     8.7434     78.342     45.575  32.434502     3.7800     0.1134     0.1278     0.1692 1.1612e-01     5.0326      5.522      8.008    10.5859 0.0000e+00
      5.668      0.153     8.7379     78.273     45.570  32.430126     3.8700     0.1286     0.0852     0.1269 1.1628e-01     5.0626      5.559      8.063    10.5842 0.0000e+00
      5.707      0.154     8.7334     78.202     45.554  32.418033     3.8700     0.1210     0.0852     0.1269 1.1623e-01     5.0776      5.597      8.117    10.5828 0.0000e+00
      5.746      0.156     8.7286     78.133     45.540  32.406880     3.8700     0.1363     0.0852     0.1269 1.1633e-01     5.0476      5.635      8.173    10.5817 0.0000e+00
      5.786      0.158     8.7224     78.066     45.539  32.405572     3.8700     0.1363     0.0852     0.1269 1.1625e-01     5.1678      5.674      8.230    10.5808 0.0000e+00
      5.827      0.160     8.7149     78.009     45.552  32.413763     3.8700     0.1210     0.0852     0.2961 1.1623e-01     5.0626      5.714      8.287    10.5799 0.0000e+00
      5.868      0.162     8.7072     77.967     45.564  32.421754     3.8700     0.1134     0.0852     0.2961 1.1617e-01     4.9724      5.754      8.346    10.5792 0.0000e+00
      5.910      0.163     8.6996     77.941     45.568  32.423755     3.8700     0.1592     0.0852     0.2961 1.1625e-01     5.0025      5.796      8.406    10.5784 0.0000e+00
      5.953      0.162     8.6924     77.926     45.558  32.416339     3.8700     0.1515     0.0852     0.2961 1.1617e-01     5.0025      5.837      8.467    10.5775 0.0000e+00
      5.995      0.161     8.6862     77.911     45.537  32.401489     3.8700     0.1477     0.0852     0.2961 1.1625e-01     5.1378      5.879      8.526    10.5766 0.0000e+00
      6.036      0.160     8.6817     77.892     45.523  32.391088     3.7800     0.1019     0.1278     0.0846 1.1628e-01     5.0927      5.919      8.584    10.5758 0.0000e+00
      6.076      0.158     8.6790     77.874     45.522  32.390282     3.7800     0.1325     0.1278     0.0846 1.1617e-01     5.0776      5.958      8.641    10.5752 0.0000e+00
      6.115      0.156     8.6773     77.855     45.529  32.394897     3.7800     0.1439     0.1278     0.0846 1.1612e-01     5.0025      5.997      8.698    10.5747 0.0000e+00
      6.155      0.155     8.6757     77.833     45.534  32.398242     3.7800     0.1134     0.1278     0.0846 1.1623e-01     4.9875      6.036      8.754    10.5743 0.0000e+00
      6.194      0.154     8.6737     77.811     45.538  32.401207     3.7800     0.1401     0.1278     0.1269 1.1610e-01     5.3332      6.074      8.810    10.5740 0.0000e+00
      6.233      0.154     8.6717     77.791     45.549  32.408546     3.7800     0.1286     0.1278     0.1269 1.1628e-01     5.3782      6.112      8.865    10.5738 0.0000e+00
      6.272      0.153     8.6697     77.774     45.557  32.414294     3.7800     0.1286     0.1278     0.1269 1.1623e-01     5.3782      6.151      8.921    10.5737 0.0000e+00
      6.312      0.151     8.6672     77.753     45.554  32.412061     3.7800     0.1325     0.1278     0.1269 1.1620e-01     5.3181      6.190      8.977    10.5735 0.0000e+00
      6.350      0.150     8.6648     77.728     45.550  32.409175     3.7800     0.1058     0.1278     0.1692 1.1628e-01     5.0476      6.228      9.033    10.5734 0.0000e+00
      6.388      0.148     8.6627     77.701     45.555  32.412786     3.7800     0.1286     0.1278     0.1692 1.1628e-01     5.2430      6.265      9.087    10.5732 0.0000e+00
      6.425      0.146     8.6607     77.675     45.565  32.419898     3.7800     0.1286     0.1278     0.1692 1.1607e-01     5.0476      6.301      9.139    10.5731 0.0000e+00
      6.462      0.144     8.6584     77.650     45.571  32.424484     3.7800     0.1248     0.1278     0.1692 1.1612e-01     5.1227      6.337      9.192    10.5730 0.0000e+00
      6.499      0.141     8.6556     77.636     45.569  32.423808     3.7800     0.1248     0.0852     0.0846 1.1612e-01     5.2730      6.373      9.244    10.5730 0.0000e+00
      6.535      0.138     8.6526     77.638     45.560  32.417690     3.7800     0.1286     0.0852     0.0846 1.1612e-01     5.3332      6.408      9.295    10.5731 0.0000e+00
      6.570      0.134     8.6496     77.657     45.546  32.408458     3.7800     0.1401     0.0852     0.0846 1.1620e-01     5.3031      6.443      9.345    10.5732 0.0000e+00
      6.605      0.128     8.6468     77.701     45.536  32.401571     3.7800     0.1363     0.0852     0.0846 1.1623e-01     5.3632      6.477      9.394    10.5735 0.0000e+00
      6.638      0.121     8.6452     77.778     45.531  32.399155     3.7800     0.2049     0.0852     0.0846 1.1610e-01     5.7540      6.510      9.441    10.5739 0.0000e+00
      6.668      0.113     8.6453     77.888     45.531  32.400563     3.7800     0.1897     0.1278     0.1692 1.1605e-01     5.8292      6.539      9.485    10.5744 0.0000e+00
      6.696      0.104     8.6473     78.025     45.532  32.402212     3.7800     0.1706     0.1278     0.1692 1.1615e-01     5.6939      6.566      9.524    10.5750 0.0000e+00
      6.721      0.096     8.6521     78.171     45.528  32.400580     3.7800     0.2011     0.1278     0.1692 1.1610e-01     5.8292      6.591      9.559    10.5758 0.0000e+00
      6.743      0.087     8.6604     78.309     45.520  32.395233     3.7800     0.1286     0.1278     0.1692 1.1605e-01     6.7310      6.613      9.591    10.5769 0.0000e+00
      6.764      0.080     8.6724     78.429     45.515  32.392666     3.7800     0.1210     0.0852     0.1269 1.1617e-01     6.6258      6.633      9.621    10.5783 0.0000e+00
      6.784      0.073     8.6873     78.529     45.524  32.400114     3.7800     0.1096     0.0852     0.1269 1.1610e-01     6.6708      6.653      9.649    10.5797 0.0000e+00
      6.802      0.067     8.7034     78.601     45.538  32.411643     3.7800     0.1248     0.0852     0.1269 1.1628e-01     6.7610      6.670      9.674    10.5807 0.0000e+00
      6.818      0.061     8.7186     78.641     45.551  32.422408     3.7800     0.1859     0.0852     0.1269 1.1617e-01     9.1508      6.686      9.698    10.5813 0.0000e+00
      6.833      0.056     8.7319     78.655     45.555  32.427356     3.7800     0.1706     0.1278     0.0846 1.1623e-01     9.0606      6.701      9.719    10.5819 0.0000e+00
      6.846      0.051     8.7428     78.648     45.547  32.423848     3.7800     0.2278     0.1278     0.0846 1.1623e-01     9.1658      6.714      9.738    10.5830 0.0000e+00
      6.858      0.047     8.7504     78.626     45.542  32.422829     3.7800     0.1782     0.1278     0.0846 1.1617e-01     9.1508      6.725      9.755    10.5848 0.0000e+00
      6.869      0.043     8.7545     78.592     45.544  32.427989     3.7800     0.1935     0.1278     0.0846 1.1607e-01     8.2340      6.736      9.770    10.5868 0.0000e+00
      6.879      0.041     8.7557     78.546     45.540  32.428821     3.7800     0.1134     0.1278     0.0846 1.1620e-01     7.9033      6.746      9.784    10.5888 0.0000e+00
      6.889      0.039     8.7545     78.491     45.525  32.421588     3.7800     0.1325     0.1278     0.0846 1.1620e-01     7.9033      6.756      9.798    10.5911 0.0000e+00
      6.898      0.038     8.7514     78.436     45.513  32.416242     3.7800     0.1325     0.1278     0.0846 1.1628e-01     8.0236      6.765      9.812    10.5940 0.0000e+00
      6.908      0.038     8.7469     78.383     45.516  32.419278     3.7800     0.1515     0.1278     0.0846 1.1620e-01     7.8432      6.774      9.826    10.5977 0.0000e+00
      6.917      0.038     8.7408     78.332     45.526  32.427546     3.7800     0.1363     0.1278     0.0846 1.1620e-01     6.7310      6.784      9.839    10.6020 0.0000e+00
      6.927      0.038     8.7339     78.294     45.536  32.435330     3.7800     0.1363     0.1278     0.0846 1.1610e-01     6.7009      6.793      9.852    10.6062 0.0000e+00
      6.936      0.039     8.7271     78.275     45.542  32.440744     3.7800     0.1439     0.1278     0.0846 1.1597e-01     6.7610      6.802      9.866    10.6092 0.0000e+00
      6.946      0.040     8.7208     78.273     45.546  32.445233     3.7800     0.1210     0.1278     0.0846 1.1623e-01     6.6708      6.812      9.880    10.6108 0.0000e+00
      6.956      0.040     8.7151     78.285     45.550  32.449993     3.7800     0.1325     0.1278     0.0846 1.1625e-01     5.8592      6.822      9.894    10.6115 0.0000e+00
      6.967      0.041     8.7108     78.300     45.550  32.452334     3.7800     0.1286     0.1278     0.1269 1.1617e-01     5.8141      6.832      9.909    10.6121 0.0000e+00
      6.978      0.042     8.7083     78.310     45.544  32.448919     3.7800     0.1248     0.1278     0.1269 1.1635e-01     5.8292      6.843      9.924    10.6134 0.0000e+00
      6.989      0.042     8.7077     78.310     45.534  32.442797     3.7800     0.1363     0.1278     0.1269 1.1617e-01     5.8442      6.854      9.940    10.6155 0.0000e+00
      7.000      0.042     8.7086     78.293     45.526  32.436298     3.7800     0.1363     0.1278     0.1269 1.1633e-01     5.3782      6.864      9.955    10.6180 0.0000e+00
      7.010      0.042     8.7098     78.257     45.516  32.427688     3.7800     0.1439     0.1704     0.1692 1.1612e-01     5.3482      6.875      9.971    10.6201 0.0000e+00
      7.021      0.040     8.7106     78.203     45.506  32.418632     3.7800     0.1477     0.1704     0.1692 1.1630e-01     5.3332      6.885      9.986    10.6214 0.0000e+00
      7.031      0.038     8.7105     78.143     45.499  32.410675     3.7800     0.1325     0.1704     0.1692 1.1610e-01     5.2730      6.896     10.001    10.6219 0.0000e+00
      7.042      0.035     8.7087     78.082     45.490  32.401695     3.7800     0.1401     0.1704     0.1692 1.1595e-01     5.0776      6.906     10.016    10.6213 0.0000e+00
      7.051      0.031     8.7050     78.027     45.488  32.397218     3.4200     0.1096     0.1704     0.8460 1.1623e-01     5.1077      6.915     10.029    10.6199 0.0000e+00
      7.059      0.026     8.6995     77.989     45.501  32.403972     3.4200     0.1363     0.1704     0.8460 1.1607e-01     5.0476      6.923     10.040    10.6176 0.0000e+00
      7.065      0.019     8.6933     77.973     45.515  32.411875     3.4200     0.1286     0.1704     0.8460 1.1605e-01     5.1077      6.928     10.049    10.6148 0.0000e+00
      7.069      0.012     8.6872     77.975     45.512  32.407194     3.4200     0.1554     0.1704     0.8460 1.1617e-01     5.1077      6.932     10.054    10.6116 0.0000e+00
      7.071      0.005     8.6817     77.984     45.500  32.396601     3.4200     0.1439     0.1704     0.8460 1.1615e-01     5.1829      6.934     10.058    10.6085 0.0000e+00
      7.072     -0.003     8.6780     77.986     45.499  32.393114     0.9000     0.1363     0.5112     2.3265 1.1610e-01     5.0626      6.935     10.058    10.6058 0.0000e+00
      7.070     -0.011     8.6768     77.974     45.506  32.395801     0.9000     0.1515     0.5112     2.3265 1.1617e-01     5.1378      6.934     10.056    10.6033 0.0000e+00
      7.067     -0.019     8.6776     77.946     45.516  32.401420     0.9000     0.1363     0.5112     2.3265 1.1617e-01     5.3031      6.930     10.052    10.6008 0.0000e+00
      7.061     -0.027     8.6790     77.907     45.527  32.407508     0.9000     0.1172     0.5112     2.3265 1.1600e-01     5.3482      6.925     10.043    10.5982 0.0000e+00
      7.053     -0.036     8.6798     77.860     45.535  32.411727     2.1600     0.1515     0.6816     2.2419 1.1620e-01     5.2279      6.917     10.032    10.5956 0.0000e+00
      7.043     -0.044     8.6789     77.813     45.536  32.411244     2.1600     0.1325     0.6816     2.2419 1.1633e-01     5.2881      6.906     10.016    10.5932 0.0000e+00
      7.030     -0.050     8.6762     77.773     45.524  32.401967     2.1600     0.1363     0.6816     2.2419 1.1625e-01     7.9183      6.894      9.998    10.5911 0.0000e+00
      7.015     -0.056     8.6722     77.745     45.507  32.389344     2.1600     0.1058     0.6816     2.2419 1.1623e-01     8.0236      6.880      9.978    10.5892 0.0000e+00
      6.999     -0.061     8.6674     77.730     45.497  32.381891     2.1600     0.1248     0.6816     2.5380 1.1602e-01     7.9484      6.864      9.956    10.5876 0.0000e+00
      6.983     -0.065     8.6624     77.720     45.503  32.385541     2.1600     0.1363     0.6816     2.5380 1.1600e-01     7.8883      6.848      9.932    10.5862 0.0000e+00
      6.966     -0.069     8.6582     77.710     45.519  32.397307     2.1600     0.1859     0.6816     2.5380 1.1617e-01     9.0757      6.831      9.908    10.5851 0.0000e+00
      6.948     -0.073     8.6553     77.699     45.533  32.408446     2.1600     0.1859     0.6816     2.5380 1.1623e-01     9.0757      6.814      9.882    10.5844 0.0000e+00
      6.930     -0.077     8.6536     77.691     45.550  32.421927     3.7800     0.2011     0.6390     0.9729 1.1615e-01     9.0606      6.795      9.856    10.5839 0.0000e+00
      6.910     -0.083     8.6526     77.686     45.569  32.437385     3.7800     0.1935     0.6390     0.9729 1.1590e-01     9.1208      6.776      9.828    10.5838 0.0000e+00
      6.888     -0.089     8.6514     77.683     45.574  32.443100     3.7800     0.1210     0.6390     0.9729 1.1607e-01     7.1969      6.755      9.797    10.5841 0.0000e+00
      6.865     -0.096     8.6500     77.681     45.568  32.440596     3.7800     0.1172     0.6390     0.9729 1.1600e-01     7.2420      6.732      9.764    10.5851 0.0000e+00
      6.840     -0.105     8.6487     77.686     45.565  32.441088     3.7800     0.1286     0.6390     0.9729 1.1623e-01     7.1668      6.707      9.729    10.5867 0.0000e+00
      6.813     -0.117     8.6478     77.704     45.566  32.444706     3.7800     0.1210     0.2982     0.3807 1.1612e-01     7.1819      6.681      9.690    10.5887 0.0000e+00
      6.783     -0.131     8.6470     77.740     45.572  32.452415     3.7800     0.1096     0.2982     0.3807 1.1633e-01     6.2049      6.652      9.648    10.5908 0.0000e+00
      6.750     -0.147     8.6463     77.784     45.581  32.462312     3.7800     0.1248     0.2982     0.3807 1.1620e-01     6.2199      6.619      9.601    10.5932 0.0000e+00
      6.711     -0.163     8.6463     77.829     45.575  32.461192     3.7800     0.1286     0.2982     0.3807 1.1620e-01     6.2049      6.581      9.545    10.5959 0.0000e+00
      6.666     -0.177     8.6477     77.872     45.550  32.444797     3.8700     0.1325     0.2556     0.3807 1.1612e-01     6.2650      6.537      9.481    10.5991 0.0000e+00
      6.615     -0.189     8.6509     77.907     45.523  32.424598     3.8700     0.3346     0.2556     0.3807 1.1610e-01    28.3894      6.487      9.409    10.6028 0.0000e+00
      6.562     -0.197     8.6550     77.925     45.513  32.415011     3.8700     0.3346     0.2556     0.3807 1.1620e-01    28.4495      6.435      9.333    10.6067 0.0000e+00
      6.509     -0.203     8.6593     77.922     45.516  32.413478     3.8700     0.3003     0.2556     0.3807 1.1612e-01    28.2992      6.383      9.258    10.6101 0.0000e+00
      6.458     -0.207     8.6638     77.896     45.517  32.411670     3.8700     0.2774     0.5112     0.7614 1.1600e-01    28.4796      6.332      9.185    10.6118 0.0000e+00
      6.407     -0.210     8.6680     77.854     45.520  32.413065     3.8700     0.3804     0.5112     0.7614 1.1617e-01    62.1621      6.283      9.113    10.6110 0.0000e+00
      6.355     -0.212     8.6706     77.809     45.527  32.418035     3.8700     0.3652     0.5112     0.7614 1.1615e-01    61.9968      6.232      9.039    10.6080 0.0000e+00
      6.299     -0.210     8.6709     77.773     45.531  32.419985     3.8700     0.3499     0.5112     0.7614 1.1597e-01    62.0118      6.177      8.959    10.6043 0.0000e+00
      6.240     -0.206     8.6686     77.746     45.532  32.419435     3.8700     0.3652     0.5112     0.7614 1.1620e-01    62.0268      6.119      8.876    10.6017 0.0000e+00
      6.184     -0.199     8.6641     77.727     45.536  32.420198     3.9600     0.2393     0.3834     0.3384 1.1605e-01    30.3132      6.064      8.795    10.6006 0.0000e+00
      6.133     -0.191     8.6592     77.718     45.542  32.422479     3.9600     0.2507     0.3834     0.3384 1.1615e-01    30.2832      6.014      8.723    10.6003 0.0000e+00
      6.088     -0.183     8.6552     77.723     45.550  32.426884     3.9600     0.2584     0.3834     0.3384 1.1600e-01    30.1930      5.971      8.660    10.5998 0.0000e+00
      6.048     -0.177     8.6525     77.742     45.556  32.430628     3.9600     0.2507     0.3834     0.3384 1.1612e-01    30.3283      5.931      8.602    10.5982 0.0000e+00
      6.007     -0.175     8.6509     77.772     45.555  32.430750     4.0500     0.1859     0.2982     0.2961 1.1605e-01    25.2932      5.891      8.544    10.5958 0.0000e+00
      5.964     -0.174     8.6505     77.805     45.549  32.427281     4.0500     0.1935     0.2982     0.2961 1.1623e-01    25.3082      5.848      8.482    10.5934 0.0000e+00
      5.917     -0.173     8.6513     77.843     45.542  32.423258     4.0500     0.2126     0.2982     0.2961 1.1620e-01    25.2481      5.802      8.416    10.5919 0.0000e+00
      5.869     -0.169     8.6534     77.885     45.534  32.417607     4.0500     0.1935     0.2982     0.2961 1.1625e-01    25.2331      5.755      8.347    10.5916 0.0000e+00
      5.822     -0.162     8.6566     77.927     45.518  32.404862     3.9600     0.1782     0.2130     0.1269 1.1615e-01    22.0166      5.710      8.281    10.5925 0.0000e+00
      5.781     -0.152     8.6600     77.958     45.504  32.393505     3.9600     0.1630     0.2130     0.1269 1.1612e-01    21.9565      5.669      8.222    10.5938 0.0000e+00
      5.745     -0.143     8.6640     77.978     45.505  32.392388     3.9600     0.1782     0.2130     0.1269 1.1605e-01    21.8813      5.634      8.172    10.5948 0.0000e+00
      5.714     -0.137     8.6688     77.983     45.513  32.397254     3.9600     0.2088     0.2130     0.1269 1.1600e-01    21.8813      5.604      8.127    10.5946 0.0000e+00
      5.684     -0.137     8.6737     77.970     45.525  32.405440     3.8700     0.1859     0.1704     0.1692 1.1592e-01    15.1629      5.574      8.085    10.5934 0.0000e+00
      5.652     -0.144     8.6775     77.943     45.542  32.419129     3.8700     0.1935     0.1704     0.1692 1.1600e-01    15.1328      5.543      8.040    10.5915 0.0000e+00
      5.617     -0.155     8.6801     77.911     45.555  32.430089     3.8700     0.2011     0.1704     0.1692 1.1630e-01    15.2380      5.509      7.989    10.5897 0.0000e+00
      5.576     -0.167     8.6809     77.887     45.550  32.429361     3.8700     0.1935     0.1704     0.1692 1.1612e-01    15.3432      5.469      7.931    10.5886 0.0000e+00
      5.530     -0.177     8.6795     77.879     45.540  32.424674     3.8700     0.1096     0.1704     0.1692 1.1620e-01    11.7510      5.423      7.865    10.5886 0.0000e+00
      5.479     -0.182     8.6762     77.890     45.535  32.422697     3.8700     0.1439     0.0852     0.0846 1.1617e-01    11.7059      5.373      7.793    10.5898 0.0000e+00
      5.427     -0.181     8.6721     77.915     45.536  32.422906     3.8700     0.1286     0.0852     0.0846 1.1638e-01    11.6608      5.322      7.719    10.5922 0.0000e+00
      5.377     -0.175     8.6688     77.952     45.535  32.421393     3.8700     0.1325     0.0852     0.0846 1.1612e-01    11.7059      5.273      7.648    10.5951 0.0000e+00
      5.333     -0.166     8.6675     77.997     45.537  32.421718     3.8700     0.1172     0.0852     0.0846 1.1605e-01     8.1889      5.230      7.585    10.5977 0.0000e+00
      5.295     -0.159     8.6683     78.045     45.552  32.431886     3.8700     0.1286     0.1704     0.1269 1.1605e-01     8.2189      5.192      7.531    10.5991 0.0000e+00
      5.260     -0.156     8.6711     78.094     45.566  32.442727     3.8700     0.1134     0.1704     0.1269 1.1605e-01     8.2340      5.158      7.482    10.5990 0.0000e+00
      5.225     -0.158     8.6755     78.142     45.567  32.445252     3.8700     0.1172     0.1704     0.1269 1.1612e-01     8.2490      5.124      7.432    10.5979 0.0000e+00
      5.187     -0.165     8.6807     78.191     45.566  32.448054     3.8700     0.1363     0.1704     0.1269 1.1630e-01     6.7911      5.087      7.378    10.5967 0.0000e+00
      5.144     -0.173     8.6862     78.242     45.568  32.451881     3.8700     0.1592     0.1278     0.1269 1.1623e-01     6.7460      5.044      7.316    10.5963 0.0000e+00
      5.095     -0.178     8.6914     78.291     45.556  32.445872     3.8700     0.1286     0.1278     0.1269 1.1612e-01     6.7310      4.996      7.247    10.5972 0.0000e+00
      5.043     -0.177     8.6963     78.332     45.542  32.436347     3.8700     0.1515     0.1278     0.1269 1.2023e-01     6.7310      4.946      7.173    10.5995 0.0000e+00
      4.993     -0.171     8.7012     78.365     45.537  32.432646     3.8700     0.1286     0.1278     0.1269 1.1610e-01     5.2881      4.896      7.102    10.6027 0.0000e+00
      4.948     -0.161     8.7062     78.386     45.540  32.433784     3.8700     0.1134     0.1278     0.0846 1.1617e-01     5.3332      4.853      7.038    10.6059 0.0000e+00
      4.911     -0.150     8.7111     78.395     45.550  32.440062     3.8700     0.1210     0.1278     0.0846 1.1602e-01     5.2881      4.816      6.985    10.6082 0.0000e+00
      4.878     -0.142     8.7156     78.393     45.558  32.445235     3.8700     0.1134     0.1278     0.0846 1.1605e-01     5.3031      4.784      6.939    10.6091 0.0000e+00
      4.848     -0.140     8.7193     78.382     45.559  32.446720     3.8700     0.1592     0.1278     0.0846 1.1612e-01     7.0165      4.754      6.896    10.6089 0.0000e+00
      4.817     -0.145     8.7218     78.363     45.560  32.448875     3.8700     0.1210     0.1278     0.0846 1.1610e-01     6.9865      4.724      6.851    10.6080 0.0000e+00
      4.782     -0.155     8.7229     78.343     45.556  32.448314     3.7800     0.1363     0.1278     0.0846 1.2309e-01     6.9414      4.689      6.801    10.6071 0.0000e+00
      4.741     -0.168     8.7228     78.330     45.547  32.444887     3.7800     0.1248     0.1278     0.0846 1.1625e-01     7.0165      4.649      6.743    10.6068 0.0000e+00
      4.694     -0.179     8.7215     78.333     45.544  32.445602     3.7800     0.1286     0.1278     0.0846 1.2115e-01     5.8893      4.604      6.677    10.6074 0.0000e+00
      4.643     -0.185     8.7190     78.347     45.548  32.450649     3.7800     0.1325     0.1278     0.0846 1.3215e-01     5.8592      4.553      6.604    10.6089 0.0000e+00
      4.590     -0.185     8.7162     78.363     45.552  32.453454     3.8700     0.1248     0.1278     0.0846 1.2985e-01     5.8292      4.501      6.529    10.6115 0.0000e+00
      4.539     -0.180     8.7142     78.378     45.554  32.454765     3.8700     0.1554     0.1278     0.0846 1.6105e-01     5.7239      4.451      6.456    10.6147 0.0000e+00
      4.493     -0.171     8.7139     78.390     45.556  32.454930     3.8700     0.1363     0.1278     0.0846 1.9853e-01     5.3031      4.406      6.391    10.6176 0.0000e+00
      4.453     -0.163     8.7151     78.395     45.550  32.450035     3.8700     0.1019     0.1278     0.0846 1.4719e-01     5.2881      4.367      6.334    10.6195 0.0000e+00
      4.417     -0.158     8.7168     78.390     45.545  32.446693     3.8700     0.1439     0.1278     0.1269 1.6091e-01     5.3632      4.332      6.282    10.6201 0.0000e+00
      4.382     -0.157     8.7186     78.367     45.545  32.447975     3.8700     0.1134     0.1278     0.1269 1.2897e-01     5.3031      4.297      6.233    10.6196 0.0000e+00
      4.345     -0.160     8.7201     78.330     45.545  32.450262     3.8700     0.1248     0.1278     0.1269 1.9054e-01     5.0175      4.261      6.180    10.6185 0.0000e+00
      4.303     -0.163     8.7208     78.291     45.547  32.454164     3.8700     0.1210     0.1278     0.1269 1.8256e-01     5.0476      4.220      6.120    10.6177 0.0000e+00
      4.257     -0.164     8.7202     78.255     45.547  32.456762     3.8700     0.1286     0.1278     0.2115 2.1680e-01     5.0025      4.175      6.055    10.6178 0.0000e+00
      4.209     -0.160     8.7174     78.217     45.542  32.454787     3.8700     0.1325     0.1278     0.2115 2.7094e-01     5.0476      4.128      5.987    10.6191 0.0000e+00
      4.164     -0.148     8.7128     78.171     45.538  32.451674     3.8700     0.1363     0.1278     0.2115 3.0428e-01     4.9574      4.084      5.923    10.6215 0.0000e+00
      4.125     -0.131     8.7078     78.119     45.543  32.454514     3.8700     0.1172     0.1278     0.2115 3.0441e-01     5.0175      4.046      5.867    10.6245 0.0000e+00
      4.095     -0.111     8.7033     78.062     45.547  32.456143     3.8700     0.1325     0.1278     0.2115 2.8329e-01     5.0927      4.015      5.824    10.6271 0.0000e+00
      4.072     -0.090     8.6988     77.999     45.534  32.445113     3.8700     0.1172     0.0852     0.1269 2.9516e-01     5.0776      3.993      5.791    10.6288 0.0000e+00
      4.054     -0.071     8.6936     77.931     45.516  32.430364     3.8700     0.1286     0.0852     0.1269 2.8341e-01     5.0175      3.976      5.767    10.6289 0.0000e+00
      4.041     -0.056     8.6880     77.862     45.503  32.419846     3.8700     0.1286     0.0852     0.1269 2.7071e-01     5.0776      3.962      5.747    10.6279 0.0000e+00
      4.029     -0.046     8.6820     77.806     45.497  32.414713     3.8700     0.1134     0.0852     0.1269 3.0139e-01     5.1378      3.951      5.731    10.6262 0.0000e+00
      4.020     -0.039     8.6754     77.770     45.503  32.417558     3.8700     0.1363     0.0852     0.1269 2.9975e-01     5.0776      3.942      5.718    10.6244 0.0000e+00
      4.012     -0.036     8.6681     77.749     45.509  32.421218     3.8700     0.1286     0.0852     0.1269 2.9248e-01     5.3332      3.935      5.707    10.6228 0.0000e+00
      4.005     -0.036     8.6608     77.736     45.512  32.422709     3.8700     0.1286     0.0852     0.1269 2.9516e-01     5.3031      3.927      5.696    10.6213 0.0000e+00
      3.997     -0.039     8.6548     77.731     45.518  32.426388     3.8700     0.1248     0.0852     0.1269 2.7474e-01     5.3332      3.920      5.685    10.6200 0.0000e+00
      3.988     -0.045     8.6510     77.736     45.522  32.429277     3.7800     0.1210     0.1278     0.1269 2.8298e-01     5.3181      3.911      5.672    10.6189 0.0000e+00
      3.977     -0.055     8.6488     77.749     45.519  32.428184     3.7800     0.1286     0.1278     0.1269 2.8035e-01     5.5286      3.900      5.656    10.6180 0.0000e+00
      3.963     -0.069     8.6475     77.762     45.514  32.426780     3.7800     0.1248     0.1278     0.1269 2.7089e-01     5.5286      3.886      5.637    10.6173 0.0000e+00
      3.945     -0.086     8.6470     77.767     45.518  32.432610     3.7800     0.1172     0.1278     0.1269 2.9242e-01     5.5887      3.869      5.612    10.6170 0.0000e+00
      3.923     -0.107     8.6476     77.766     45.525  32.443269     3.8700     0.1172     0.0852     0.0846 2.5673e-01     5.4985      3.847      5.580    10.6172 0.0000e+00
      3.895     -0.130     8.6489     77.757     45.521  32.449719     3.8700     0.1363     0.0852     0.0846 2.6134e-01     5.5436      3.819      5.539    10.6181 0.0000e+00
      3.859     -0.153     8.6499     77.735     45.515  32.457639     3.8700     0.1515     0.0852     0.0846 2.8613e-01     5.5286      3.784      5.488    10.6201 0.0000e+00
      3.815     -0.172     8.6498     77.687     45.517  32.473103     3.8700     0.1325     0.0852     0.0846 3.6985e-01     5.6338      3.741      5.425    10.6237 0.0000e+00
      3.763     -0.186     8.6484     77.594     45.525  32.492314     3.8700     0.1439     0.0852     0.0846 3.9433e-01     5.5436      3.691      5.353    10.6300 0.0000e+00
      3.709     -0.191     8.6454     77.425     45.535  32.512474     3.7800     0.1286     0.1278     0.0846 4.3683e-01     5.2580      3.637      5.275    10.6398 0.0000e+00
      3.654     -0.189     8.6403     77.137     45.551  32.535001     3.7800     0.1477     0.1278     0.0846 4.4778e-01     5.3482      3.584      5.197    10.6531 0.0000e+00
      3.604     -0.183     8.6319     76.694     45.589  32.573821     3.7800     0.1210     0.1278     0.0846 5.0168e-01     5.2279      3.534      5.126    10.6685 0.0000e+00
      3.560     -0.175     8.6185     76.079     45.656  32.635327     3.7800     0.1325     0.1278     0.0846 4.8317e-01     5.2730      3.491      5.063    10.6838 0.0000e+00
      3.520     -0.170     8.5970     75.296     45.742  32.716118     3.8700     0.1325     0.0852     0.1269 4.6081e-01     5.3332      3.452      5.007    10.6977 0.0000e+00
      3.483     -0.168     8.5626     74.365     45.852  32.821895     3.8700     0.1439     0.0852     0.1269 4.6615e-01     5.3632      3.415      4.953    10.7099 0.0000e+00
      3.443     -0.171     8.5111     73.306     45.989  32.959084     3.8700     0.1210     0.0852     0.1269 4.6373e-01     5.2430      3.377      4.897    10.7224 0.0000e+00
      3.399     -0.175     8.4399     72.125     46.145  33.124663     3.8700     0.1515     0.0852     0.1269 5.0881e-01     5.3031      3.333      4.835    10.7379 0.0000e+00
      3.351     -0.177     8.3492     70.806     46.295  33.299417     3.9600     0.1363     0.1704     0.0846 5.7316e-01     5.9494      3.286      4.766    10.7589 0.0000e+00
      3.300     -0.174     8.2407     69.292     46.406  33.454698     3.9600     0.1363     0.1704     0.0846 6.0898e-01     5.9795      3.236      4.693    10.7883 0.0000e+00
      3.251     -0.166     8.1157     67.462     46.382  33.507151     3.9600     0.1210     0.1704     0.0846 6.5241e-01     6.0546      3.188      4.624    10.8302 0.0000e+00
      3.207     -0.153     7.9745     65.123     46.167  33.395512     3.9600     0.1134     0.1704     0.0846 6.7784e-01     5.9494      3.146      4.562    10.8879 0.0000e+00
      3.171     -0.139     7.8156     62.068     45.942  33.232603     3.9600     0.1782     0.1704     0.0846 6.6054e-01     6.1748      3.110      4.510    10.9606 0.0000e+00
      3.141     -0.127     7.6341     58.195     45.882  33.157175     4.1400     0.1744     0.2130     0.1269 6.5568e-01     6.2500      3.081      4.468    11.0418 0.0000e+00
      3.115     -0.120     7.4189     53.671     45.980  33.194656     4.1400     0.1935     0.2130     0.1269 6.1430e-01     6.1899      3.055      4.430    11.1179 0.0000e+00
      3.089     -0.121     7.1529     49.006     46.191  33.339195     4.1400     0.2164     0.2130     0.1269 6.3783e-01     6.2951      3.030      4.394    11.1654 0.0000e+00
      3.062     -0.130     6.8165     44.910     46.474  33.573884     4.1400     0.1363     0.2130     0.1269 6.4410e-01     5.6338      3.003      4.355    11.1653 0.0000e+00
      3.030     -0.144     6.3959     42.018     46.756  33.852389     4.3200     0.1134     0.1278     0.2115 6.2060e-01     5.5286      2.971      4.309    11.1301 0.0000e+00
      2.992     -0.159     5.9037     40.660     46.981  34.126197     4.3200     0.1210     0.1278     0.2115 6.3852e-01     5.5586      2.934      4.255    11.0940 0.0000e+00
      2.947     -0.173     5.3924     40.746     47.107  34.351483     4.3200     0.1401     0.1278     0.2115 7.4650e-01     5.4684      2.890      4.191    11.0844 0.0000e+00
      2.896     -0.180     4.9385     41.771     47.120  34.501189     4.3200     0.1935     0.1278     0.2115 7.9454e-01     5.8442      2.840      4.120    11.1170 0.0000e+00
      2.844     -0.181     4.6122     42.945     47.046  34.585535     4.2300     0.1935     0.1278     0.2115 8.9191e-01     5.6939      2.789      4.045    11.1964 0.0000e+00
      2.793     -0.175     4.4505     43.402     46.913  34.623058     4.2300     0.1859     0.1278     0.2115 9.7016e-01     5.7991      2.739      3.973    11.3152 0.0000e+00
      2.747     -0.164     4.4449     42.445     46.726  34.617826     4.2300     0.1935     0.1278     0.2115 9.8482e-01     5.7540      2.694      3.908    11.4579 0.0000e+00
      2.709     -0.152     4.5411     39.752     46.505  34.576371     4.2300     0.2774     0.1278     0.2115 9.1528e-01     5.5586      2.656      3.853    11.6080 0.0000e+00
      2.675     -0.143     4.6539     35.435     46.269  34.511409     4.1400     0.2584     0.0852     0.2115 9.0657e-01     5.5436      2.624      3.805    11.7560 0.0000e+00
      2.645     -0.139     4.6895     29.948     46.050  34.453151     4.1400     0.2545     0.0852     0.2115 8.9017e-01     5.5436      2.593      3.761    11.9017 0.0000e+00
      2.613     -0.141     4.5735     23.932     45.902  34.439536     4.1400     0.2355     0.0852     0.2115 8.8940e-01     5.4985      2.563      3.717    12.0440 0.0000e+00
      2.579     -0.147     4.2729     18.027     45.824  34.460997     4.1400     0.3079     0.0852     0.2115 9.2850e-01     4.6267      2.529      3.668    12.1755 0.0000e+00
      2.541     -0.156     3.8009     12.748     45.755  34.473748     4.1400     0.3079     0.0852     0.2115 9.0185e-01     4.6718      2.492      3.614    12.2948 0.0000e+00
      2.497     -0.162     3.2063      8.406     45.650  34.457424     3.8700     0.3156     0.0852     0.2538 9.9536e-01     4.5967      2.449      3.552    12.4082 0.0000e+00
      2.451     -0.164     2.5577      5.118     45.507  34.419556     3.8700     0.3041     0.0852     0.2538 1.0694e+00     4.6267      2.404      3.486    12.5135 0.0000e+00
      2.404     -0.159     1.9240      2.848     45.353  34.381737     3.8700     0.3003     0.0852     0.2538 1.1779e+00     4.5366      2.358      3.420    12.6006 0.0000e+00
      2.361     -0.149     1.3594      1.445     45.227  34.361610     3.8700     0.3041     0.0852     0.2538 1.2459e+00     4.5967      2.315      3.358    12.6714 0.0000e+00
      2.323     -0.136     0.8961      0.694     45.123  34.341930     3.9600     0.3156     0.0852     0.2961 1.2513e+00     4.5516      2.278      3.305    12.7399 0.0000e+00
      2.292     -0.122     0.5457      0.380     45.015  34.303587     3.9600     0.2851     0.0852     0.2961 1.2763e+00     4.5516      2.248      3.260    12.8168 0.0000e+00
      2.266     -0.111     0.3039      0.347     44.896  34.254180     3.9600     0.3041     0.0852     0.2961 1.1872e+00     4.3712      2.223      3.224    12.9031 0.0000e+00
      2.243     -0.106     0.1546      0.504     44.768  34.196380     3.9600     0.3270     0.0852     0.2961 1.2423e+00     4.2660      2.200      3.191    12.9868 0.0000e+00
      2.220     -0.107     0.0745      0.807     44.628  34.130618     3.8700     0.3270     0.0852     0.3384 1.2127e+00     4.3562      2.177      3.158    13.0521 0.0000e+00
      2.196     -0.115     0.0407      1.240     44.451  34.045299     3.8700     0.3232     0.0852     0.3384 1.2083e+00     4.4163      2.153      3.123    13.1013 0.0000e+00
      2.167     -0.126     0.0367      1.813     44.208  33.933514     3.8700     0.3003     0.0852     0.3384 1.2067e+00     4.0857      2.125      3.082    13.1469 0.0000e+00
      2.133     -0.139     0.0527      2.549     43.916  33.812985     3.8700     0.2965     0.0852     0.3384 1.2440e+00     4.0556      2.092      3.034    13.1921 0.0000e+00
      2.094     -0.151     0.0840      3.464     43.595  33.695144     3.8700     0.3079     0.0852     0.1692 1.3054e+00     4.1458      2.054      2.979    13.2386 0.0000e+00
      2.051     -0.157     0.1288      4.537     43.267  33.588181     3.8700     0.3194     0.0852     0.1692 1.3753e+00     4.1157      2.012      2.917    13.2967 0.0000e+00
      2.006     -0.158     0.1878      5.711     42.946  33.493284     3.8700     0.3270     0.0852     0.1692 1.4976e+00     3.6498      1.967      2.853    13.3815 0.0000e+00
      1.962     -0.153     0.2634      6.923     42.628  33.404955     3.8700     0.2965     0.0852     0.1692 1.6209e+00     3.5746      1.924      2.790    13.5009 0.0000e+00
      1.921     -0.145     0.3570      8.124     42.326  33.333312     3.8700     0.3156     0.0852     0.1692 1.6522e+00     3.5295      1.884      2.732    13.6508 0.0000e+00
      1.886     -0.136     0.4663      9.274     42.063  33.288961     3.8700     0.3346     0.0852     0.2538 1.5992e+00     3.6798      1.850      2.683    13.8208 0.0000e+00
      1.856     -0.129     0.5851     10.347     41.840  33.266023     3.8700     0.3842     0.0852     0.2538 1.5919e+00     2.5826      1.820      2.640    14.0005 0.0000e+00
      1.829     -0.128     0.7069     11.351     41.645  33.256407     3.8700     0.3804     0.0852     0.2538 1.5614e+00     2.5225      1.793      2.601    14.1876 0.0000e+00
      1.800     -0.132     0.8266     12.315     41.481  33.259532     3.8700     0.3728     0.0852     0.2538 1.5635e+00     2.4925      1.765      2.560    14.3824 0.0000e+00
      1.768     -0.141     0.9403     13.282     41.363  33.274260     4.1400     0.3842     0.0852     0.2538 1.5947e+00     2.5225      1.734      2.515    14.5752 0.0000e+00
      1.732     -0.153     1.0457     14.296     41.283  33.294619     4.1400     0.3079     0.0852     0.2538 1.6336e+00     2.4624      1.698      2.463    14.7573 0.0000e+00
      1.689     -0.164     1.1434     15.387     41.216  33.320099     4.1400     0.3003     0.0852     0.2538 1.7177e+00     2.4624      1.657      2.403    14.9310 0.0000e+00
      1.643     -0.172     1.2367     16.557     41.133  33.349572     4.1400     0.3079     0.0852     0.2538 1.8814e+00     2.4474      1.611      2.336    15.0915 0.0000e+00
      1.594     -0.173     1.3305     17.778     41.027  33.379019     4.1400     0.3079     0.0426     0.2115 2.1157e+00     2.5225      1.563      2.267    15.2226 0.0000e+00
      1.545     -0.167     1.4292     19.015     40.913  33.412337     4.1400     0.4567     0.0426     0.2115 2.3621e+00     1.8011      1.515      2.198    15.3239 0.0000e+00
      1.501     -0.157     1.5351     20.254     40.813  33.458416     4.1400     0.4796     0.0426     0.2115 2.5861e+00     1.8011      1.472      2.135    15.4202 0.0000e+00
      1.462     -0.146     1.6477     21.495     40.737  33.529550     4.1400     0.5025     0.0426     0.2115 2.5654e+00     1.8462      1.434      2.080    15.5375 0.0000e+00
      1.430     -0.135     1.7638     22.745     40.683  33.628867     4.2300     0.4949     0.0426     0.2115 2.5610e+00     1.7860      1.402      2.033    15.6787 0.0000e+00
      1.401     -0.129     1.8804     24.018     40.620  33.729387     4.2300     0.4376     0.0426     0.2115 2.5261e+00     2.0566      1.373      1.992    15.8319 0.0000e+00
      1.372     -0.130     1.9962     25.340     40.542  33.810397     4.2300     0.4300     0.0426     0.2115 2.4595e+00     2.0265      1.346      1.952    15.9887 0.0000e+00
      1.342     -0.137     2.1112     26.751     40.500  33.901427     4.2300     0.4491     0.0426     0.2115 2.5427e+00     2.0716      1.316      1.909    16.1514 0.0000e+00
      1.308     -0.148     2.2258     28.279     40.518  34.032695     4.2300     0.4300     0.0426     0.2115 2.6372e+00     2.0265      1.283      1.861    16.3284 0.0000e+00
      1.269     -0.159     2.3412     29.915     40.546  34.187719     4.4100     0.6856     0.0426     0.4230 2.8936e+00     1.8311      1.244      1.804    16.5166 0.0000e+00
      1.224     -0.168     2.4609     31.621     40.535  34.334565     4.4100     0.6932     0.0426     0.4230 3.2603e+00     1.7560      1.200      1.741    16.6956 0.0000e+00
      1.176     -0.172     2.5895     33.363     40.478  34.458930     4.4100     0.7009     0.0426     0.4230 3.8809e+00     1.8311      1.153      1.672    16.8502 0.0000e+00
      1.127     -0.172     2.7292     35.142     40.388  34.554378     4.4100     0.6665     0.0426     0.4230 4.7635e+00     1.7560      1.105      1.603    16.9940 0.0000e+00
      1.081     -0.167     2.8772     36.986     40.276  34.616663     4.5000     1.3494     0.0426     0.5922 5.7912e+00     3.1388      1.060      1.538    17.1560 0.0000e+00
      1.040     -0.161     3.0290     38.931     40.151  34.646558     4.5000     1.3417     0.0426     0.5922 5.7787e+00     3.1838      1.019      1.479    17.3495 0.0000e+00
      1.003     -0.156     3.1818     40.988     40.019  34.642138     4.5000     1.3303     0.0426     0.5922 5.6828e+00     3.2139      0.983      1.426    17.5632 0.0000e+00
      0.968     -0.154     3.3370     43.137     39.886  34.608171     4.5000     1.3303     0.0426     0.5922 5.4565e+00     3.1087      0.949      1.376    17.7764 0.0000e+00
      0.931     -0.156     3.4984     45.344     39.752  34.555404     4.6800     1.6393     0.1278     1.2690 5.5317e+00     3.9804      0.913      1.325    17.9737 0.0000e+00
      0.892     -0.160     3.6700     47.576     39.608  34.491552     4.6800     1.6546     0.1278     1.2690 6.2245e+00     3.9203      0.875      1.269    18.1443 0.0000e+00
      0.849     -0.163     3.8538     49.810     39.457  34.431275     4.6800     1.6469     0.1278     1.2690 7.7185e+00     3.8752      0.832      1.207    18.2804 0.0000e+00
      0.802     -0.163     4.0479     52.062     39.313  34.390188     4.6800     1.6317     0.1278     1.2690 1.0786e+01     3.9053      0.787      1.141    18.3823 0.0000e+00
      0.756     -0.158     4.2484     54.405     39.191  34.379122     4.7700     2.1009     0.1278     1.9035 1.5773e+01     5.2430      0.742      1.076    18.4622 0.0000e+00
      0.714     -0.148     4.4505     56.982     39.106  34.410974     4.7700     2.0780     0.1278     1.9035 1.9636e+01     5.3933      0.700      1.015    18.5395 0.0000e+00
      0.677     -0.137     4.6508     59.988     39.077  34.498203     4.7700     2.0551     0.1278     1.9035 1.9339e+01     5.2279      0.664      0.963    18.6292 0.0000e+00
      0.647     -0.126     4.8502     63.624     39.129  34.656153     4.7700     2.0856     0.1278     1.9035 1.8146e+01     5.2730      0.634      0.920    18.7359 0.0000e+00
      0.620     -0.119     5.0554     68.065     39.282  34.897243     4.7700     2.0971     0.1278     1.9035 1.6600e+01     7.0917      0.608      0.882    18.8576 0.0000e+00
      0.594     -0.118     5.2798     73.421     39.557  35.242199     5.0400     2.0589     0.1704     3.5532 1.6260e+01     7.1668      0.583      0.845    18.9918 0.0000e+00
      0.567     -0.123     5.5415     79.693     40.002  35.741423     5.0400     2.0780     0.1704     3.5532 1.6197e+01     7.2270      0.556      0.806    19.1336 0.0000e+00
      0.537     -0.131     5.8599     86.773     40.651  36.442883     5.0400     2.0818     0.1704     3.5532 1.7371e+01     7.3171      0.526      0.763    19.2738 0.0000e+00
      0.502     -0.141     6.2514     94.481     41.496  37.357370     5.0400     2.2725     0.1704     3.5532 2.0972e+01     8.9554      0.492      0.713    19.4051 0.0000e+00
      0.462     -0.149     6.7255    102.651     42.461  38.425720     5.3100     2.2573     0.2130     6.8949 2.8012e+01     8.7300      0.453      0.657    19.5269 0.0000e+00
      0.420     -0.152     7.2803    111.254     43.438  39.548576     5.3100     2.2573     0.2130     6.8949 3.8022e+01     8.8352      0.412      0.597    19.6496 0.0000e+00
      0.377     -0.149     7.9021    120.422     44.358  40.651000     5.3100     2.2420     0.2130     6.8949 5.3446e+01     8.9254      0.369      0.535    19.7931 0.0000e+00
      0.335     -0.140     8.5704    130.314     45.152  41.652579     5.3100     2.7761     0.2130     6.8949 7.4154e+01    17.3873      0.329      0.477    19.9760 0.0000e+00
      0.299     -0.126     9.2669    140.962     45.739  42.457872     5.6700     2.7494     0.2556    10.7019 8.4059e+01    17.4024      0.293      0.425    20.2067 0.0000e+00
      0.269     -0.111     9.9881    152.207     46.037  42.966622     5.6700     2.7456     0.2556    10.7019 8.1931e+01    17.4024      0.264      0.382    20.4802 0.0000e+00
      0.245     -0.097    10.7475    163.684     45.994  43.108455     5.6700     2.7723     0.2556    10.7019 7.6345e+01    17.3723      0.240      0.349    20.7809 0.0000e+00
      0.226     -0.085    11.5621    174.816     45.702  42.952903     5.6700     2.8638     0.2556    10.7019 6.8783e+01    21.4755      0.221      0.321    21.0895 0.0000e+00
      0.208     -0.076    12.4391    184.841     45.348  42.676434     5.6700     2.8638     0.2556    10.7019 6.5586e+01    21.4605      0.204      0.295    21.3847 0.0000e+00
      0.190     -0.068    13.3698    192.911     45.136  42.488634     6.9300     2.8829     0.4260    17.8506 7.3656e+01    21.3102      0.186      0.270    21.6446 0.0000e+00
      0.171     -0.061    14.3286    198.255     45.186  42.529611     6.9300     2.8676     0.4260    17.8506 1.0067e+02    21.5056      0.168      0.244    21.8489 0.0000e+00
      0.154     -0.053    15.2712    200.454     45.402  42.735005     6.9300     2.9935     0.4260    17.8506 1.1220e+02    21.1298      0.151      0.220    21.9830 0.0000e+00
      0.141     -0.044    16.1337    199.634     45.672  43.012984     6.9300     2.9935     0.4260    17.8506 1.0970e+02    21.0847      0.138      0.200    22.0477 0.0000e+00
      0.132     -0.035    16.8391    196.406     45.982  43.354466     7.1100     3.0164     0.4260    19.7118 1.0188e+02    21.1900      0.129      0.187    22.0610 0.0000e+00
      0.126     -0.026    17.3116    191.692     46.323  43.749471     7.1100     3.0088     0.4260    19.7118 9.5019e+01    21.0847      0.123      0.179    22.0533 0.0000e+00
      0.122     -0.019    17.5054    186.485     46.692  44.188424     7.1100     2.8791     0.4260    19.7118 9.6980e+01    21.5958      0.119      0.173    22.0550 0.0000e+00
      0.118     -0.014    17.4269    181.616     47.039  44.616009     7.1100     2.8715     0.4260    19.7118 1.0067e+02    21.7310      0.116      0.168    22.0813 0.0000e+00
      0.116     -0.012    17.1291    177.671     47.289  44.948115     7.1100     2.8676     0.4686    19.9656 9.7318e+01    21.5807      0.113      0.165    22.1346 0.0000e+00
      0.114     -0.013    16.6941    174.945     47.441  45.174241     7.1100     2.8791     0.4686    19.9656 1.0135e+02    21.7160      0.111      0.162    22.2129 0.0000e+00
      0.112     -0.018    16.2111    173.447     47.535  45.328930     7.1100     3.0775     0.4686    19.9656 8.8041e+01    24.7822      0.109      0.159    22.3096 0.0000e+00
      0.109     -0.025    15.7561    172.975     47.581  45.425695     7.1100     3.0584     0.4686    19.9656 8.0642e+01    24.6920      0.107      0.155    22.4147 0.0000e+00
      0.104     -0.037    15.3833    173.205     47.573  45.466563     7.2000     3.0660     0.4686    20.1771 8.0188e+01    24.7220      0.102      0.148    22.5163 0.0000e+00
      0.095     -0.053    15.1211    173.756     47.507  45.450545     7.2000     3.0584     0.4686    20.1771 8.0712e+01    24.7371      0.093      0.135    22.6034 0.0000e+00
      0.082     -0.075    14.9709    174.282     47.386  45.385260     7.2000     3.0164     0.4686    20.1771 7.3225e+01    23.0837      0.080      0.116    22.6729 0.0000e+00
      0.063     -0.104    14.9131    174.547     47.242  45.310761     7.2000     3.0202     0.4686    20.1771 6.8514e+01    23.0236      0.061      0.089    22.7301 0.0000e+00
      0.036     -0.137    14.9178    174.401     47.100  45.260682     7.2000     2.9821     0.4686    20.1771 6.9898e+01    23.1138      0.035      0.052    22.7819 0.0000e+00
      0.000     -0.172    14.9507    173.744     46.914  45.199875     7.2000     3.0240     0.4686    19.7964 7.3130e+01    23.0236     -0.000     -0.000    22.8329 0.0000e+00
     -0.048     -0.206    14.9805    172.466     46.582  45.028910     7.2000     2.7418     0.4686    19.7964 1.0646e+02    21.2200     -0.048     -0.069    22.8881 0.0000e+00
     -0.109     -0.235    14.9843    170.408     45.925  44.567459     7.2000     2.7646     0.4686    19.7964 2.7253e+02    21.0547     -0.107     -0.155    22.9572 0.0000e+00
     -0.178     -0.257    14.9454    167.434     44.632  43.498285     7.2000     2.7685     0.4686    19.7964 4.6817e+02    21.1599     -0.174     -0.253    23.0537 0.0000e+00
     -0.250     -0.268    14.8532    163.563     42.303  41.397577     7.0200     2.7685     0.4260    19.5003 5.2933e+02    21.1449     -0.246     -0.356    23.1860 0.0000e+00
     -0.322     -0.268    14.6987    159.002     38.406  37.709121     7.0200     1.6355     0.4260    19.5003 5.3932e+02    17.3573     -0.316     -0.459    23.3545 0.0000e+00
     -0.391     -0.257    14.4698    154.102     32.025  31.512753     7.0200     1.6278     0.4260    19.5003 5.3465e+02    17.3873     -0.384     -0.556    23.5563 0.0000e+00
     -0.455     -0.239    14.1590    149.320     23.991  23.632902     7.0200     1.6317     0.4260    19.5003 4.7463e+02    17.4174     -0.446     -0.647    23.7792 0.0000e+00
     -0.511     -0.216    13.7764    145.102     17.525  17.269779     6.6600     1.6736     0.2982    17.1738 4.0712e+02    17.3873     -0.502     -0.727    23.9942 0.0000e+00
     -0.558     -0.193    13.3475    141.759     14.162  13.956762     6.6600    -0.1231     0.2982    17.1738 5.1258e+02    -0.3933     -0.547     -0.793    24.1716 0.0000e+00
     -0.594     -0.171    12.9045    139.417     13.358  13.160446     6.6600    -0.0888     0.2982    17.1738 3.6904e+02    -0.4534     -0.583     -0.845    24.2987 0.0000e+00
     -0.622     -0.152    12.4852    137.954     14.870  14.642774     6.6600    -0.1384     0.2982    17.1738 2.6471e+02    -0.5136     -0.610     -0.885    24.3738 0.0000e+00
     -0.643     -0.140    12.1254    137.047     18.028  17.744643    -0.0900    -0.1155     0.2130     6.9372 1.7449e+02    -0.3933     -0.631     -0.915    24.3997 0.0000e+00
     -0.659     -0.136    11.8475    136.686     19.840  19.524967    -0.0900    -0.1422     0.2130     6.9372 1.1407e+02    -0.4384     -0.646     -0.937    24.3880 0.0000e+00
     -0.670 -9.990e-29    11.6581 -9.990e-29 -9.990e-29 -9.990e-29    -0.0900 -9.990e-29     0.2130     6.9372 7.5700e+01 -9.990e-29     -0.657     -0.953    24.3554 0.0000e+00
     -0.677 -9.990e-29    11.5437 -9.990e-29 -9.990e-29 -9.990e-29    -0.0900 -9.990e-29     0.2130     6.9372 6.9776e+01 -9.990e-29     -0.664     -0.964    24.3167 0.0000e+00
     -0.682 -9.990e-29    11.4743 -9.990e-29 -9.990e-29 -9.990e-29    -0.0900 -9.990e-29     0.2130     6.9372 6.3566e+01 -9.990e-29     -0.669     -0.970    24.2850 0.0000e+00
     -0.683 -9.990e-29    11.4466 -9.990e-29 -9.990e-29 -9.990e-29     0.0000 -9.990e-29     0.1704     0.0000 5.8528e+01 -9.990e-29     -0.670     -0.972    24.2726 0.0000e+00
