* Sea-Bird SBE19plus  Data File:
* FileName = C:\R\Reservoirs\Data\DataNotYetUploadedToEDI\Raw_CTD\RawDownloads\062623_fcr50_S8188_0012.hex
* Software version 2.8.0.119
* Temperature SN = 8188
* Conductivity SN = 8188
* System UpLoad Time = Jul 03 2023 16:33:41
* <ApplicationData>
* <Seaterm232>
* <SoftwareVersion>2.8.0.119</SoftwareVersion>
* <BuildDate>07-Nov-2018</BuildDate>
* </Seaterm232>
* </ApplicationData>
* <InstrumentState>
* <HardwareData DeviceType='SBE19plus' SerialNumber='01908188'>
*
*    <Manufacturer>Sea-Bird Electronics, Inc.</Manufacturer>
*
*    <FirmwareVersion>3.1.8</FirmwareVersion>
*
*    <FirmwareDate>Mar  9 2016 16:22:29</FirmwareDate>
*
*    <CommandSetVersion>1.4</CommandSetVersion>
*
*    <PCBAssembly PCBSerialNum='260079' AssemblyNum='41054K'/>
*
*    <PCBAssembly PCBSerialNum='260083' AssemblyNum='41059E'/>
*
*    <PCBAssembly PCBSerialNum='260085' AssemblyNum='41606B'/>
*
*    <PCBAssembly PCBSerialNum='260081' AssemblyNum='41967C'/>
*
*    <MfgDate>30 Mar 2022</MfgDate>
*
*    <InternalSensors>
*
*       <Sensor id='Main Temperature'>
*
*          <type>temperature0</type>
*
*          <SerialNumber>01908188</SerialNumber>
*
*       </Sensor>
*
*       <Sensor id='Main Conductivity'>
*
*          <type>conductivity-0</type>
*
*          <SerialNumber>01908188</SerialNumber>
*
*       </Sensor>
*
*       <Sensor id='Main Pressure'>
*
*          <type>strain-0</type>
*
*          <SerialNumber>12220741</SerialNumber>
*
*       </Sensor>
*
*    </InternalSensors>
*
*    <ExternalSensors>
*
*       <Sensor id='volt 0'>
*
*          <type>CHL</type>
*
*          <SerialNumber>FLNTURT-7096</SerialNumber>
*
*       </Sensor>
*
*       <Sensor id='volt 1'>
*
*          <type>NTU</type>
*
*          <SerialNumber>FLNTURT-7096</SerialNumber>
*
*       </Sensor>
*
*       <Sensor id='volt 2'>
*
*          <type>OXY</type>
*
*          <SerialNumber>43-4269</SerialNumber>
*
*       </Sensor>
*
*       <Sensor id='volt 3'>
*
*          <type>not assigned</type>
*
*          <SerialNumber>not assigned</SerialNumber>
*
*       </Sensor>
*
*       <Sensor id='volt 4'>
*
*          <type>PAR</type>
*
*          <SerialNumber>PARLOGICSW-2209</SerialNumber>
*
*       </Sensor>
*
*       <Sensor id='volt 5'>
*
*          <type>not assigned</type>
*
*          <SerialNumber>not assigned</SerialNumber>
*
*       </Sensor>
*
*       <Sensor id='serial'>
*
*          <type>WETLABS</type>
*
*          <SerialNumber>FL3-7350</SerialNumber>
*
*       </Sensor>
*
*    </ExternalSensors>
*
* </HardwareData>
* <StatusData DeviceType='SBE19plus' SerialNumber='01908188'>
*
*    <DateTime>2023-07-03T16:29:20</DateTime>
*
*    <LoggingState>not logging</LoggingState>
*
*    <EventSummary numEvents='0'/>
*
*    <Power>
*
*       <vMain>12.2</vMain>
*
*       <vLith>8.8</vLith>
*
*       <iMain>61.8</iMain>
*
*       <iPump>48.2</iPump>
*
*       <iExt01>22.4</iExt01>
*
*       <iExt2345>20.3</iExt2345>
*
*       <iSerial>45.4</iSerial>
*
*    </Power>
*
*    <MemorySummary>
*
*       <Bytes>665325</Bytes>
*
*       <Samples>26613</Samples>
*
*       <SamplesFree>2605312</SamplesFree>
*
*       <SampleLength>25</SampleLength>
*
*       <Profiles>25</Profiles>
*
*    </MemorySummary>
*
* </StatusData>
* <ConfigurationData DeviceType='SBE19plus' SerialNumber='01908188'>
*
*    <ProfileMode>
*
*       <ScansToAverage>1</ScansToAverage>
*
*       <MinimumCondFreq>5</MinimumCondFreq>
*
*       <PumpDelay>40</PumpDelay>
*
*       <AutoRun>no</AutoRun>
*
*       <IgnoreSwitch>no</IgnoreSwitch>
*
*    </ProfileMode>
*
*    <Battery>
*
*       <Type>alkaline</Type>
*
*       <CutOff>7.5</CutOff>
*
*    </Battery>
*
*    <DataChannels>
*
*       <ExtVolt0>yes</ExtVolt0>
*
*       <ExtVolt1>yes</ExtVolt1>
*
*       <ExtVolt2>yes</ExtVolt2>
*
*       <ExtVolt3>no</ExtVolt3>
*
*       <ExtVolt4>yes</ExtVolt4>
*
*       <ExtVolt5>no</ExtVolt5>
*
*       <SBE38>no</SBE38>
*
*       <WETLABS>yes</WETLABS>
*
*       <OPTODE>no</OPTODE>
*
*       <SBE63>no</SBE63>
*
*       <SeaFET>no</SeaFET>
*
*       <GTD>no</GTD>
*
*    </DataChannels>
*
*    <EchoCharacters>yes</EchoCharacters>
*
*    <OutputExecutedTag>yes</OutputExecutedTag>
*
*    <OutputFormat>raw HEX</OutputFormat>
*
* </ConfigurationData>
* <CalibrationCoefficients DeviceType='SBE19plus' SerialNumber='01908188'>
*
*    <Calibration format='TEMP1' id='Main Temperature'>
*
*       <SerialNum>01908188</SerialNum>
*
*       <CalDate>21-Aug-22</CalDate>
*
*       <TA0>1.265284e-03</TA0>
*
*       <TA1>2.691806e-04</TA1>
*
*       <TA2>-5.655711e-07</TA2>
*
*       <TA3>1.602369e-07</TA3>
*
*       <TOFFSET>0.000000e+00</TOFFSET>
*
*    </Calibration>
*
*    <Calibration format='WBCOND0' id='Main Conductivity'>
*
*       <SerialNum>01908188</SerialNum>
*
*       <CalDate>21-Aug-22</CalDate>
*
*       <G>-1.009562e+00</G>
*
*       <H>1.439229e-01</H>
*
*       <I>-4.343583e-04</I>
*
*       <J>5.328694e-05</J>
*
*       <CPCOR>-9.570000e-08</CPCOR>
*
*       <CTCOR>3.250000e-06</CTCOR>
*
*       <CSLOPE>1.000000e+00</CSLOPE>
*
*    </Calibration>
*
*    <Calibration format='STRAIN0' id='Main Pressure'>
*
*       <SerialNum>12220741</SerialNum>
*
*       <CalDate>11-Aug-22</CalDate>
*
*       <PA0>1.627942e-01</PA0>
*
*       <PA1>4.835849e-04</PA1>
*
*       <PA2>-3.975488e-12</PA2>
*
*       <PTCA0>5.244803e+05</PTCA0>
*
*       <PTCA1>2.817194e+01</PTCA1>
*
*       <PTCA2>-5.842684e-01</PTCA2>
*
*       <PTCB0>2.522087e+01</PTCB0>
*
*       <PTCB1>5.750000e-04</PTCB1>
*
*       <PTCB2>0.000000e+00</PTCB2>
*
*       <PTEMPA0>-5.709556e+01</PTEMPA0>
*
*       <PTEMPA1>5.248567e+01</PTEMPA1>
*
*       <PTEMPA2>-2.281498e-01</PTEMPA2>
*
*       <POFFSET>-4.700000e-02</POFFSET>
*
*       <PRANGE>1.600000e+02</PRANGE>
*
*    </Calibration>
*
*    <Calibration format='VOLT0' id='Volt 0'>
*
*       <OFFSET>-4.657200e-02</OFFSET>
*
*       <SLOPE>1.248989e+00</SLOPE>
*
*    </Calibration>
*
*    <Calibration format='VOLT0' id='Volt 1'>
*
*       <OFFSET>-4.600800e-02</OFFSET>
*
*       <SLOPE>1.249849e+00</SLOPE>
*
*    </Calibration>
*
*    <Calibration format='VOLT0' id='Volt 2'>
*
*       <OFFSET>-4.668000e-02</OFFSET>
*
*       <SLOPE>1.250379e+00</SLOPE>
*
*    </Calibration>
*
*    <Calibration format='VOLT0' id='Volt 3'>
*
*       <OFFSET>-4.643200e-02</OFFSET>
*
*       <SLOPE>1.251002e+00</SLOPE>
*
*    </Calibration>
*
*    <Calibration format='VOLT0' id='Volt 4'>
*
*       <OFFSET>-4.606100e-02</OFFSET>
*
*       <SLOPE>1.249962e+00</SLOPE>
*
*    </Calibration>
*
*    <Calibration format='VOLT0' id='Volt 5'>
*
*       <OFFSET>-4.642700e-02</OFFSET>
*
*       <SLOPE>1.248530e+00</SLOPE>
*
*    </Calibration>
*
*    <Calibration format='FREQ0' id='external frequency channel'>
*
*       <EXTFREQSF>1.000018e+00</EXTFREQSF>
*
*    </Calibration>
*
* </CalibrationCoefficients>
* <EventCounters DeviceType='SBE19plus' SerialNumber='01908188'>
*
*    <EventSummary numEvents='0'/>
*
* </EventCounters></InstrumentState>
* <Headers>
*
* cast  12 27 Jun 2023 15:03:14 samples 12695 to 13543, avg = 1, stop = mag switch
*
# nquan = 16
# nvalues = 849                         
# units = specified
# name 0 = depFM: Depth [fresh water, m]
# name 1 = dz/dtM: Descent Rate [m/s]
# name 2 = sbeox0Mg/L: Oxygen, SBE 43 [mg/l]
# name 3 = sbeox0PS: Oxygen, SBE 43 [% saturation]
# name 4 = specc: Specific Conductance [uS/cm]
# name 5 = c0uS/cm: Conductivity [uS/cm]
# name 6 = wetCDOM: Fluorescence, WET Labs CDOM [mg/m^3]
# name 7 = flECO-AFL: Fluorescence, WET Labs ECO-AFL/FL [mg/m^3]
# name 8 = flECO-AFL1: Fluorescence, WET Labs ECO-AFL/FL, 2 [mg/m^3]
# name 9 = flECO-AFL2: Fluorescence, WET Labs ECO-AFL/FL, 3 [mg/m^3]
# name 10 = par/sat/log: PAR/Logarithmic, Satlantic
# name 11 = turbWETntu0: Turbidity, WET Labs ECO [NTU]
# name 12 = prdM: Pressure, Strain Gauge [db]
# name 13 = prdE: Pressure, Strain Gauge [psi]
# name 14 = tv290C: Temperature [ITS-90, deg C]
# name 15 = flag:  0.000e+00
# span 0 =     -0.729,      4.617       
# span 1 =     -0.179,      0.161       
# span 2 =     0.0621,    17.4728       
# span 3 =      0.618,    207.702       
# span 4 =      0.278,     49.428       
# span 5 =   0.263717,  48.571650       
# span 6 =    -4.5000,     7.0200       
# span 7 =    -0.1346,     4.9047       
# span 8 =    -2.1300,     0.5112       
# span 9 =    -2.0304,    21.1500       
# span 10 = 1.1585e-01, 7.5317e+02      
# span 11 =    -0.6037,    25.2481      
# span 12 =     -0.715,      4.528      
# span 13 =     -1.037,      6.567      
# span 14 =    10.6076,    24.8060      
# span 15 = 0.0000e+00, 0.0000e+00      
# interval = seconds: 0.25
# start_time = Jun 27 2023 15:03:14 [Instrument's time stamp, header]
# bad_flag = -9.990e-29
# <Sensors count="10" >
#   <sensor Channel="1" >
#     <!-- Count, Temperature -->
#     <TemperatureSensor SensorID="58" >
#       <SerialNumber>8188</SerialNumber>
#       <CalibrationDate>21-Aug-22</CalibrationDate>
#       <A0>1.26528397e-003</A0>
#       <A1>2.69180636e-004</A1>
#       <A2>-5.65571102e-007</A2>
#       <A3>1.60236871e-007</A3>
#       <Slope>1.00000000</Slope>
#       <Offset>0.0000</Offset>
#     </TemperatureSensor>
#   </sensor>
#   <sensor Channel="2" >
#     <!-- Frequency 0, Conductivity -->
#     <ConductivitySensor SensorID="3" >
#       <SerialNumber>8188</SerialNumber>
#       <CalibrationDate>21-Aug-22</CalibrationDate>
#       <UseG_J>1</UseG_J>
#       <!-- Cell const and series R are applicable only for wide range sensors. -->
#       <SeriesR>0.0000</SeriesR>
#       <CellConst>2000.0000</CellConst>
#       <ConductivityType>0</ConductivityType>
#       <Coefficients equation="0" >
#         <A>0.00000000e+000</A>
#         <B>0.00000000e+000</B>
#         <C>0.00000000e+000</C>
#         <D>0.00000000e+000</D>
#         <M>0.0</M>
#         <CPcor>-9.57000000e-008</CPcor>
#       </Coefficients>
#       <Coefficients equation="1" >
#         <G>-1.00956200e+000</G>
#         <H>1.43922862e-001</H>
#         <I>-4.34358337e-004</I>
#         <J>5.32869425e-005</J>
#         <CPcor>-9.57000000e-008</CPcor>
#         <CTcor>3.2500e-006</CTcor>
#         <!-- WBOTC not applicable unless ConductivityType = 1. -->
#         <WBOTC>0.00000000e+000</WBOTC>
#       </Coefficients>
#       <Slope>1.00000000</Slope>
#       <Offset>0.00000</Offset>
#     </ConductivitySensor>
#   </sensor>
#   <sensor Channel="3" >
#     <!-- Count, Pressure, Strain Gauge -->
#     <PressureSensor SensorID="46" >
#       <SerialNumber>8188</SerialNumber>
#       <CalibrationDate>11-Aug-22</CalibrationDate>
#       <PA0>1.62794185e-001</PA0>
#       <PA1>4.83584930e-004</PA1>
#       <PA2>-3.97548787e-012</PA2>
#       <PTEMPA0>-5.70955636e+001</PTEMPA0>
#       <PTEMPA1>5.24856726e+001</PTEMPA1>
#       <PTEMPA2>-2.28149804e-001</PTEMPA2>
#       <PTCA0>5.24480263e+005</PTCA0>
#       <PTCA1>2.81719406e+001</PTCA1>
#       <PTCA2>-5.84268386e-001</PTCA2>
#       <PTCB0>2.52208750e+001</PTCB0>
#       <PTCB1>5.75000000e-004</PTCB1>
#       <PTCB2>0.00000000e+000</PTCB2>
#       <Offset>0.000000</Offset>
#     </PressureSensor>
#   </sensor>
#   <sensor Channel="4" >
#     <!-- A/D voltage 0, Fluorometer, WET Labs ECO-AFL/FL -->
#     <FluoroWetlabECO_AFL_FL_Sensor SensorID="20" >
#       <SerialNumber>FLNTURT-7096</SerialNumber>
#       <CalibrationDate>01-Sep-2022</CalibrationDate>
#       <ScaleFactor>5.00000000e+001</ScaleFactor>
#       <!-- Dark output -->
#       <Vblank>0.0680</Vblank>
#     </FluoroWetlabECO_AFL_FL_Sensor>
#   </sensor>
#   <sensor Channel="5" >
#     <!-- A/D voltage 1, Turbidity Meter, WET Labs, ECO-NTU -->
#     <TurbidityMeter SensorID="67" >
#       <SerialNumber>FLNTURT-7096</SerialNumber>
#       <CalibrationDate>01-Sep-2022</CalibrationDate>
#       <ScaleFactor>197.000000</ScaleFactor>
#       <!-- Dark output -->
#       <DarkVoltage>0.067000</DarkVoltage>
#     </TurbidityMeter>
#   </sensor>
#   <sensor Channel="6" >
#     <!-- A/D voltage 2, Oxygen, SBE 43 -->
#     <OxygenSensor SensorID="38" >
#       <SerialNumber>4269</SerialNumber>
#       <CalibrationDate>16-Aug-22</CalibrationDate>
#       <Use2007Equation>1</Use2007Equation>
#       <CalibrationCoefficients equation="0" >
#         <!-- Coefficients for Owens-Millard equation. -->
#         <Boc>0.0000</Boc>
#         <Soc>0.0000e+000</Soc>
#         <offset>0.0000</offset>
#         <Pcor>0.00e+000</Pcor>
#         <Tcor>0.0000</Tcor>
#         <Tau>0.0</Tau>
#       </CalibrationCoefficients>
#       <CalibrationCoefficients equation="1" >
#         <!-- Coefficients for Sea-Bird equation - SBE calibration in 2007 and later. -->
#         <Soc>4.2506e-001</Soc>
#         <offset>-0.4922</offset>
#         <A>-4.5893e-003</A>
#         <B> 1.8653e-004</B>
#         <C>-2.0781e-006</C>
#         <D0> 2.5826e+000</D0>
#         <D1> 1.92634e-004</D1>
#         <D2>-4.64803e-002</D2>
#         <E> 3.6000e-002</E>
#         <Tau20> 2.3100</Tau20>
#         <H1>-3.3000e-002</H1>
#         <H2> 5.0000e+003</H2>
#         <H3> 1.4500e+003</H3>
#       </CalibrationCoefficients>
#     </OxygenSensor>
#   </sensor>
#   <sensor Channel="7" >
#     <!-- A/D voltage 3, PAR/Logarithmic, Satlantic -->
#     <PARLog_SatlanticSensor SensorID="76" >
#       <SerialNumber>2209</SerialNumber>
#       <CalibrationDate>14-Jan-2022</CalibrationDate>
#       <a0>9.8861e-001</a0>
#       <a1>8.0845e-001</a1>
#       <Im>1.3589e+000</Im>
#       <Multiplier>1.0000e+000</Multiplier>
#     </PARLog_SatlanticSensor>
#   </sensor>
#   <sensor Channel="8" >
#     <!-- Serial RS-232, Fluorometer, WET Labs ECO-AFL/FL, 2 -->
#     <FluoroWetlabECO_AFL_FL_Sensor SensorID="20" >
#       <SerialNumber>FL3-7350</SerialNumber>
#       <CalibrationDate>10-Mar-2022</CalibrationDate>
#       <ScaleFactor>4.26000000e-002</ScaleFactor>
#       <!-- Dark output -->
#       <Vblank>50.0000</Vblank>
#     </FluoroWetlabECO_AFL_FL_Sensor>
#   </sensor>
#   <sensor Channel="9" >
#     <!-- Serial RS-232, Fluorometer, WET Labs ECO-AFL/FL, 3 -->
#     <FluoroWetlabECO_AFL_FL_Sensor SensorID="20" >
#       <SerialNumber>FL3-7350</SerialNumber>
#       <CalibrationDate>10-Mar-2022</CalibrationDate>
#       <ScaleFactor>4.23000000e-002</ScaleFactor>
#       <!-- Dark output -->
#       <Vblank>48.0000</Vblank>
#     </FluoroWetlabECO_AFL_FL_Sensor>
#   </sensor>
#   <sensor Channel="10" >
#     <!-- Serial RS-232, Fluorometer, WET Labs ECO CDOM -->
#     <FluoroWetlabCDOM_Sensor SensorID="19" >
#       <SerialNumber>FL3-7350</SerialNumber>
#       <CalibrationDate>10-Mar-2022</CalibrationDate>
#       <ScaleFactor>0.090</ScaleFactor>
#       <!-- Dark output -->
#       <Vblank>50.000</Vblank>
#     </FluoroWetlabCDOM_Sensor>
#   </sensor>
# </Sensors>
# datcnv_date = Jul 03 2023 16:59:40, 7.26.7.129 [datcnv_vars = 15]
# datcnv_in = C:\R\Reservoirs\Data\DataNotYetUploadedToEDI\Raw_CTD\RawDownloads\062723_fcrXX_S8188012.hex C:\R\Reservoirs\Data\DataNotYetUploadedToEDI\Raw_CTD\RawDownloads\SBE19plusV2_8188_start20221003.xmlcon
# datcnv_skipover = 0
# datcnv_ox_hysteresis_correction = yes
# datcnv_ox_tau_correction = yes
# filter_date = Jul 03 2023 17:00:14, 7.26.7.129
# filter_in = C:\R\Reservoirs\Data\DataNotYetUploadedToEDI\Raw_CTD\RawDownloads\062723_fcrXX_S8188012.cnv
# filter_low_pass_tc_A = 0.500
# filter_low_pass_tc_B = 1.000
# filter_low_pass_A_vars = sbeox0Mg/L sbeox0PS specc c0uS/cm tv290C
# filter_low_pass_B_vars = depFM dz/dtM prdM prdE
# alignctd_date = Jul 03 2023 17:00:42, 7.26.7.129
# alignctd_in = C:\R\Reservoirs\Data\DataNotYetUploadedToEDI\Raw_CTD\RawDownloads\062723_fcrXX_S8188012.cnv
# alignctd_adv = dz/dtM 1.000, sbeox0PS 1.000, specc 1.000, c0uS/cm 1.000, flECO-AFL 1.000, turbWETntu0 1.000                                                                                                                        
# file_type = ascii
*END*
     -0.729      0.001     7.9868     92.201      0.278   0.263717    -4.5000    -0.1002    -2.1300    -2.0304 4.4198e+02    -0.4985     -0.715     -1.037    22.4816 0.0000e+00
     -0.729      0.001     7.9866     92.203      0.280   0.265935    -4.5000    -0.1269    -2.1300    -2.0304 4.5801e+02    -0.4084     -0.715     -1.037    22.4817 0.0000e+00
     -0.729      0.001     7.9866     92.207      0.285   0.270883    -4.5000    -0.1117    -2.1300    -2.0304 4.2855e+02    -0.3332     -0.715     -1.037    22.4819 0.0000e+00
     -0.728      0.001     7.9868     92.211      0.295   0.279881     0.0000    -0.0926     0.0000     0.0423 3.9057e+02    -0.4234     -0.715     -1.037    22.4821 0.0000e+00
     -0.728      0.002     7.9869     92.212      0.307   0.291373     0.0000    -0.1155     0.0000     0.0423 3.9881e+02    -0.4384     -0.714     -1.036    22.4823 0.0000e+00
     -0.728      0.002     7.9870     92.209      0.324   0.308425     0.0000    -0.1002     0.0000     0.0423 3.8846e+02    -0.3783     -0.714     -1.036    22.4826 0.0000e+00
     -0.728      0.003     7.9873     92.204      0.348   0.331629     0.0000    -0.1193     0.0000     0.0423 3.4968e+02    -0.5436     -0.714     -1.035    22.4830 0.0000e+00
     -0.727      0.003     7.9875     92.201      0.381   0.363219     0.0000    -0.1079     0.0000     0.0423 3.2513e+02    -0.3633     -0.713     -1.034    22.4835 0.0000e+00
     -0.726      0.004     7.9875     92.200      0.431   0.411619     0.0000    -0.1041     0.0852     0.0000 2.9197e+02    -0.6037     -0.712     -1.033    22.4842 0.0000e+00
     -0.725      0.005     7.9871     92.202      0.507   0.485782     0.0000    -0.1308     0.0852     0.0000 2.7438e+02    -0.4234     -0.711     -1.031    22.4850 0.0000e+00
     -0.724      0.007     7.9865     92.209      0.621   0.597576     0.0000    -0.1269     0.0852     0.0000 2.9267e+02    -0.4534     -0.710     -1.029    22.4861 0.0000e+00
     -0.722      0.009     7.9861     92.217      0.797   0.768906     0.0000    -0.0888     0.0852     0.0000 3.2161e+02    -0.4985     -0.708     -1.027    22.4874 0.0000e+00
     -0.720      0.011     7.9857     92.224      1.080   1.045457     0.0000    -0.1231     0.0000     0.0846 3.8135e+02    -0.4534     -0.706     -1.024    22.4891 0.0000e+00
     -0.717      0.015     7.9856     92.224      1.549   1.504933     0.0000    -0.1155     0.0000     0.0846 4.9249e+02    -0.3783     -0.703     -1.020    22.4915 0.0000e+00
     -0.713      0.019     7.9856     92.219      2.327   2.265905     0.0000    -0.1269     0.0000     0.0846 5.6217e+02    -0.4384     -0.700     -1.015    22.4952 0.0000e+00
     -0.709      0.024     7.9854     92.215      3.625   3.535254     0.0000    -0.1269     0.0000     0.0846 6.0344e+02    -0.5436     -0.695     -1.008    22.5010 0.0000e+00
     -0.702      0.031     7.9846     92.213      5.797   5.659380     0.0000    -0.1308    -0.0426     0.0846 6.0109e+02    -0.4985     -0.689     -0.999    22.5104 0.0000e+00
     -0.695      0.040     7.9823     92.223      9.423   9.204719     0.0000    -0.1079    -0.0426     0.0846 6.2942e+02    -0.4685     -0.681     -0.988    22.5260 0.0000e+00
     -0.684      0.052     7.9780     92.252     15.308  14.964450     0.0000    -0.1079    -0.0426     0.0846 6.7314e+02    -0.4534     -0.671     -0.973    22.5519 0.0000e+00
     -0.671      0.066     7.9712     92.306     23.235  22.761464     0.0000     1.1663    -0.0426     0.0846 7.1661e+02    13.8102     -0.658     -0.954    22.5950 0.0000e+00
     -0.654      0.083     7.9604     92.394     31.345  30.824522     0.0000     1.1357     0.0000     0.0846 7.5317e+02    13.8102     -0.641     -0.930    22.6667 0.0000e+00
     -0.632      0.102     7.9433     92.523     37.847  37.384156     0.0000     1.1853     0.0000     0.0846 7.3939e+02    13.8102     -0.619     -0.898    22.7862 0.0000e+00
     -0.604      0.120     7.9161     92.705     42.158  41.806796     0.0000     1.1548     0.0000     0.0846 6.8005e+02    13.8402     -0.592     -0.858    22.9850 0.0000e+00
     -0.569      0.137     7.8760     92.962     44.729  44.489253     0.0000     2.2458     0.0000     0.0846 6.5595e+02    23.2341     -0.558     -0.809    23.2859 0.0000e+00
     -0.529      0.151     7.8285     93.321     46.258  46.095332     0.0000     2.2802     0.0000     0.0846 5.8206e+02    23.3543     -0.519     -0.753    23.6570 0.0000e+00
     -0.486      0.159     7.7852     93.790     47.155  47.023601     4.4100     2.2573     0.5112     8.6715 4.7154e+02    23.2341     -0.476     -0.691    24.0258 0.0000e+00
     -0.441      0.161     7.7549     94.346     47.663  47.517635     4.4100     2.2535     0.5112     8.6715 4.0404e+02    23.3393     -0.432     -0.628    24.3376 0.0000e+00
     -0.397      0.155     7.7425     94.942     47.936  47.742865     4.4100     2.8295     0.5112     8.6715 2.2751e+02    22.3022     -0.389     -0.564    24.5699 0.0000e+00
     -0.355      0.144     7.7506     95.515     48.083  47.822762     4.4100     2.8219     0.5112     8.6715 1.7370e+02    22.2571     -0.348     -0.505    24.7198 0.0000e+00
     -0.318      0.128     7.7786     96.003     48.165  47.832135     6.1200     2.8257     0.3834    15.2280 1.4253e+02    22.3322     -0.312     -0.452    24.7945 0.0000e+00
     -0.287      0.110     7.8231     96.355     48.205  47.801223     6.1200     2.8295     0.3834    15.2280 1.2628e+02    22.3773     -0.281     -0.408    24.8060 0.0000e+00
     -0.262      0.090     7.8775     96.546     48.213  47.743576     6.1200     2.8524     0.3834    15.2280 1.2714e+02    20.8893     -0.257     -0.373    24.7715 0.0000e+00
     -0.243      0.072     7.9339     96.576     48.204  47.675527     6.1200     2.8219     0.3834    15.2280 1.2459e+02    20.8593     -0.238     -0.346    24.7110 0.0000e+00
     -0.229      0.057     7.9847     96.479     48.200  47.620541     6.7500     2.7952     0.4686    18.8658 1.2322e+02    20.8292     -0.224     -0.325    24.6409 0.0000e+00
     -0.218      0.044     8.0244     96.306     48.214  47.587734     6.7500     2.7913     0.4686    18.8658 1.2777e+02    20.8443     -0.213     -0.310    24.5706 0.0000e+00
     -0.209      0.035     8.0501     96.107     48.224  47.556466     6.7500     2.5548     0.4686    18.8658 1.3235e+02    20.4234     -0.205     -0.298    24.5043 0.0000e+00
     -0.202      0.028     8.0614     95.942     48.215  47.518394     6.7500     2.5739     0.4686    18.8658 1.3435e+02    20.3032     -0.199     -0.288    24.4445 0.0000e+00
     -0.197      0.023     8.0612     95.878     48.196  47.495071     6.6600     2.5815     0.3834    18.7389 1.3284e+02    20.3332     -0.193     -0.280    24.3919 0.0000e+00
     -0.192      0.020     8.0537     95.988     48.182  47.504055     6.6600     2.5968     0.3834    18.7389 1.3013e+02    20.4084     -0.188     -0.273    24.3446 0.0000e+00
     -0.187      0.018     8.0434     96.365     48.172  47.535856     6.6600     2.5625     0.3834    18.7389 1.2836e+02    21.0697     -0.183     -0.266    24.3018 0.0000e+00
     -0.182      0.016     8.0341     97.141     48.153  47.567250     6.6600     2.5854     0.3834    18.7389 1.2541e+02    21.1749     -0.179     -0.260    24.2716 0.0000e+00
     -0.178      0.014     8.0294     98.522     48.121  47.586796     6.6600     2.5586     0.3834    18.7389 1.2178e+02    21.0847     -0.175     -0.254    24.2668 0.0000e+00
     -0.174      0.012     8.0349    100.754     48.086  47.599708     6.4800     2.5854     0.4260    17.6814 1.1587e+02    21.0397     -0.171     -0.248    24.2904 0.0000e+00
     -0.172      0.009     8.0598    103.930     48.047  47.605468     6.4800     2.4442     0.4260    17.6814 9.9694e+01    19.9274     -0.169     -0.244    24.3338 0.0000e+00
     -0.170      0.007     8.1167    107.792     47.995  47.593726     6.4800     2.4366     0.4260    17.6814 9.8809e+01    19.9124     -0.167     -0.242    24.3859 0.0000e+00
     -0.169      0.005     8.2237    111.813     47.941  47.573241     6.4800     2.4442     0.4260    17.6814 1.0244e+02    19.7621     -0.166     -0.240    24.4388 0.0000e+00
     -0.168      0.004     8.4020    115.419     47.905  47.566296     6.3900     2.4595     0.3834    18.2736 1.0704e+02    19.8523     -0.165     -0.239    24.4888 0.0000e+00
     -0.168      0.003     8.6593    118.137     47.886  47.571040     6.3900     2.3717     0.3834    18.2736 1.1058e+02    19.7020     -0.165     -0.238    24.5349 0.0000e+00
     -0.167      0.003     8.9743    119.671     47.861  47.564958     6.3900     2.3870     0.3834    18.2736 1.1247e+02    19.5968     -0.164     -0.238    24.5760 0.0000e+00
     -0.166      0.003     9.3032    119.914     47.815  47.530578     6.3900     2.3946     0.3834    18.2736 1.1082e+02    19.7020     -0.163     -0.237    24.6109 0.0000e+00
     -0.166      0.003     9.5983    118.945     47.746  47.466657     6.5700     2.4061     0.3834    18.5697 1.0811e+02    19.6418     -0.163     -0.236    24.6403 0.0000e+00
     -0.165      0.004     9.8201    117.056     47.682  47.401728     6.5700     2.4595     0.3834    18.5697 1.0483e+02    19.6268     -0.162     -0.234    24.6653 0.0000e+00
     -0.164      0.005     9.9442    114.716     47.652  47.370000     6.5700     2.4595     0.3834    18.5697 1.0282e+02    19.7320     -0.161     -0.233    24.6848 0.0000e+00
     -0.163      0.006     9.9624    112.413     47.665  47.380844     6.5700     2.4366     0.3834    18.5697 1.0383e+02    19.6268     -0.160     -0.231    24.6966 0.0000e+00
     -0.161      0.006     9.8813    110.497     47.710  47.423283     6.5700     2.4595     0.3834    18.5697 1.0567e+02    19.5817     -0.158     -0.229    24.7007 0.0000e+00
     -0.159      0.007     9.7246    109.150     47.762  47.472963     6.5700     2.5358     0.3834    18.4851 1.0917e+02    20.1829     -0.156     -0.226    24.7000 0.0000e+00
     -0.157      0.007     9.5306    108.423     47.803  47.509444     6.5700     2.5205     0.3834    18.4851 1.0715e+02    20.1228     -0.154     -0.223    24.6978 0.0000e+00
     -0.155      0.006     9.3396    108.300     47.825  47.526602     6.5700     2.5129     0.3834    18.4851 8.4922e+01    20.1228     -0.152     -0.220    24.6957 0.0000e+00
     -0.153      0.005     9.1808    108.733     47.827  47.525047     6.5700     2.4938     0.3834    18.4851 8.1011e+01    20.1078     -0.150     -0.218    24.6938 0.0000e+00
     -0.152      0.003     9.0694    109.650     47.816  47.512292     6.6600     2.5091     0.3408    19.2888 7.7785e+01    19.3863     -0.149     -0.216    24.6910 0.0000e+00
     -0.151      0.002     9.0097    110.980     47.799  47.496825     6.6600     2.5052     0.3408    19.2888 7.7937e+01    19.3713     -0.148     -0.215    24.6867 0.0000e+00
     -0.152      0.000     9.0003    112.686     47.772  47.470558     6.6600     2.5281     0.3408    19.2888 8.2521e+01    19.3863     -0.149     -0.216    24.6817 0.0000e+00
     -0.152     -0.002     9.0369    114.751     47.726  47.426487     6.6600     2.5091     0.3408    19.2888 8.4151e+01    19.4465     -0.149     -0.216    24.6779 0.0000e+00
     -0.153     -0.003     9.1134    117.096     47.679  47.380603     6.8400     2.7952     0.3834    19.3311 8.7052e+01    20.6940     -0.150     -0.217    24.6767 0.0000e+00
     -0.153     -0.005     9.2238    119.525     47.663  47.366249     6.8400     2.7990     0.3834    19.3311 7.5520e+01    20.5587     -0.150     -0.218    24.6776 0.0000e+00
     -0.154     -0.007     9.3653    121.760     47.690  47.393466     6.8400     2.8409     0.3834    19.3311 7.8806e+01    20.7541     -0.151     -0.220    24.6792 0.0000e+00
     -0.156     -0.009     9.5366    123.497     47.722  47.423937     6.8400     2.8295     0.3834    19.3311 7.8669e+01    20.5887     -0.153     -0.222    24.6806 0.0000e+00
     -0.159     -0.011     9.7313    124.458     47.733  47.428136     6.8400     2.8219     0.4260    18.9504 8.6243e+01    20.1078     -0.156     -0.227    24.6818 0.0000e+00
     -0.163     -0.012     9.9329    124.460     47.725  47.407184     6.8400     2.8219     0.4260    18.9504 8.3677e+01    20.0928     -0.160     -0.232    24.6830 0.0000e+00
     -0.167     -0.012    10.1185    123.463     47.707  47.371343     6.8400     2.8295     0.4260    18.9504 8.4904e+01    20.2280     -0.164     -0.238    24.6836 0.0000e+00
     -0.171     -0.011    10.2631    121.603     47.688  47.334837     6.8400     2.8295     0.4260    18.9504 8.9956e+01    20.1378     -0.168     -0.243    24.6821 0.0000e+00
     -0.174     -0.008    10.3443    119.178     47.668  47.299817     6.8400     2.5701     0.4260    18.9504 9.6099e+01    21.1148     -0.171     -0.248    24.6751 0.0000e+00
     -0.176     -0.005    10.3471    116.584     47.642  47.258927     6.7500     2.5663     0.3834    18.6966 8.9139e+01    21.0697     -0.173     -0.251    24.6609 0.0000e+00
     -0.177     -0.002    10.2677    114.219     47.622  47.225043     6.7500     2.5854     0.3834    18.6966 1.0300e+02    21.0246     -0.174     -0.252    24.6425 0.0000e+00
     -0.176      0.001    10.1164    112.395     47.623  47.208943     6.7500     2.5586     0.3834    18.6966 1.1880e+02    21.1449     -0.173     -0.251    24.6243 0.0000e+00
     -0.175      0.001     9.9176    111.294     47.628  47.192463     6.7500     2.8753     0.3834    18.6966 1.2005e+02    21.1449     -0.171     -0.249    24.6078 0.0000e+00
     -0.173      0.000     9.7045    110.947     47.628  47.161300     7.0200     2.8638     0.4260    19.8387 8.4206e+01    21.1298     -0.170     -0.246    24.5924 0.0000e+00
     -0.172     -0.002     9.5105    111.250     47.616  47.103180     7.0200     2.8524     0.4260    19.8387 7.5849e+01    21.1900     -0.169     -0.245    24.5769 0.0000e+00
     -0.173     -0.006     9.3618    111.995     47.573  47.000621     7.0200     2.8943     0.4260    19.8387 8.1665e+01    21.1148     -0.170     -0.247    24.5595 0.0000e+00
     -0.176     -0.009     9.2741    112.887     47.492  46.855994     7.0200     2.8409     0.4260    19.8387 8.1789e+01    20.5587     -0.172     -0.250    24.5368 0.0000e+00
     -0.179     -0.012     9.2510    113.621     47.397  46.706028     6.8400     2.8257     0.3834    19.2042 8.1240e+01    20.5437     -0.176     -0.255    24.5041 0.0000e+00
     -0.183     -0.014     9.2848    113.998     47.337  46.601882     6.8400     2.8371     0.3834    19.2042 9.1513e+01    20.5887     -0.180     -0.261    24.4560 0.0000e+00
     -0.188     -0.016     9.3581    113.973     47.325  46.553432     6.8400     2.8066     0.3834    19.2042 1.0315e+02    20.6038     -0.184     -0.266    24.3923 0.0000e+00
     -0.192     -0.017     9.4445    113.644     47.320  46.520014     6.8400     2.9783     0.3834    19.2042 1.2457e+02    20.6338     -0.188     -0.272    24.3241 0.0000e+00
     -0.196     -0.017     9.5163    113.197     47.286  46.464975     6.8400     2.9935     0.4260    19.2042 1.5273e+02    20.5737     -0.192     -0.279    24.2649 0.0000e+00
     -0.201     -0.017     9.5562    112.819     47.206  46.369672     6.8400     2.9935     0.4260    19.2042 1.7690e+02    20.7240     -0.197     -0.286    24.2174 0.0000e+00
     -0.206     -0.015     9.5608    112.621     47.076  46.230490     6.8400     3.0164     0.4260    19.2042 1.8918e+02    20.7541     -0.202     -0.293    24.1790 0.0000e+00
     -0.210     -0.013     9.5386    112.600     46.937  46.085610     6.8400     3.0355     0.4260    19.2042 2.0681e+02    21.1298     -0.206     -0.299    24.1485 0.0000e+00
     -0.213     -0.010     9.5051    112.658     46.830  45.977641     6.8400     3.0813     0.4260    19.2042 1.7305e+02    21.0096     -0.209     -0.303    24.1254 0.0000e+00
     -0.215     -0.007     9.4764    112.667     46.756  45.905531     6.7500     3.0469     0.3834    19.5003 1.6263e+02    21.1148     -0.211     -0.306    24.1082 0.0000e+00
     -0.216     -0.004     9.4620    112.553     46.696  45.850051     6.7500     3.0775     0.3834    19.5003 1.6273e+02    21.0998     -0.211     -0.307    24.0956 0.0000e+00
     -0.216     -0.002     9.4617    112.321     46.642  45.800371     6.7500     2.9134     0.3834    19.5003 1.5765e+02    20.3633     -0.212     -0.307    24.0874 0.0000e+00
     -0.216      0.000     9.4671    112.014     46.590  45.751168     6.7500     2.9592     0.3834    19.5003 1.4078e+02    20.3934     -0.212     -0.307    24.0839 0.0000e+00
     -0.216      0.002     9.4677    111.674     46.532  45.695267     6.8400     2.9439     0.3834    19.7964 1.3544e+02    20.4234     -0.212     -0.307    24.0848 0.0000e+00
     -0.215      0.003     9.4576    111.322     46.469  45.633613     6.8400     2.9439     0.3834    19.7964 1.5656e+02    20.3483     -0.211     -0.306    24.0883 0.0000e+00
     -0.215      0.004     9.4375    110.942     46.414  45.579487     6.8400     2.8791     0.3834    19.7964 1.8832e+02    21.1298     -0.211     -0.305    24.0919 0.0000e+00
     -0.214      0.005     9.4112    110.498     46.371  45.538268     6.8400     2.8943     0.3834    19.7964 2.1126e+02    21.1599     -0.209     -0.304    24.0942 0.0000e+00
     -0.212      0.007     9.3825    109.950     46.339  45.506893     6.8400     2.8867     0.4260    19.7964 2.1618e+02    21.1148     -0.208     -0.301    24.0952 0.0000e+00
     -0.210      0.008     9.3528    109.269     46.312  45.480956     6.8400     2.8982     0.4260    19.7964 2.3291e+02    21.0998     -0.206     -0.299    24.0955 0.0000e+00
     -0.208      0.009     9.3209    108.453     46.283  45.453542     6.8400     2.9363     0.4260    19.7964 2.3367e+02    21.5958     -0.204     -0.296    24.0956 0.0000e+00
     -0.206      0.010     9.2836    107.525     46.250  45.421302     6.8400     2.9401     0.4260    19.7964 2.3135e+02    21.5958     -0.201     -0.292    24.0959 0.0000e+00
     -0.203      0.010     9.2375    106.518     46.207  45.379604     6.8400     2.9516     0.4260    19.7964 2.4677e+02    21.5356     -0.199     -0.288    24.0964 0.0000e+00
     -0.200      0.010     9.1801    105.462     46.156  45.329216     6.7500     2.9592     0.4260    19.3734 3.1388e+02    21.5657     -0.196     -0.284    24.0971 0.0000e+00
     -0.197      0.010     9.1115    104.381     46.109  45.282459     6.7500     2.8524     0.4260    19.3734 3.3422e+02    21.5657     -0.194     -0.280    24.0979 0.0000e+00
     -0.195      0.009     9.0334    103.284     46.069  45.242718     6.7500     2.8943     0.4260    19.3734 3.3626e+02    21.6258     -0.191     -0.276    24.0985 0.0000e+00
     -0.192      0.007     8.9487    102.180     46.027  45.201376     6.7500     2.8943     0.4260    19.3734 3.2605e+02    21.5056     -0.188     -0.273    24.0987 0.0000e+00
     -0.190      0.005     8.8601    101.089     45.981  45.155333     6.6600     2.8867     0.4260    19.2042 3.1758e+02    21.5356     -0.186     -0.270    24.0985 0.0000e+00
     -0.189      0.003     8.7693    100.053     45.934  45.108163     6.6600     2.7608     0.4260    19.2042 3.0747e+02    20.9495     -0.185     -0.268    24.0981 0.0000e+00
     -0.188      0.000     8.6772     99.144     45.884  45.059176     6.6600     2.7608     0.4260    19.2042 3.0793e+02    20.8593     -0.185     -0.268    24.0978 0.0000e+00
     -0.189     -0.002     8.5845     98.446     45.836  45.011160     6.6600     2.7379     0.4260    19.2042 3.1157e+02    20.8142     -0.185     -0.268    24.0974 0.0000e+00
     -0.190     -0.005     8.4929     98.057     45.795  44.971125     6.7500     2.7837     0.3834    19.5849 3.0171e+02    20.9194     -0.186     -0.269    24.0968 0.0000e+00
     -0.191     -0.007     8.4060     98.069     45.760  44.936321     6.7500     2.7875     0.3834    19.5849 2.9994e+02    20.3332     -0.187     -0.272    24.0961 0.0000e+00
     -0.194     -0.009     8.3297     98.514     45.730  44.905393     6.7500     2.7456     0.3834    19.5849 3.2217e+02    20.3783     -0.190     -0.275    24.0955 0.0000e+00
     -0.197     -0.011     8.2711     99.334     45.711  44.885944     6.7500     2.7761     0.3834    19.5849 3.3817e+02    20.3934     -0.193     -0.280    24.0951 0.0000e+00
     -0.201     -0.011     8.2385    100.435     45.694  44.868824     6.6600     2.7379     0.4260    19.1196 3.4952e+02    20.3633     -0.197     -0.285    24.0946 0.0000e+00
     -0.204     -0.011     8.2397    101.711     45.653  44.829655     6.6600     2.7494     0.4260    19.1196 3.5403e+02    20.7240     -0.200     -0.289    24.0938 0.0000e+00
     -0.206     -0.009     8.2773    103.023     45.593  44.771861     6.6600     2.7570     0.4260    19.1196 3.4268e+02    20.9946     -0.202     -0.293    24.0926 0.0000e+00
     -0.209     -0.008     8.3463    104.196     45.539  44.719658     6.6600     2.7761     0.4260    19.1196 3.4710e+02    21.1449     -0.204     -0.297    24.0915 0.0000e+00
     -0.211     -0.006     8.4389    105.077     45.499  44.680921     6.6600     2.7723     0.4260    19.1196 3.4740e+02    21.0547     -0.206     -0.300    24.0912 0.0000e+00
     -0.212     -0.004     8.5460    105.582     45.472  44.653246     6.4800     2.7303     0.3834    17.8083 3.4276e+02    21.1449     -0.208     -0.301    24.0919 0.0000e+00
     -0.212     -0.002     8.6559    105.712     45.453  44.633215     6.4800     2.7646     0.3834    17.8083 3.3765e+02    21.1449     -0.208     -0.302    24.0934 0.0000e+00
     -0.212     -0.001     8.7543    105.520     45.441  44.619450     6.4800     2.7799     0.3834    17.8083 3.4164e+02    21.1298     -0.208     -0.302    24.0947 0.0000e+00
     -0.212      0.000     8.8283    105.074     45.435  44.612242     6.4800     2.7494     0.3834    17.8083 3.4417e+02    21.1599     -0.208     -0.302    24.0949 0.0000e+00
     -0.212      0.001     8.8709    104.451     45.434  44.609669     6.5700     2.7570     0.3834    18.2736 3.4194e+02    21.0847     -0.208     -0.301    24.0939 0.0000e+00
     -0.211      0.001     8.8821    103.739     45.437  44.611045     6.5700     2.7532     0.3834    18.2736 3.3780e+02    21.0096     -0.207     -0.301    24.0922 0.0000e+00
     -0.211      0.002     8.8663    103.019     45.436  44.608812     6.5700     2.7723     0.3834    18.2736 3.3437e+02    21.0847     -0.207     -0.300    24.0904 0.0000e+00
     -0.211      0.002     8.8290    102.337     45.423  44.594448     6.5700     2.7799     0.3834    18.2736 3.3018e+02    21.0096     -0.206     -0.299    24.0888 0.0000e+00
     -0.210      0.002     8.7769    101.709     45.401  44.572048     6.6600     2.7456     0.3834    18.4428 3.2925e+02    21.1148     -0.206     -0.299    24.0872 0.0000e+00
     -0.210      0.002     8.7174    101.138     45.382  44.551490     6.6600     2.7112     0.3834    18.4428 3.2832e+02    21.1148     -0.206     -0.298    24.0856 0.0000e+00
     -0.209      0.001     8.6571    100.620     45.371  44.539180     6.6600     2.6807     0.3834    18.4428 3.2882e+02    21.0847     -0.205     -0.298    24.0841 0.0000e+00
     -0.209      0.001     8.6000    100.136     45.365  44.531836     6.6600     2.7074     0.3834    18.4428 3.3162e+02    21.1148     -0.205     -0.297    24.0826 0.0000e+00
     -0.209      0.001     8.5475     99.648     45.358  44.523535     6.4800     2.7151     0.3834    17.8506 3.3306e+02    21.0697     -0.205     -0.297    24.0811 0.0000e+00
     -0.209      0.001     8.4998     99.118     45.347  44.512065     6.4800     2.6960     0.3834    17.8506 3.3357e+02    21.4605     -0.204     -0.297    24.0794 0.0000e+00
     -0.208      0.001     8.4566     98.524     45.334  44.498329     6.4800     2.6807     0.3834    17.8506 3.3314e+02    21.3102     -0.204     -0.296    24.0776 0.0000e+00
     -0.208      0.001     8.4162     97.862     45.323  44.486590     6.4800     2.6883     0.3834    17.8506 3.3097e+02    21.3403     -0.204     -0.296    24.0759 0.0000e+00
     -0.207      0.001     8.3754     97.139     45.315  44.477681     6.4800     2.6960     0.3834    17.8506 3.2747e+02    21.4004     -0.203     -0.295    24.0744 0.0000e+00
     -0.207      0.002     8.3310     96.372     45.308  44.469225     6.5700     2.7799     0.3834    17.9775 3.2301e+02    21.6859     -0.203     -0.294    24.0731 0.0000e+00
     -0.207      0.002     8.2813     95.582     45.298  44.458967     6.5700     2.7570     0.3834    17.9775 3.2091e+02    21.5356     -0.203     -0.294    24.0720 0.0000e+00
     -0.206      0.002     8.2258     94.787     45.288  44.448135     6.5700     2.7646     0.3834    17.9775 3.1218e+02    21.5657     -0.202     -0.293    24.0710 0.0000e+00
     -0.206      0.001     8.1652     94.010     45.279  44.437802     6.5700     2.7494     0.3834    17.9775 3.1056e+02    21.5958     -0.202     -0.293    24.0700 0.0000e+00
     -0.205      0.001     8.1009     93.268     45.271  44.429177     6.7500     2.7723     0.3834    18.6543 3.0975e+02    22.7230     -0.201     -0.292    24.0689 0.0000e+00
     -0.205      0.001     8.0346     92.565     45.267  44.423922     6.7500     2.7875     0.3834    18.6543 3.1029e+02    22.7381     -0.201     -0.292    24.0678 0.0000e+00
     -0.205      0.001     7.9680     91.903     45.265  44.420634     6.7500     2.7685     0.3834    18.6543 3.1110e+02    22.7681     -0.201     -0.291    24.0666 0.0000e+00
     -0.205      0.000     7.9029     91.282     45.264  44.418439     6.7500     2.7646     0.3834    18.6543 3.1628e+02    22.8733     -0.201     -0.291    24.0654 0.0000e+00
     -0.205      0.000     7.8407     90.700     45.263  44.416749     6.5700     2.7570     0.3834    17.8506 3.2224e+02    22.0617     -0.201     -0.291    24.0641 0.0000e+00
     -0.205      0.000     7.7817     90.158     45.262  44.415115     6.5700     2.7532     0.3834    17.8506 3.2400e+02    22.0918     -0.201     -0.291    24.0629 0.0000e+00
     -0.205      0.000     7.7262     89.658     45.257  44.409138     6.5700     2.7456     0.3834    17.8506 3.2470e+02    22.0918     -0.201     -0.291    24.0617 0.0000e+00
     -0.205      0.000     7.6742     89.197     45.250  44.401187     6.5700     2.7494     0.3834    17.8506 3.2336e+02    22.1068     -0.201     -0.290    24.0605 0.0000e+00
     -0.204      0.001     7.6255     88.783     45.251  44.401029     6.5700     2.7646     0.3834    17.8506 3.2238e+02    22.0166     -0.200     -0.290    24.0594 0.0000e+00
     -0.204      0.001     7.5801     88.431     45.264  44.412585     6.6600     2.7494     0.4260    17.5545 3.2147e+02    22.0918     -0.200     -0.290    24.0582 0.0000e+00
     -0.204      0.001     7.5382     88.164     45.292  44.438937     6.6600     2.7379     0.4260    17.5545 3.2029e+02    22.0467     -0.200     -0.290    24.0571 0.0000e+00
     -0.204      0.001     7.4996     88.018     45.338  44.483149     6.6600     2.7723     0.4260    17.5545 3.1911e+02    22.0767     -0.200     -0.289    24.0560 0.0000e+00
     -0.203      0.001     7.4649     88.059     45.410  44.553048     6.6600     2.7646     0.4260    17.5545 3.1683e+02    22.6028     -0.199     -0.289    24.0549 0.0000e+00
     -0.203      0.001     7.4355     88.401     45.531  44.671236     6.4800     2.7570     0.3834    17.9775 3.1607e+02    22.6328     -0.199     -0.288    24.0537 0.0000e+00
     -0.203      0.001     7.4132     89.235     45.738  44.873194     6.4800     2.7494     0.3834    17.9775 3.1436e+02    22.5276     -0.199     -0.288    24.0526 0.0000e+00
     -0.202      0.002     7.4011     90.877     46.085  45.212776     6.4800     2.7646     0.3834    17.9775 3.1347e+02    22.5727     -0.198     -0.287    24.0515 0.0000e+00
     -0.202      0.002     7.4047     93.849     46.668  45.784500     6.4800     2.7570     0.3834    17.9775 3.1150e+02    21.6258     -0.198     -0.286    24.0505 0.0000e+00
     -0.201      0.002     7.4335     99.028     47.441  46.542676     6.5700     2.7608     0.3834    17.4276 3.1029e+02    21.5356     -0.197     -0.286    24.0496 0.0000e+00
     -0.201      0.002     7.5038    107.563     48.135  47.223827     6.5700     2.7646     0.3834    17.4276 3.0934e+02    21.5958     -0.197     -0.285    24.0488 0.0000e+00
     -0.200      0.002     7.6419    120.154     48.604  47.684615     6.5700     2.7456     0.3834    17.4276 3.0767e+02    21.6258     -0.196     -0.284    24.0481 0.0000e+00
     -0.199      0.002     7.8917    136.237     48.902  47.980540     6.5700     2.8066     0.3834    17.4276 3.0627e+02    22.3623     -0.195     -0.283    24.0477 0.0000e+00
     -0.198      0.002     8.3271    154.099     49.088  48.170697     6.6600     2.8066     0.3834    17.6391 3.0487e+02    22.3322     -0.194     -0.282    24.0477 0.0000e+00
     -0.198      0.001     9.0446    171.642     49.188  48.280033     6.6600     2.8371     0.3834    17.6391 3.0381e+02    22.3322     -0.194     -0.281    24.0480 0.0000e+00
     -0.198      0.000    10.1030    186.945     49.230  48.325816     6.6600     2.8066     0.3834    17.6391 3.0217e+02    22.2721     -0.194     -0.281    24.0487 0.0000e+00
     -0.198      0.000    11.4543    198.524     49.244  48.332145     6.6600     2.7952     0.3834    17.6391 3.0086e+02    21.5356     -0.194     -0.281    24.0519 0.0000e+00
     -0.198     -0.001    12.9540    205.483     49.255  48.324489     6.6600     2.8448     0.3834    17.6391 3.0092e+02    21.6108     -0.194     -0.281    24.0601 0.0000e+00
     -0.198     -0.001    14.4260    207.702     49.275  48.322604     6.6600     2.8142     0.4260    17.7237 2.8938e+02    21.5807     -0.194     -0.282    24.0709 0.0000e+00
     -0.199     -0.001    15.7114    205.888     49.306  48.337874     6.6600     2.8333     0.4260    17.7237 2.8470e+02    21.5206     -0.195     -0.283    24.0760 0.0000e+00
     -0.200     -0.001    16.6875    201.310     49.344  48.372389     6.6600     2.6883     0.4260    17.7237 2.8750e+02    22.5276     -0.196     -0.284    24.0685 0.0000e+00
     -0.200     -0.001    17.2789    195.346     49.384  48.425443     6.6600     2.7074     0.4260    17.7237 2.8863e+02    22.5276     -0.196     -0.284    24.0498 0.0000e+00
     -0.200      0.000    17.4728    189.123     49.417  48.487403     6.6600     2.6883     0.4260    17.6814 2.8576e+02    22.5126     -0.196     -0.284    24.0280 0.0000e+00
     -0.200      0.000    17.3256    183.352     49.428  48.537142     6.6600     2.6769     0.4260    17.6814 2.8390e+02    22.5427     -0.196     -0.284    24.0123 0.0000e+00
     -0.200      0.000    16.9416    178.381     49.414  48.564144     6.6600     2.7646     0.4260    17.6814 2.8273e+02    22.0016     -0.196     -0.284    24.0095 0.0000e+00
     -0.200      0.000    16.4358    174.310     49.386  48.571650     6.6600     2.7646     0.4260    17.6814 2.8551e+02    22.1068     -0.196     -0.284    24.0233 0.0000e+00
     -0.200      0.000    15.9038    171.075     49.350  48.561664     6.6600     2.7570     0.3834    18.1044 2.8762e+02    22.0316     -0.196     -0.284    24.0532 0.0000e+00
     -0.200      0.001    15.4071    168.550     49.311  48.535487     6.6600     2.7379     0.3834    18.1044 2.9324e+02    22.1068     -0.196     -0.284    24.0934 0.0000e+00
     -0.199      0.001    14.9777    166.600     49.274  48.494067     6.6600     2.6960     0.3834    18.1044 2.9612e+02    22.3322     -0.195     -0.284    24.1347 0.0000e+00
     -0.199      0.001    14.6259    165.082     49.248  48.450139     6.6600     2.6998     0.3834    18.1044 2.9722e+02    22.3322     -0.195     -0.283    24.1702 0.0000e+00
     -0.199      0.001    14.3471    163.884     49.245  48.423696     6.6600     2.6655     0.4260    18.8235 2.9625e+02    22.3172     -0.195     -0.283    24.1959 0.0000e+00
     -0.199      0.001    14.1320    162.950     49.256  48.411647     6.6600     2.6883     0.4260    18.8235 2.9529e+02    22.3022     -0.195     -0.282    24.2075 0.0000e+00
     -0.198      0.001    13.9694    162.277     49.264  48.402850     6.6600     2.7646     0.4260    18.8235 2.9382e+02    22.7982     -0.194     -0.281    24.2027 0.0000e+00
     -0.198      0.001    13.8466    161.882     49.268  48.394959     6.6600     2.7570     0.4260    18.8235 2.9280e+02    22.7080     -0.194     -0.281    24.1845 0.0000e+00
     -0.197      0.001    13.7522    161.765     49.261  48.377942     6.6600     2.7379     0.4260    18.8235 2.9051e+02    22.8433     -0.193     -0.280    24.1601 0.0000e+00
     -0.197      0.001    13.6797    161.873     49.236  48.339336     6.6600     2.7570     0.3834    18.9504 2.8969e+02    22.7381     -0.193     -0.280    24.1372 0.0000e+00
     -0.197      0.001    13.6276    162.106     49.202  48.280736     6.6600     2.6998     0.3834    18.9504 2.9064e+02    22.4675     -0.193     -0.280    24.1198 0.0000e+00
     -0.196      0.001    13.5976    162.365     49.173  48.216241     6.6600     2.6807     0.3834    18.9504 2.9439e+02    22.6328     -0.193     -0.279    24.1077 0.0000e+00
     -0.196      0.002    13.5902    162.603     49.163  48.164320     6.6600     2.6845     0.3834    18.9504 2.9735e+02    22.5577     -0.192     -0.279    24.0979 0.0000e+00
     -0.195      0.002    13.6029    162.792     49.174  48.136887     6.5700     2.7112     0.3834    18.6120 3.0256e+02    22.5577     -0.192     -0.278    24.0836 0.0000e+00
     -0.195      0.003    13.6291    162.890     49.201  48.134551     6.5700     2.7608     0.3834    18.6120 3.0653e+02    22.9785     -0.191     -0.277    24.0581 0.0000e+00
     -0.194      0.003    13.6603    162.937     49.236  48.152725     6.5700     2.7379     0.3834    18.6120 3.0547e+02    22.9936     -0.190     -0.276    24.0209 0.0000e+00
     -0.193      0.003    13.6912    163.034     49.268  48.180400     6.5700     2.7799     0.3834    18.6120 3.0520e+02    23.0537     -0.189     -0.275    23.9787 0.0000e+00
     -0.192      0.003    13.7170    163.265     49.287  48.205138     6.6600     2.7456     0.2982    18.8658 3.0184e+02    23.1439     -0.189     -0.273    23.9401 0.0000e+00
     -0.191      0.003    13.7327    163.675     49.296  48.225612     6.6600     2.7952     0.2982    18.8658 3.0099e+02    24.9775     -0.188     -0.272    23.9111 0.0000e+00
     -0.191      0.004    13.7408    164.217     49.296  48.241336     6.6600     2.8142     0.2982    18.8658 2.9580e+02    25.0076     -0.187     -0.271    23.8946 0.0000e+00
     -0.190      0.004    13.7500    164.799     49.288  48.244615     6.6600     2.7952     0.2982    18.8658 2.9032e+02    24.9475     -0.186     -0.270    23.8906 0.0000e+00
     -0.189      0.004    13.7679    165.358     49.280  48.240287     6.6600     2.8142     0.2982    18.8658 2.8881e+02    25.0527     -0.185     -0.268    23.8964 0.0000e+00
     -0.188      0.005    13.7992    165.821     49.279  48.237108     6.5700     2.8371     0.4686    18.5274 2.8291e+02    24.9174     -0.184     -0.267    23.9089 0.0000e+00
     -0.186      0.005    13.8410    166.094     49.273  48.226301     6.5700     2.8181     0.4686    18.5274 2.7450e+02    24.9625     -0.182     -0.265    23.9241 0.0000e+00
     -0.184      0.005    13.8871    166.126     49.253  48.199040     6.5700     2.8295     0.4686    18.5274 2.7792e+02    24.9926     -0.181     -0.262    23.9357 0.0000e+00
     -0.183      0.004    13.9332    165.942     49.225  48.157964     6.5700     2.8219     0.4686    18.5274 3.1497e+02    24.8723     -0.179     -0.260    23.9396 0.0000e+00
     -0.182      0.003    13.9729    165.624     49.201  48.115898     6.6600     2.8486     0.3834    18.4428 3.2238e+02    22.5878     -0.178     -0.259    23.9370 0.0000e+00
     -0.182      0.002    13.9973    165.267     49.196  48.089369     6.6600     2.8562     0.3834    18.4428 3.2386e+02    22.6028     -0.178     -0.258    23.9316 0.0000e+00
     -0.182      0.002    14.0020    164.939     49.207  48.083190     6.6600     2.7990     0.3834    18.4428 3.2315e+02    22.5126     -0.178     -0.258    23.9238 0.0000e+00
     -0.181      0.001    13.9899    164.700     49.219  48.087785     6.6600     2.8181     0.3834    18.4428 3.2161e+02    22.5727     -0.177     -0.257    23.9108 0.0000e+00
     -0.181      0.001    13.9682    164.633     49.221  48.088527     6.5700     2.8371     0.3834    18.2313 3.1738e+02    23.2641     -0.177     -0.257    23.8913 0.0000e+00
     -0.181      0.001    13.9438    164.811     49.213  48.081650     6.5700     2.8219     0.3834    18.2313 3.1525e+02    23.3543     -0.177     -0.257    23.8694 0.0000e+00
     -0.181      0.001    13.9205    165.257     49.210  48.077212     6.5700     2.8295     0.3834    18.2313 3.1333e+02    23.2341     -0.177     -0.257    23.8524 0.0000e+00
     -0.181      0.001    13.9025    165.925     49.215  48.077991     6.5700     2.8295     0.3834    18.2313 3.1306e+02    23.3092     -0.177     -0.256    23.8446 0.0000e+00
     -0.180      0.002    13.8969    166.701     49.220  48.080232     6.6600     2.8562     0.4260    18.6120 3.1252e+02    22.0166     -0.176     -0.256    23.8443 0.0000e+00
     -0.180      0.002    13.9116    167.466     49.225  48.084532     6.6600     2.8219     0.4260    18.6120 3.1402e+02    22.1369     -0.176     -0.255    23.8453 0.0000e+00
     -0.179      0.002    13.9498    168.139     49.229  48.088075     6.6600     2.8142     0.4260    18.6120 3.1504e+02    22.0617     -0.175     -0.254    23.8434 0.0000e+00
     -0.179      0.002    14.0073    168.665     49.225  48.083879     6.6600     2.7952     0.4260    18.6120 3.1593e+02    22.1218     -0.175     -0.254    23.8393 0.0000e+00
     -0.178      0.002    14.0736    169.013     49.213  48.066862     6.6600     2.7990     0.4260    18.6120 3.1614e+02    23.2791     -0.174     -0.253    23.8364 0.0000e+00
     -0.177      0.002    14.1383    169.175     49.201  48.044375     6.7500     2.7875     0.4260    19.5426 3.1614e+02    23.2641     -0.174     -0.252    23.8359 0.0000e+00
     -0.177      0.002    14.1950    169.169     49.201  48.030240     6.7500     2.8142     0.4260    19.5426 3.1449e+02    23.3242     -0.173     -0.251    23.8362 0.0000e+00
     -0.176      0.002    14.2397    169.046     49.206  48.020686     6.7500     2.8066     0.4260    19.5426 3.1299e+02    23.3242     -0.173     -0.251    23.8350 0.0000e+00
     -0.176      0.002    14.2705    168.882     49.199  48.001273     6.7500     2.7570     0.4260    19.5426 3.1204e+02    22.3172     -0.172     -0.250    23.8299 0.0000e+00
     -0.175      0.002    14.2871    168.753     49.177  47.966825     6.8400     2.7646     0.4260    20.0502 3.1130e+02    22.2571     -0.172     -0.249    23.8190 0.0000e+00
     -0.174      0.002    14.2905    168.704     49.142  47.916083     6.8400     2.7570     0.4260    20.0502 3.1157e+02    22.3924     -0.171     -0.248    23.8044 0.0000e+00
     -0.174      0.002    14.2839    168.741     49.104  47.857312     6.8400     2.7570     0.4260    20.0502 3.1130e+02    22.2721     -0.170     -0.247    23.7902 0.0000e+00
     -0.173      0.002    14.2735    168.834     49.085  47.814475     6.8400     2.7875     0.4260    20.0502 3.1123e+02    22.7531     -0.170     -0.246    23.7774 0.0000e+00
     -0.173      0.002    14.2662    168.943     49.094  47.801907     6.8400     2.8181     0.3834    19.9656 3.1137e+02    22.8132     -0.169     -0.246    23.7639 0.0000e+00
     -0.172      0.002    14.2666    169.045     49.117  47.810310     6.8400     2.8257     0.3834    19.9656 3.1177e+02    22.8282     -0.169     -0.245    23.7470 0.0000e+00
     -0.172      0.002    14.2756    169.159     49.138  47.826072     6.8400     2.8181     0.3834    19.9656 3.1177e+02    22.7381     -0.168     -0.244    23.7250 0.0000e+00
     -0.171      0.002    14.2902    169.332     49.154  47.843486     6.8400     2.8753     0.3834    19.9656 3.1035e+02    23.0236     -0.168     -0.243    23.7000 0.0000e+00
     -0.171      0.002    14.3053    169.583     49.162  47.855308     6.9300     2.8791     0.4260    20.0079 3.0975e+02    23.0837     -0.167     -0.243    23.6780 0.0000e+00
     -0.170      0.002    14.3176    169.876     49.163  47.856763     6.9300     2.8943     0.4260    20.0079 3.1566e+02    22.9785     -0.167     -0.242    23.6642 0.0000e+00
     -0.169      0.002    14.3285    170.159     49.157  47.848241     6.9300     2.8753     0.4260    20.0079 3.1042e+02    23.0537     -0.166     -0.241    23.6597 0.0000e+00
     -0.169      0.002    14.3427    170.373     49.145  47.827469     6.9300     2.7646     0.4260    20.0079 2.5324e+02    21.5657     -0.166     -0.240    23.6616 0.0000e+00
     -0.168      0.003    14.3630    170.454     49.133  47.796834     6.9300     2.7456     0.4260    20.0079 2.5930e+02    21.5657     -0.165     -0.239    23.6651 0.0000e+00
     -0.168      0.004    14.3874    170.376     49.128  47.766002     7.0200     2.7456     0.4260    20.1771 2.9159e+02    21.5657     -0.164     -0.239    23.6665 0.0000e+00
     -0.167      0.005    14.4122    170.186     49.130  47.738639     7.0200     2.7570     0.4260    20.1771 2.9102e+02    21.5356     -0.164     -0.238    23.6635 0.0000e+00
     -0.166      0.007    14.4330    169.967     49.129  47.709427     7.0200     2.8715     0.4260    20.1771 2.9159e+02    22.3322     -0.163     -0.236    23.6538 0.0000e+00
     -0.164      0.009    14.4449    169.811     49.125  47.678503     7.0200     2.8943     0.4260    20.1771 2.9108e+02    22.3022     -0.161     -0.233    23.6351 0.0000e+00
     -0.161      0.012    14.4455    169.821     49.121  47.649509     6.9300     2.8676     0.4260    20.3040 2.8844e+02    22.3172     -0.158     -0.229    23.6085 0.0000e+00
     -0.157      0.014    14.4375    170.066     49.118  47.626602     6.9300     2.8791     0.4260    20.3040 2.7082e+02    22.4224     -0.154     -0.224    23.5787 0.0000e+00
     -0.153      0.016    14.4268    170.548     49.122  47.615561     6.9300     2.9439     0.4260    20.3040 2.5346e+02    23.0537     -0.150     -0.218    23.5495 0.0000e+00
     -0.149      0.018    14.4210    171.209     49.125  47.609480     6.9300     2.9363     0.4260    20.3040 2.3891e+02    23.0387     -0.146     -0.212    23.5218 0.0000e+00
     -0.144      0.019    14.4288    171.964     49.123  47.598809     6.9300     2.9554     0.4260    21.1500 2.2781e+02    23.1288     -0.141     -0.205    23.4965 0.0000e+00
     -0.139      0.021    14.4554    172.742     49.111  47.576741     6.9300     2.9439     0.4260    21.1500 2.1158e+02    23.0537     -0.136     -0.197    23.4757 0.0000e+00
     -0.133      0.023    14.5003    173.476     49.083  47.533426     6.9300     3.0202     0.4260    21.1500 2.0497e+02    22.7681     -0.131     -0.190    23.4613 0.0000e+00
     -0.128      0.026    14.5591    174.090     49.037  47.465241     6.9300     2.9935     0.4260    21.1500 1.9596e+02    22.7531     -0.125     -0.182    23.4517 0.0000e+00
     -0.121      0.028    14.6257    174.529     48.987  47.381747     6.9300     3.0050     0.4260    21.1500 1.9009e+02    22.7531     -0.119     -0.173    23.4431 0.0000e+00
     -0.114      0.031    14.6950    174.765     48.959  47.310217     7.0200     3.0012     0.3834    20.7693 1.6598e+02    22.8884     -0.112     -0.162    23.4319 0.0000e+00
     -0.106      0.032    14.7619    174.789     48.966  47.267244     7.0200     3.2148     0.3834    20.7693 1.3686e+02    25.2030     -0.104     -0.150    23.4157 0.0000e+00
     -0.096      0.033    14.8209    174.635     48.988  47.243347     7.0200     3.1728     0.3834    20.7693 1.1742e+02    25.2331     -0.095     -0.137    23.3916 0.0000e+00
     -0.087      0.032    14.8682    174.410     49.009  47.228186     7.0200     3.1881     0.3834    20.7693 1.0157e+02    25.2481     -0.085     -0.123    23.3562 0.0000e+00
     -0.078      0.030    14.9013    174.255     49.025  47.217719     7.0200     3.1957     0.4260    19.8387 8.7412e+01    25.1880     -0.076     -0.111    23.3101 0.0000e+00
     -0.070      0.026    14.9174    174.272     49.038  47.213115     7.0200     3.2529     0.4260    19.8387 7.8754e+01    23.3393     -0.069     -0.100    23.2599 0.0000e+00
     -0.064      0.022    14.9171    174.488     49.055  47.221073     7.0200     3.2567     0.4260    19.8387 7.3961e+01    23.2791     -0.063     -0.091    23.2140 0.0000e+00
     -0.059      0.017    14.9082    174.864     49.080  47.247678     7.0200     3.2415     0.4260    19.8387 6.6461e+01    23.2190     -0.058     -0.084    23.1777 0.0000e+00
     -0.055      0.013    14.9023    175.334     49.107  47.290116     6.8400     3.2758     0.4260    18.6543 6.3773e+01    23.3242     -0.054     -0.079    23.1515 0.0000e+00
     -0.053      0.009    14.9087    175.828     49.131  47.341869     6.8400     3.1843     0.4260    18.6543 6.3524e+01    21.1749     -0.052     -0.075    23.1337 0.0000e+00
     -0.052      0.006    14.9297    176.284     49.155  47.396924     6.8400     3.2033     0.4260    18.6543 6.4849e+01    21.1298     -0.051     -0.074    23.1248 0.0000e+00
     -0.051      0.006    14.9610    176.660     49.160  47.432315     6.8400     3.1576     0.4260    18.6543 6.7495e+01    21.1599     -0.051     -0.073    23.1277 0.0000e+00
     -0.051      0.008    14.9963    176.928     49.134  47.427756     6.8400     3.1881     0.3834    18.5697 7.4347e+01    21.0397     -0.051     -0.073    23.1448 0.0000e+00
     -0.050      0.012    15.0305    177.062     49.089  47.389959     6.8400     3.1766     0.3834    18.5697 8.7831e+01    21.7310     -0.050     -0.072    23.1732 0.0000e+00
     -0.047      0.018    15.0601    177.023     49.040  47.332626     6.8400     3.1995     0.3834    18.5697 8.5775e+01    21.8513     -0.047     -0.068    23.2060 0.0000e+00
     -0.042      0.026    15.0836    176.788     48.997  47.266229     6.8400     3.1919     0.3834    18.5697 7.8005e+01    21.6559     -0.042     -0.060    23.2365 0.0000e+00
     -0.034      0.034    15.1005    176.378     48.963  47.196839     6.8400     3.1805     0.3834    18.5697 7.3560e+01    21.9264     -0.034     -0.049    23.2574 0.0000e+00
     -0.024      0.042    15.1102    175.852     48.930  47.119823     6.8400     3.4856     0.3834    19.2465 7.3848e+01    23.4896     -0.024     -0.035    23.2635 0.0000e+00
     -0.012      0.050    15.1098    175.300     48.875  47.014641     6.8400     3.4780     0.3834    19.2465 7.0723e+01    23.5948     -0.012     -0.018    23.2530 0.0000e+00
      0.002      0.057    15.0970    174.818     48.760  46.849278     6.8400     3.4894     0.3834    19.2465 6.5529e+01    23.5647      0.001      0.002    23.2273 0.0000e+00
      0.018      0.063    15.0726    174.489     48.542  46.583597     6.8400     3.5162     0.3834    19.2465 5.5481e+01    23.3693      0.017      0.025    23.1899 0.0000e+00
      0.035      0.069    15.0409    174.349     48.175  46.170529     6.8400     4.8856     0.4260    19.4157 5.1418e+01    20.8893      0.034      0.050    23.1433 0.0000e+00
      0.054      0.075    15.0090    174.344     47.626  45.573239     6.8400     4.8704     0.4260    19.4157 4.8837e+01    20.8593      0.052      0.076    23.0895 0.0000e+00
      0.073      0.081    14.9840    174.316     46.913  44.808806     6.8400     4.8895     0.4260    19.4157 4.7117e+01    20.9044      0.072      0.104    23.0321 0.0000e+00
      0.094      0.086    14.9728    174.045     46.157  43.994371     6.8400     4.8589     0.4260    19.4157 4.7168e+01    20.8743      0.092      0.133    22.9727 0.0000e+00
      0.116      0.092    14.9793    173.279     45.502  43.271375     6.7500     4.8818     0.4260    18.4005 4.2700e+01    19.6268      0.114      0.165    22.9077 0.0000e+00
      0.141      0.096    15.0003    171.758     45.012  42.704579     6.7500     4.8818     0.4260    18.4005 3.5062e+01    19.7170      0.138      0.201    22.8318 0.0000e+00
      0.168      0.100    15.0232    169.250     44.659  42.273593     6.7500     4.8742     0.4260    18.4005 3.2543e+01    19.7921      0.164      0.238    22.7427 0.0000e+00
      0.195      0.101    15.0281    165.660     44.353  41.897161     6.7500     4.9047     0.4260    18.4005 2.7470e+01    19.6869      0.191      0.277    22.6423 0.0000e+00
      0.221      0.101    14.9924    161.134     44.020  41.502633     6.6600     3.6954     0.3834    16.7931 2.5359e+01    17.2070      0.217      0.315    22.5339 0.0000e+00
      0.247      0.099    14.8916    156.038     43.637  41.062064     6.6600     3.6878     0.3834    16.7931 2.3831e+01    17.1318      0.243      0.352    22.4227 0.0000e+00
      0.273      0.096    14.7031    150.828     43.236  40.600603     6.6600     3.6726     0.3834    16.7931 2.1522e+01    17.0116      0.267      0.388    22.3164 0.0000e+00
      0.297      0.092    14.4172    145.901     42.887  40.185366     6.6600     3.6649     0.3834    16.7931 1.9958e+01    17.0717      0.291      0.422    22.2195 0.0000e+00
      0.320      0.089    14.0470    141.528     42.624  39.854193     6.6600     3.3636     0.3834    16.7931 1.8577e+01    14.0957      0.314      0.455    22.1288 0.0000e+00
      0.342      0.086    13.6261    137.826     42.391  39.562345     6.3000     3.3864     0.3834    14.6358 1.7752e+01    14.0206      0.335      0.486    22.0376 0.0000e+00
      0.363      0.083    13.1953    134.760     42.103  39.228033     6.3000     3.3788     0.3834    14.6358 1.6632e+01    13.9454      0.356      0.516    21.9409 0.0000e+00
      0.383      0.080    12.7894    132.168     41.732  38.813609     6.3000     3.3674     0.3834    14.6358 1.5633e+01    14.0356      0.376      0.545    21.8390 0.0000e+00
      0.403      0.079    12.4301    129.826     41.331  38.357122     6.3000     2.9478     0.3834    14.6358 1.5145e+01    14.4865      0.395      0.573    21.7401 0.0000e+00
      0.423      0.078    12.1259    127.506     40.990  37.938882     6.1200     2.9401     0.2982    13.1130 1.4344e+01    14.5015      0.414      0.601    21.6530 0.0000e+00
      0.442      0.078    11.8745    125.020     40.689  37.548372     6.1200     2.9287     0.2982    13.1130 1.3824e+01    14.4865      0.434      0.629    21.5747 0.0000e+00
      0.462      0.078    11.6649    122.253     40.372  37.142852     6.1200     2.9516     0.2982    13.1130 1.2607e+01    14.5166      0.453      0.657    21.4922 0.0000e+00
      0.482      0.078    11.4806    119.194     40.100  36.780555     6.1200     2.5777     0.2982    13.1130 1.1493e+01    11.1649      0.473      0.686    21.3909 0.0000e+00
      0.503      0.078    11.3024    115.893     39.896  36.487664     5.9400     2.5586     0.2556    12.6900 1.0763e+01    11.1198      0.493      0.715    21.2663 0.0000e+00
      0.523      0.077    11.1113    112.401     39.718  36.229644     5.9400     2.5434     0.2556    12.6900 9.9723e+00    11.1949      0.513      0.743    21.1292 0.0000e+00
      0.542      0.076    10.8948    108.746     39.572  36.012945     5.9400     2.5739     0.2556    12.6900 9.3045e+00    11.1348      0.532      0.771    20.9891 0.0000e+00
      0.561      0.074    10.6509    104.987     39.466  35.849099     5.9400     2.3259     0.2556    12.6900 8.9456e+00     9.1508      0.551      0.798    20.8500 0.0000e+00
      0.580      0.072    10.3825    101.267     39.369  35.710254     5.9400     2.3069     0.2556    12.6900 8.3031e+00     8.9554      0.569      0.825    20.7189 0.0000e+00
      0.598      0.071    10.0934     97.772     39.250  35.561364     5.4900     2.3298     0.2130    10.4058 7.7437e+00     9.0606      0.587      0.851    20.5997 0.0000e+00
      0.616      0.069     9.7856     94.664     39.108  35.390452     5.4900     2.3336     0.2130    10.4058 7.3056e+00     9.0606      0.604      0.876    20.4947 0.0000e+00
      0.633      0.068     9.4635     92.047     38.961  35.207397     5.4900     2.1238     0.2130    10.4058 6.9873e+00     7.6478      0.621      0.901    20.4101 0.0000e+00
      0.650      0.067     9.1400     89.953     38.858  35.052503     5.4900     2.1428     0.2130    10.4058 6.6712e+00     7.6478      0.638      0.925    20.3468 0.0000e+00
      0.667      0.066     8.8340     88.314     38.828  34.959719     5.2200     2.1276     0.1704     7.3602 6.3048e+00     7.6027      0.654      0.948    20.2948 0.0000e+00
      0.683      0.065     8.5624     86.955     38.838  34.906281     5.2200     2.1314     0.1704     7.3602 5.9416e+00     7.5576      0.670      0.972    20.2413 0.0000e+00
      0.700      0.066     8.3365     85.610     38.860  34.868032     5.2200     2.3336     0.1704     7.3602 5.6495e+00     6.1448      0.687      0.995    20.1769 0.0000e+00
      0.716      0.066     8.1596     84.000     38.918  34.856558     5.2200     2.3221     0.1704     7.3602 5.4352e+00     6.1748      0.703      1.019    20.0985 0.0000e+00
      0.733      0.068     8.0244     81.939     39.020  34.874739     5.0400     2.3183     0.1704     5.5413 5.3137e+00     6.1899      0.719      1.042    20.0139 0.0000e+00
      0.750      0.069     7.9133     79.328     39.153  34.909595     5.0400     2.3107     0.1704     5.5413 5.2063e+00     6.2049      0.736      1.066    19.9347 0.0000e+00
      0.768      0.070     7.8022     76.057     39.310  34.960516     5.0400     3.0546     0.1704     5.5413 4.7244e+00     5.2430      0.753      1.092    19.8598 0.0000e+00
      0.786      0.072     7.6672     71.998     39.489  35.033154     5.0400     3.0584     0.1704     5.5413 4.2223e+00     5.2129      0.771      1.118    19.7790 0.0000e+00
      0.805      0.072     7.4924     67.093     39.680  35.123110     4.8600     3.0431     0.1278     4.0185 3.8692e+00     5.2129      0.790      1.145    19.6854 0.0000e+00
      0.824      0.072     7.2682     61.455     39.874  35.226641     4.8600     3.0508     0.1278     4.0185 3.6622e+00     5.2430      0.809      1.172    19.5791 0.0000e+00
      0.843      0.070     6.9834     55.355     40.056  35.329764     4.8600     2.3755     0.1278     4.0185 3.4125e+00     4.3562      0.827      1.199    19.4663 0.0000e+00
      0.861      0.068     6.6246     49.124     40.196  35.404521     4.8600     2.3984     0.1278     4.0185 3.2638e+00     4.2961      0.844      1.224    19.3561 0.0000e+00
      0.878      0.065     6.1851     43.114     40.285  35.445100     4.8600     2.3870     0.1278     4.0185 3.1826e+00     4.3111      0.861      1.249    19.2563 0.0000e+00
      0.894      0.061     5.6749     37.665     40.340  35.466280     4.5900     2.3755     0.1278     2.6226 2.8698e+00     4.2660      0.877      1.272    19.1704 0.0000e+00
      0.910      0.057     5.1190     33.067     40.367  35.473708     4.5900     1.8873     0.1278     2.6226 2.7198e+00     3.3943      0.893      1.294    19.0978 0.0000e+00
      0.925      0.053     4.5484     29.515     40.371  35.469366     4.5900     1.9025     0.1278     2.6226 2.6441e+00     3.2740      0.907      1.315    19.0372 0.0000e+00
      0.938      0.048     3.9961     27.089     40.372  35.467940     4.5900     1.8758     0.1278     2.6226 2.5504e+00     3.3191      0.919      1.333    18.9894 0.0000e+00
      0.949      0.044     3.4939     25.755     40.383  35.476971     4.5000     1.8911     0.0852     1.9035 2.5565e+00     3.3191      0.930      1.349    18.9558 0.0000e+00
      0.959      0.040     3.0691     25.396     40.400  35.490946     4.5000     1.9712     0.0852     1.9035 2.5861e+00     3.3342      0.940      1.364    18.9354 0.0000e+00
      0.968      0.037     2.7405     25.861     40.425  35.509632     4.5000     1.9521     0.0852     1.9035 2.6315e+00     3.3342      0.949      1.376    18.9252 0.0000e+00
      0.976      0.036     2.5158     26.988     40.459  35.534050     4.5000     1.9445     0.0852     1.9035 2.6241e+00     3.3943      0.957      1.388    18.9220 0.0000e+00
      0.985      0.035     2.3922     28.596     40.496  35.558827     4.5000     1.9368     0.0852     1.4805 2.5783e+00     3.3342      0.966      1.401    18.9216 0.0000e+00
      0.994      0.035     2.3591     30.476     40.523  35.574728     4.5000     2.3374     0.0852     1.4805 2.5152e+00     3.3642      0.974      1.413    18.9201 0.0000e+00
      1.003      0.036     2.4027     32.411     40.543  35.582030     4.5000     2.2840     0.0852     1.4805 2.5141e+00     3.3342      0.983      1.426    18.9157 0.0000e+00
      1.012      0.037     2.5079     34.224     40.570  35.594563     4.5000     2.3221     0.0852     1.4805 2.4340e+00     3.2740      0.992      1.439    18.9090 0.0000e+00
      1.021      0.039     2.6579     35.789     40.606  35.611709     4.5000     2.3107     0.0852     1.4805 2.3796e+00     3.2740      1.001      1.453    18.9002 0.0000e+00
      1.031      0.041     2.8332     37.031     40.632  35.614273     4.5000     2.3221     0.0852     1.4805 2.3858e+00     3.1388      1.011      1.466    18.8895 0.0000e+00
      1.041      0.044     3.0139     37.927     40.617  35.573229     4.5000     2.3221     0.0852     1.4805 2.4035e+00     3.1538      1.021      1.481    18.8773 0.0000e+00
      1.052      0.047     3.1834     38.485     40.534  35.463769     4.5000     2.3221     0.0852     1.4805 2.3078e+00     3.0786      1.032      1.497    18.8632 0.0000e+00
      1.065      0.050     3.3302     38.728     40.415  35.316117     4.5000     2.3336     0.0852     1.4805 2.2656e+00     3.0486      1.044      1.515    18.8450 0.0000e+00
      1.078      0.053     3.4475     38.694     40.323  35.191904     4.5000     2.3221     0.0852     1.3959 2.1263e+00     3.0486      1.058      1.534    18.8202 0.0000e+00
      1.093      0.055     3.5333     38.431     40.279  35.111476     4.5000     1.8186     0.0852     1.3959 2.0152e+00     3.1538      1.072      1.555    18.7856 0.0000e+00
      1.108      0.057     3.5885     38.012     40.263  35.061306     4.5000     1.8148     0.0852     1.3959 1.9396e+00     3.0486      1.086      1.576    18.7400 0.0000e+00
      1.123      0.057     3.6150     37.545     40.259  35.028013     4.5000     1.8300     0.0852     1.3959 1.8442e+00     3.1388      1.101      1.597    18.6870 0.0000e+00
      1.138      0.057     3.6157     37.137     40.253  34.998759     4.5900     1.8148     0.0852     1.2267 1.7928e+00     3.1538      1.116      1.619    18.6324 0.0000e+00
      1.152      0.056     3.5949     36.858     40.236  34.965740     4.5900     0.9069     0.0852     1.2267 1.7425e+00     2.8532      1.130      1.639    18.5806 0.0000e+00
      1.166      0.055     3.5589     36.737     40.216  34.932036     4.5900     0.9145     0.0852     1.2267 1.7244e+00     2.8832      1.144      1.659    18.5353 0.0000e+00
      1.180      0.054     3.5178     36.773     40.198  34.900539     4.5900     0.9069     0.0852     1.2267 1.6999e+00     2.8532      1.157      1.678    18.4982 0.0000e+00
      1.193      0.053     3.4817     36.939     40.183  34.870773     4.5900     0.9145     0.0852     1.0152 1.6764e+00     2.8832      1.170      1.697    18.4693 0.0000e+00
      1.206      0.053     3.4572     37.182     40.169  34.842721     4.5900     0.8458     0.0852     1.0152 1.6637e+00     2.7630      1.183      1.715    18.4467 0.0000e+00
      1.219      0.054     3.4472     37.441     40.152  34.812862     4.5900     0.8725     0.0852     1.0152 1.6131e+00     2.7329      1.196      1.734    18.4268 0.0000e+00
      1.233      0.055     3.4521     37.658     40.129  34.777194     4.5900     0.8344     0.0852     1.0152 1.5947e+00     2.7179      1.209      1.754    18.4067 0.0000e+00
      1.247      0.056     3.4691     37.806     40.099  34.734128     4.5900     0.8229     0.0852     0.8883 1.5672e+00     2.7480      1.223      1.774    18.3862 0.0000e+00
      1.261      0.057     3.4933     37.890     40.061  34.680101     4.5900     0.8039     0.0852     0.8883 1.5730e+00     2.4023      1.237      1.795    18.3663 0.0000e+00
      1.276      0.058     3.5190     37.929     40.017  34.614568     4.5900     0.7543     0.0852     0.8883 1.4937e+00     2.5526      1.252      1.815    18.3469 0.0000e+00
      1.291      0.059     3.5408     37.936     39.975  34.543819     4.5900     0.7810     0.0852     0.8883 1.4728e+00     2.4023      1.266      1.837    18.3274 0.0000e+00
      1.306      0.059     3.5563     37.920     39.943  34.474730     4.5900     0.7581     0.0852     0.8883 1.4227e+00     2.4624      1.281      1.859    18.3060 0.0000e+00
      1.322      0.060     3.5661     37.882     39.917  34.408681     4.5900     0.6818     0.0852     0.7614 1.3873e+00     2.2971      1.296      1.880    18.2794 0.0000e+00
      1.337      0.060     3.5723     37.817     39.897  34.347861     4.5900     0.6856     0.0852     0.7614 1.3679e+00     2.1167      1.311      1.902    18.2450 0.0000e+00
      1.352      0.060     3.5761     37.721     39.890  34.301793     4.5900     0.6780     0.0852     0.7614 1.3679e+00     2.2219      1.326      1.924    18.2015 0.0000e+00
      1.367      0.059     3.5784     37.584     39.904  34.277996     4.5900     0.6970     0.0852     0.7614 1.3272e+00     2.2219      1.341      1.945    18.1501 0.0000e+00
      1.383      0.059     3.5788     37.395     39.923  34.266161     4.5000     0.5940     0.0852     0.5922 1.3240e+00     1.4554      1.356      1.967    18.0951 0.0000e+00
      1.398      0.059     3.5767     37.143     39.931  34.251249     4.5000     0.6360     0.0852     0.5922 1.3080e+00     1.3652      1.371      1.988    18.0412 0.0000e+00
      1.412      0.059     3.5712     36.823     39.926  34.227304     4.5000     0.6055     0.0852     0.5922 1.2998e+00     1.4854      1.385      2.009    17.9911 0.0000e+00
      1.427      0.059     3.5614     36.437     39.906  34.187938     4.5000     0.5979     0.0852     0.5922 1.3001e+00     1.4554      1.400      2.030    17.9467 0.0000e+00
      1.442      0.061     3.5461     35.998     39.878  34.136517     4.3200     0.5597     0.0426     0.5076 1.2796e+00     1.2149      1.414      2.051    17.9109 0.0000e+00
      1.457      0.062     3.5242     35.519     39.848  34.079132     4.3200     0.5368     0.0426     0.5076 1.2832e+00     1.1698      1.429      2.073    17.8834 0.0000e+00
      1.473      0.064     3.4955     35.006     39.815  34.014342     4.3200     0.5292     0.0426     0.5076 1.2188e+00     1.1698      1.445      2.096    17.8588 0.0000e+00
      1.490      0.066     3.4608     34.446     39.775  33.940711     4.3200     0.5292     0.0426     0.5076 1.1820e+00     1.2600      1.462      2.120    17.8311 0.0000e+00
      1.508      0.068     3.4214     33.824     39.723  33.854445     4.3200     0.4720     0.0426     0.5076 1.1670e+00     1.0646      1.479      2.145    17.7973 0.0000e+00
      1.526      0.070     3.3787     33.139     39.661  33.756304     4.2300     0.4911     0.0426     0.3807 1.1965e+00     0.9594      1.496      2.170    17.7567 0.0000e+00
      1.543      0.071     3.3330     32.402     39.597  33.653780     4.2300     0.4987     0.0426     0.3807 1.1576e+00     1.1097      1.514      2.195    17.7106 0.0000e+00
      1.562      0.072     3.2830     31.630     39.540  33.555178     4.2300     0.4872     0.0426     0.3807 1.1484e+00     1.0345      1.532      2.221    17.6609 0.0000e+00
      1.580      0.072     3.2271     30.846     39.496  33.467867     4.2300     0.4987     0.0426     0.3807 1.1176e+00     0.9744      1.550      2.248    17.6081 0.0000e+00
      1.599      0.072     3.1654     30.075     39.469  33.400249     4.2300     0.5139     0.0426     0.3807 1.0717e+00     1.0796      1.568      2.275    17.5515 0.0000e+00
      1.618      0.072     3.0989     29.345     39.465  33.358054     4.2300     0.4872     0.0426     0.3807 1.0544e+00     1.0195      1.587      2.301    17.4904 0.0000e+00
      1.636      0.071     3.0290     28.699     39.469  33.330028     4.2300     0.5063     0.0426     0.3807 1.0491e+00     0.9744      1.605      2.327    17.4268 0.0000e+00
      1.654      0.071     2.9578     28.163     39.460  33.296814     4.2300     0.4796     0.0426     0.3807 1.0663e+00     0.9444      1.622      2.353    17.3645 0.0000e+00
      1.672      0.072     2.8873     27.738     39.437  33.253516     4.1400     0.4796     0.0426     0.3807 1.0248e+00     0.9444      1.639      2.378    17.3073 0.0000e+00
      1.689      0.073     2.8201     27.414     39.414  33.206410     4.1400     0.4987     0.0426     0.3807 1.0257e+00     0.9143      1.656      2.402    17.2584 0.0000e+00
      1.707      0.075     2.7604     27.176     39.400  33.158776     4.1400     0.4949     0.0426     0.3807 1.0139e+00     1.0496      1.674      2.428    17.2189 0.0000e+00
      1.726      0.078     2.7108     27.000     39.389  33.107813     4.1400     0.4300     0.0426     0.3807 9.7523e-01     1.0045      1.693      2.456    17.1867 0.0000e+00
      1.747      0.080     2.6716     26.838     39.370  33.047849     4.0500     0.4186     0.0000     0.2961 9.5241e-01     1.0045      1.713      2.485    17.1562 0.0000e+00
      1.768      0.083     2.6423     26.637     39.328  32.966852     4.0500     0.4300     0.0000     0.2961 9.0460e-01     1.0496      1.734      2.515    17.1203 0.0000e+00
      1.790      0.085     2.6219     26.345     39.268  32.863026     4.0500     0.4376     0.0000     0.2961 9.4334e-01     1.0195      1.755      2.546    17.0750 0.0000e+00
      1.812      0.087     2.6078     25.922     39.216  32.754228     4.0500     0.3652     0.0000     0.2961 8.9599e-01     1.2600      1.777      2.577    17.0221 0.0000e+00
      1.834      0.087     2.5951     25.359     39.186  32.651049     4.0500     0.3804     0.0000     0.2961 8.9249e-01     1.2299      1.799      2.609    16.9665 0.0000e+00
      1.857      0.088     2.5787     24.662     39.169  32.551715     3.9600     0.3728     0.0426     0.1692 8.8824e-01     1.1247      1.821      2.641    16.9081 0.0000e+00
      1.879      0.087     2.5538     23.832     39.161  32.457456     3.9600     0.3804     0.0426     0.1692 8.5621e-01     1.3351      1.843      2.673    16.8402 0.0000e+00
      1.902      0.086     2.5170     22.863     39.169  32.378777     3.9600     0.3652     0.0426     0.1692 8.5342e-01     1.2450      1.865      2.706    16.7565 0.0000e+00
      1.925      0.085     2.4672     21.760     39.199  32.322417     3.9600     0.3575     0.0426     0.1692 8.4861e-01     1.2901      1.887      2.738    16.6574 0.0000e+00
      1.946      0.083     2.4047     20.541     39.241  32.281264     3.8700     0.3766     0.0426     0.1692 7.9075e-01     1.2149      1.908      2.768    16.5487 0.0000e+00
      1.966      0.081     2.3289     19.244     39.290  32.250282     3.8700     0.3652     0.0426     0.1692 7.9075e-01     1.2750      1.928      2.797    16.4377 0.0000e+00
      1.986      0.079     2.2392     17.920     39.354  32.233088     3.8700     0.3842     0.0426     0.1692 7.8835e-01     1.4854      1.948      2.825    16.3290 0.0000e+00
      2.006      0.079     2.1357     16.615     39.434  32.227076     3.8700     0.3652     0.0426     0.1692 7.7848e-01     1.5155      1.967      2.853    16.2255 0.0000e+00
      2.025      0.079     2.0199     15.358     39.515  32.220739     3.8700     0.3690     0.0426     0.0846 7.7966e-01     1.5155      1.986      2.881    16.1293 0.0000e+00
      2.045      0.078     1.8959     14.172     39.594  32.214364     3.8700     0.3423     0.0426     0.0846 7.4926e-01     1.4854      2.006      2.909    16.0388 0.0000e+00
      2.066      0.078     1.7687     13.052     39.684  32.220109     3.8700     0.3499     0.0426     0.0846 7.1011e-01     1.6508      2.026      2.938    15.9501 0.0000e+00
      2.086      0.077     1.6428     11.966     39.794  32.245446     3.8700     0.3652     0.0426     0.0846 7.0427e-01     1.8762      2.046      2.968    15.8596 0.0000e+00
      2.106      0.076     1.5215     10.884     39.928  32.293167     3.7800     0.3613     0.0852     0.0846 6.9787e-01     1.7109      2.066      2.996    15.7677 0.0000e+00
      2.126      0.074     1.4067      9.794     40.076  32.354214     3.7800     0.4033     0.0852     0.0846 6.8808e-01     1.7259      2.085      3.023    15.6782 0.0000e+00
      2.144      0.072     1.2978      8.697     40.212  32.409221     3.7800     0.3613     0.0852     0.0846 7.1662e-01     2.2820      2.103      3.050    15.5935 0.0000e+00
      2.162      0.070     1.1918      7.607     40.321  32.447109     3.7800     0.3652     0.0852     0.0846 6.9213e-01     2.2971      2.120      3.075    15.5137 0.0000e+00
      2.179      0.068     1.0858      6.545     40.397  32.466099     3.7800     0.3575     0.0852     0.0846 6.7008e-01     2.2069      2.137      3.100    15.4375 0.0000e+00
      2.197      0.066     0.9786      5.522     40.449  32.471255     3.7800     0.3575     0.0426     0.1692 6.5639e-01     2.2971      2.154      3.124    15.3643 0.0000e+00
      2.213      0.064     0.8701      4.547     40.493  32.471871     3.7800     0.3575     0.0426     0.1692 6.6155e-01     2.4474      2.171      3.148    15.2954 0.0000e+00
      2.230      0.061     0.7621      3.634     40.536  32.472070     3.7800     0.3804     0.0426     0.1692 6.6790e-01     2.5075      2.187      3.172    15.2336 0.0000e+00
      2.245      0.058     0.6565      2.804     40.575  32.475864     3.7800     0.3766     0.0426     0.1692 6.4845e-01     2.5526      2.202      3.194    15.1811 0.0000e+00
      2.260      0.054     0.5544      2.077     40.602  32.480304     3.6900     0.3461     0.0852     0.1269 6.4845e-01     2.4474      2.216      3.214    15.1358 0.0000e+00
      2.273      0.050     0.4569      1.471     40.610  32.478651     3.6900     0.2927     0.0852     0.1269 6.3852e-01     2.8832      2.230      3.234    15.0921 0.0000e+00
      2.286      0.045     0.3655      1.010     40.613  32.478385     3.6900     0.2965     0.0852     0.1269 6.3465e-01     2.9133      2.242      3.251    15.0498 0.0000e+00
      2.297      0.041     0.2822      0.721     40.617  32.483398     3.6900     0.3003     0.0852     0.1269 6.2589e-01     2.8682      2.252      3.267    15.0158 0.0000e+00
      2.306      0.036     0.2091      0.618     40.617  32.491064     3.6900     0.3118     0.0426     0.2115 6.3797e-01     2.9133      2.262      3.280    14.9949 0.0000e+00
      2.315      0.031     0.1481      0.691     40.611  32.499469     3.6900     0.3766     0.0426     0.2115 6.2344e-01     2.8832      2.270      3.292    14.9848 0.0000e+00
      2.322      0.027     0.1016      0.923     40.590  32.502932     3.6900     0.3690     0.0426     0.2115 6.5968e-01     2.8231      2.278      3.303    14.9815 0.0000e+00
      2.328      0.024     0.0725      1.290     40.548  32.498417     3.6900     0.3804     0.0426     0.2115 6.3548e-01     2.8532      2.284      3.312    14.9842 0.0000e+00
      2.333      0.021     0.0621      1.768     40.487  32.488680     3.6900     0.3499     0.0852     0.2115 6.5213e-01     2.8231      2.288      3.319    14.9933 0.0000e+00
      2.338      0.020     0.0694      2.344     40.415  32.479049     3.6900     0.3003     0.0852     0.2115 6.4550e-01     2.8682      2.292      3.325    15.0098 0.0000e+00
      2.342      0.020     0.0927      3.010     40.341  32.474879     3.6900     0.3194     0.0852     0.2115 5.9953e-01     2.9734      2.296      3.331    15.0353 0.0000e+00
      2.346      0.021     0.1295      3.763     40.284  32.479020     3.6900     0.3041     0.0852     0.2115 6.4005e-01     2.9133      2.300      3.336    15.0713 0.0000e+00
      2.351      0.024     0.1774      4.606     40.249  32.484659     3.6900     0.3156     0.0852     0.2115 6.5539e-01     2.9283      2.305      3.344    15.1190 0.0000e+00
      2.357      0.028     0.2349      5.546     40.244  32.489343     3.6900     0.2889     0.0852     0.2115 6.4466e-01     2.4624      2.312      3.353    15.1794 0.0000e+00
      2.365      0.032     0.3015      6.573     40.275  32.498281     3.6900     0.3003     0.0852     0.2115 6.4270e-01     2.3722      2.320      3.364    15.2471 0.0000e+00
      2.374      0.035     0.3766      7.648     40.321  32.501972     3.6900     0.2927     0.0852     0.2115 6.0424e-01     2.4925      2.328      3.377    15.3098 0.0000e+00
      2.384      0.039     0.4608      8.689     40.359  32.485558     3.6900     0.3003     0.0852     0.2115 6.0740e-01     2.5075      2.338      3.390    15.3518 0.0000e+00
      2.394      0.042     0.5549      9.592     40.395  32.448621     3.6900     0.3079     0.0852     0.2538 6.4550e-01     2.5075      2.348      3.405    15.3619 0.0000e+00
      2.405      0.046     0.6583     10.257     40.443  32.401112     3.6900     0.3156     0.0852     0.2538 6.2738e-01     2.4624      2.358      3.420    15.3419 0.0000e+00
      2.417      0.049     0.7667     10.606     40.502  32.354120     3.6900     0.3079     0.0852     0.2538 6.5241e-01     2.4925      2.370      3.437    15.3010 0.0000e+00
      2.430      0.051     0.8722     10.592     40.557  32.310951     3.6900     0.3041     0.0852     0.2538 6.2033e-01     2.4624      2.383      3.456    15.2428 0.0000e+00
      2.444      0.053     0.9645     10.192     40.587  32.264048     3.6900     0.3118     0.0852     0.2115 6.1376e-01     2.7480      2.397      3.476    15.1613 0.0000e+00
      2.458      0.055     1.0334      9.428     40.590  32.210804     3.6900     0.2851     0.0852     0.2115 6.1430e-01     2.7179      2.411      3.497    15.0553 0.0000e+00
      2.473      0.055     1.0711      8.381     40.585  32.160780     3.6900     0.3118     0.0852     0.2115 5.9849e-01     2.7480      2.425      3.517    14.9390 0.0000e+00
      2.487      0.056     1.0718      7.177     40.585  32.122420     3.6900     0.3232     0.0852     0.2115 5.9266e-01     2.6728      2.439      3.537    14.8316 0.0000e+00
      2.501      0.055     1.0331      5.955     40.593  32.097374     3.6900     0.3995     0.0852     0.1269 5.9758e-01     2.9283      2.453      3.557    14.7436 0.0000e+00
      2.515      0.055     0.9568      4.828     40.599  32.075001     3.6900     0.3537     0.0852     0.1269 5.8068e-01     2.8532      2.467      3.578    14.6743 0.0000e+00
      2.529      0.055     0.8514      3.878     40.595  32.045374     3.6900     0.3728     0.0852     0.1269 5.1059e-01     2.8231      2.480      3.598    14.6178 0.0000e+00
      2.543      0.054     0.7297      3.156     40.598  32.016435     3.6900     0.3652     0.0852     0.1269 5.3211e-01     2.7931      2.494      3.617    14.5706 0.0000e+00
      2.557      0.054     0.6058      2.681     40.625  31.996306     3.6900     0.3079     0.0852     0.1269 5.2865e-01     2.9133      2.507      3.637    14.5318 0.0000e+00
      2.571      0.053     0.4916      2.432     40.674  31.983581     3.7800     0.3156     0.0852     0.0846 5.2968e-01     2.8682      2.521      3.656    14.4987 0.0000e+00
      2.584      0.052     0.3951      2.357     40.731  31.974863     3.7800     0.3194     0.0852     0.0846 5.4203e-01     2.9584      2.534      3.676    14.4664 0.0000e+00
      2.598      0.051     0.3218      2.391     40.788  31.971784     3.7800     0.3232     0.0852     0.0846 5.2601e-01     2.9434      2.548      3.695    14.4277 0.0000e+00
      2.611      0.049     0.2737      2.471     40.840  31.973521     3.7800     0.3728     0.0852     0.0846 5.5804e-01     3.2440      2.560      3.713    14.3765 0.0000e+00
      2.623      0.047     0.2487      2.555     40.881  31.976576     3.8700     0.3499     0.0852     0.1692 4.9378e-01     3.0335      2.573      3.731    14.3141 0.0000e+00
      2.635      0.045     0.2415      2.607     40.915  31.981764     3.8700     0.3995     0.0852     0.1692 5.2169e-01     3.0937      2.584      3.748    14.2484 0.0000e+00
      2.646      0.043     0.2453      2.616     40.950  31.990466     3.8700     0.3652     0.0852     0.1692 5.6145e-01     3.1838      2.595      3.763    14.1890 0.0000e+00
      2.656      0.041     0.2538      2.587     40.993  32.005003     3.8700     0.3728     0.0852     0.1692 5.2579e-01     3.1989      2.605      3.778    14.1417 0.0000e+00
      2.666      0.039     0.2626      2.534     41.040  32.021331     3.7800     0.3537     0.0852     0.0846 5.3038e-01     3.0636      2.615      3.792    14.1065 0.0000e+00
      2.676      0.038     0.2682      2.474     41.082  32.031921     3.7800     0.3575     0.0852     0.0846 5.0091e-01     3.1388      2.624      3.805    14.0798 0.0000e+00
      2.685      0.038     0.2692      2.420     41.123  32.039598     3.7800     0.3652     0.0852     0.0846 5.0981e-01     3.2139      2.633      3.819    14.0568 0.0000e+00
      2.694      0.037     0.2664      2.376     41.176  32.054328     3.7800     0.3766     0.0852     0.0846 5.0430e-01     3.3792      2.642      3.832    14.0339 0.0000e+00
      2.704      0.037     0.2610      2.349     41.230  32.072117     3.7800     0.3804     0.0852     0.0846 4.9228e-01     3.3041      2.652      3.845    14.0095 0.0000e+00
      2.713      0.037     0.2550      2.337     41.272  32.085826     3.7800     0.3728     0.0852     0.3807 5.1515e-01     3.4394      2.661      3.859    13.9825 0.0000e+00
      2.723      0.036     0.2496      2.333     41.309  32.103070     3.7800     0.3652     0.0852     0.3807 4.8633e-01     3.3943      2.671      3.873    13.9526 0.0000e+00
      2.733      0.036     0.2453      2.327     41.349  32.128447     3.7800     0.3690     0.0852     0.3807 4.9755e-01     3.2440      2.680      3.887    13.9212 0.0000e+00
      2.742      0.035     0.2426      2.308     41.398  32.160806     3.7800     0.3766     0.0852     0.3807 4.7104e-01     3.3342      2.689      3.899    13.8918 0.0000e+00
      2.750      0.036     0.2415      2.279     41.453  32.192932     3.7800     0.3613     0.0852     0.2961 4.5673e-01     3.3492      2.697      3.911    13.8688 0.0000e+00
      2.758      0.036     0.2412      2.247     41.510  32.217553     3.7800     0.3804     0.0852     0.2961 4.6859e-01     3.3191      2.705      3.923    13.8545 0.0000e+00
      2.767      0.038     0.2406      2.218     41.572  32.237271     3.7800     0.3766     0.0852     0.2961 4.8580e-01     3.7700      2.714      3.936    13.8472 0.0000e+00
      2.777      0.040     0.2387      2.188     41.648  32.261304     3.7800     0.3919     0.0852     0.2961 4.7094e-01     3.8452      2.723      3.950    13.8409 0.0000e+00
      2.788      0.043     0.2358      2.155     41.748  32.298041     3.8700     0.3499     0.1278     0.2961 4.7371e-01     3.8151      2.734      3.965    13.8279 0.0000e+00
      2.799      0.045     0.2326      2.112     41.867  32.345393     3.8700     0.3804     0.1278     0.2961 4.7463e-01     3.7249      2.745      3.981    13.8042 0.0000e+00
      2.811      0.047     0.2297      2.059     41.997  32.402126     3.8700     0.4987     0.1278     0.2961 4.4798e-01     3.9504      2.757      3.998    13.7704 0.0000e+00
      2.824      0.048     0.2269      1.995     42.136  32.467524     3.8700     0.4872     0.1278     0.2961 4.3940e-01     4.0406      2.769      4.016    13.7282 0.0000e+00
      2.836      0.048     0.2236      1.917     42.274  32.535263     3.8700     0.5025     0.0852     0.3384 4.4788e-01     4.1157      2.781      4.034    13.6793 0.0000e+00
      2.849      0.048     0.2194      1.828     42.403  32.599640     3.8700     0.5025     0.0852     0.3384 4.5593e-01     4.1608      2.794      4.052    13.6266 0.0000e+00
      2.861      0.048     0.2141      1.737     42.511  32.654059     3.8700     0.4796     0.0852     0.3384 4.4846e-01     4.3111      2.806      4.070    13.5742 0.0000e+00
      2.873      0.047     0.2077      1.651     42.592  32.695208     3.8700     0.5063     0.0852     0.3384 4.3569e-01     4.2660      2.818      4.087    13.5246 0.0000e+00
      2.885      0.046     0.1998      1.577     42.645  32.724158     3.8700     0.5025     0.0852     0.3384 4.2218e-01     4.2660      2.829      4.104    13.4786 0.0000e+00
      2.897      0.045     0.1907      1.523     42.698  32.758529     3.8700     0.4987     0.0852     0.3807 3.9160e-01     4.2510      2.841      4.120    13.4374 0.0000e+00
      2.908      0.044     0.1813      1.489     42.790  32.821351     3.8700     0.3652     0.0852     0.3807 4.1517e-01     4.5366      2.851      4.135    13.4036 0.0000e+00
      2.918      0.044     0.1724      1.473     42.918  32.903632     3.8700     0.3957     0.0852     0.3807 3.9682e-01     4.5516      2.862      4.151    13.3794 0.0000e+00
      2.929      0.044     0.1648      1.475     43.058  32.983748     3.8700     0.3499     0.0852     0.3807 4.3911e-01     4.5666      2.872      4.166    13.3652 0.0000e+00
      2.941      0.044     0.1591      1.489     43.219  33.069200     3.9600     0.3919     0.1278     0.2538 3.9977e-01     4.5366      2.883      4.182    13.3580 0.0000e+00
      2.952      0.044     0.1556      1.510     43.428  33.178813     3.9600     0.4262     0.1278     0.2538 4.0572e-01     4.7470      2.894      4.198    13.3498 0.0000e+00
      2.963      0.045     0.1541      1.530     43.679  33.304190     3.9600     0.4224     0.1278     0.2538 3.9177e-01     4.7169      2.905      4.214    13.3312 0.0000e+00
      2.974      0.045     0.1543      1.552     43.943  33.427274     3.9600     0.4453     0.1278     0.2538 4.2071e-01     4.6568      2.916      4.230    13.2996 0.0000e+00
      2.986      0.045     0.1560      1.572     44.188  33.535336     3.9600     0.4224     0.1278     0.3384 3.9177e-01     4.8071      2.928      4.246    13.2567 0.0000e+00
      2.997      0.045     0.1584      1.588     44.380  33.611639     3.9600     0.3003     0.1278     0.3384 3.8669e-01     5.3181      2.939      4.263    13.1993 0.0000e+00
      3.009      0.045     0.1608      1.602     44.511  33.654743     3.9600     0.3003     0.1278     0.3384 4.0580e-01     5.2430      2.951      4.280    13.1233 0.0000e+00
      3.021      0.044     0.1634      1.617     44.602  33.682083     3.9600     0.3041     0.1278     0.3384 3.6744e-01     5.3031      2.962      4.297    13.0347 0.0000e+00
      3.032      0.043     0.1658      1.629     44.674  33.700949     4.0500     0.3041     0.1278     0.1269 3.6649e-01     5.2129      2.974      4.313    12.9459 0.0000e+00
      3.043      0.042     0.1678      1.636     44.732  33.710429     4.0500     0.2393     0.1278     0.1269 3.6323e-01     5.9193      2.985      4.329    12.8670 0.0000e+00
      3.054      0.042     0.1696      1.635     44.790  33.717013     4.0500     0.2584     0.1278     0.1269 3.6768e-01     5.8592      2.995      4.343    12.8043 0.0000e+00
      3.064      0.041     0.1713      1.626     44.849  33.720473     4.0500     0.2393     0.1278     0.1269 3.8745e-01     5.9043      3.004      4.357    12.7568 0.0000e+00
      3.074      0.041     0.1727      1.619     44.900  33.715792     4.0500     0.2355     0.1278     0.1269 3.8527e-01     6.0245      3.014      4.372    12.7171 0.0000e+00
      3.084      0.041     0.1735      1.625     44.941  33.705678     4.0500     0.2431     0.1704     0.1269 3.6355e-01     6.4304      3.025      4.387    12.6785 0.0000e+00
      3.095      0.042     0.1736      1.639     44.979  33.693375     4.0500     0.2660     0.1704     0.1269 3.4658e-01     6.3853      3.036      4.403    12.6372 0.0000e+00
      3.107      0.042     0.1729      1.653     45.025  33.687483     4.0500     0.2584     0.1704     0.1269 3.4907e-01     6.4304      3.047      4.419    12.5913 0.0000e+00
      3.118      0.042     0.1724      1.668     45.097  33.700292     4.0500     0.2431     0.1704     0.1269 3.3394e-01     6.4754      3.057      4.434    12.5434 0.0000e+00
      3.128      0.041     0.1732      1.685     45.194  33.731255     4.1400     0.2011     0.1704     0.1692 3.4269e-01     6.9564      3.067      4.449    12.4974 0.0000e+00
      3.138      0.040     0.1748      1.700     45.309  33.774767     4.1400     0.1897     0.1704     0.1692 3.5869e-01     6.9264      3.077      4.463    12.4527 0.0000e+00
      3.148      0.040     0.1765      1.711     45.437  33.826586     4.1400     0.2049     0.1704     0.1692 3.4545e-01     6.9865      3.087      4.478    12.4076 0.0000e+00
      3.158      0.039     0.1782      1.720     45.559  33.874783     4.1400     0.1782     0.1704     0.1692 3.5151e-01     6.9264      3.097      4.492    12.3622 0.0000e+00
      3.169      0.039     0.1802      1.727     45.663  33.912404     4.0500     0.1935     0.1704     0.1269 3.4628e-01     7.0015      3.107      4.507    12.3165 0.0000e+00
      3.179      0.039     0.1821      1.742     45.746  33.941560     4.0500     0.1859     0.1704     0.1269 3.3994e-01     6.9264      3.117      4.521    12.2697 0.0000e+00
      3.188      0.039     0.1835      1.773     45.801  33.954180     4.0500     0.2049     0.1704     0.1269 3.3722e-01     6.9714      3.126      4.535    12.2217 0.0000e+00
      3.197      0.039     0.1846      1.818     45.826  33.945707     4.0500     0.1935     0.1704     0.1269 3.3379e-01     6.9865      3.136      4.548    12.1743 0.0000e+00
      3.207      0.040     0.1856      1.883     45.843  33.929726     4.0500     0.2011     0.1704     0.2115 3.4306e-01     6.6558      3.145      4.561    12.1313 0.0000e+00
      3.217      0.041     0.1873      1.979     45.866  33.917817     4.0500     0.1859     0.1704     0.2115 3.2527e-01     6.7159      3.155      4.576    12.0952 0.0000e+00
      3.228      0.041     0.1907      2.124     45.892  33.914724     4.0500     0.1935     0.1704     0.2115 3.2464e-01     6.6258      3.165      4.591    12.0646 0.0000e+00
      3.239      0.042     0.1958      2.337     45.916  33.919620     4.0500     0.1782     0.1704     0.2115 3.4009e-01     6.8211      3.176      4.607    12.0352 0.0000e+00
      3.250      0.042     0.2029      2.641     45.922  33.921929     4.0500     0.2011     0.1704     0.2115 3.6323e-01     6.1448      3.187      4.623    12.0037 0.0000e+00
      3.261      0.043     0.2134      3.044     45.908  33.914346     3.9600     0.1897     0.1704     0.1692 3.4276e-01     6.2049      3.198      4.638    11.9723 0.0000e+00
      3.271      0.044     0.2292      3.526     45.892  33.902771     3.9600     0.2049     0.1704     0.1692 3.4202e-01     6.2049      3.208      4.653    11.9476 0.0000e+00
      3.281      0.046     0.2522      4.047     45.901  33.899960     3.9600     0.2011     0.1704     0.1692 3.2162e-01     6.2049      3.218      4.667    11.9339 0.0000e+00
      3.292      0.048     0.2851      4.559     45.931  33.901205     3.9600     0.1935     0.1704     0.1692 3.4696e-01     6.2199      3.229      4.683    11.9312 0.0000e+00
      3.305      0.052     0.3286      5.026     45.955  33.890991     3.9600     0.2049     0.1278     0.0846 3.2169e-01     6.1748      3.241      4.701    11.9345 0.0000e+00
      3.319      0.055     0.3806      5.437     45.973  33.870557     3.9600     0.2011     0.1278     0.0846 3.1987e-01     6.2049      3.255      4.721    11.9349 0.0000e+00
      3.334      0.058     0.4370      5.812     45.993  33.846332     3.9600     0.2011     0.1278     0.0846 3.1286e-01     6.1748      3.270      4.743    11.9239 0.0000e+00
      3.350      0.060     0.4926      6.196     46.017  33.823740     3.9600     0.1935     0.1278     0.0846 3.2534e-01     6.2199      3.285      4.765    11.9015 0.0000e+00
      3.366      0.061     0.5435      6.655     46.044  33.804673     3.9600     0.2049     0.1704     0.0846 2.8310e-01     6.1748      3.300      4.787    11.8714 0.0000e+00
      3.381      0.061     0.5884      7.268     46.059  33.780087     3.9600     0.1859     0.1704     0.0846 2.8053e-01     6.2049      3.316      4.809    11.8346 0.0000e+00
      3.397      0.061     0.6296      8.092     46.055  33.743423     3.9600     0.1859     0.1704     0.0846 2.8310e-01     6.1899      3.331      4.831    11.7922 0.0000e+00
      3.412      0.061     0.6719      9.148     46.038  33.696787     3.9600     0.1859     0.1704     0.0846 2.6831e-01     6.0396      3.346      4.853    11.7483 0.0000e+00
      3.427      0.061     0.7225     10.426     46.019  33.645565     3.9600     0.1706     0.1704     0.1269 2.8651e-01     5.9193      3.361      4.875    11.7064 0.0000e+00
      3.443      0.062     0.7898     11.887     46.000  33.591938     3.9600     0.2164     0.1704     0.1269 2.8619e-01     5.9795      3.376      4.897    11.6675 0.0000e+00
      3.459      0.063     0.8801     13.490     45.967  33.527547     3.9600     0.2011     0.1704     0.1269 2.7714e-01     5.9945      3.392      4.920    11.6305 0.0000e+00
      3.475      0.064     0.9960     15.210     45.913  33.447101     3.9600     0.1859     0.1704     0.1269 2.9523e-01     5.4835      3.408      4.943    11.5934 0.0000e+00
      3.492      0.064     1.1362     17.044     45.850  33.360833     3.9600     0.1592     0.1704     0.1269 2.5390e-01     5.3632      3.424      4.967    11.5534 0.0000e+00
      3.508      0.065     1.2968     19.003     45.779  33.269501     3.8700     0.1630     0.0852     0.1269 2.7420e-01     5.5436      3.441      4.990    11.5101 0.0000e+00
      3.525      0.065     1.4731     21.118     45.672  33.148749     3.8700     0.2088     0.0852     0.1269 2.5617e-01     5.6338      3.457      5.014    11.4657 0.0000e+00
      3.542      0.064     1.6626     23.453     45.546  33.005982     3.8700     0.1782     0.0852     0.1269 2.3782e-01     4.8973      3.474      5.038    11.4214 0.0000e+00
      3.558      0.064     1.8650     26.088     45.468  32.890262     3.8700     0.2011     0.0852     0.1269 2.5291e-01     5.0776      3.490      5.061    11.3773 0.0000e+00
      3.574      0.063     2.0814     29.134     45.416  32.792512     3.7800     0.1935     0.1278     0.1692 2.5628e-01     5.0175      3.505      5.084    11.3336 0.0000e+00
      3.591      0.063     2.3159     32.766     45.327  32.668839     3.7800     0.1935     0.1278     0.1692 2.6027e-01     5.0175      3.521      5.107    11.2869 0.0000e+00
      3.607      0.063     2.5755     37.195     45.234  32.539731     3.7800     0.1630     0.1278     0.1692 2.4769e-01     4.5366      3.537      5.130    11.2305 0.0000e+00
      3.622      0.063     2.8694     42.542     45.191  32.447988     3.7800     0.1897     0.1278     0.1692 2.5656e-01     4.5666      3.552      5.152    11.1650 0.0000e+00
      3.638      0.063     3.2095     48.775     45.193  32.396866     3.7800     0.1668     0.0852     0.1269 2.4142e-01     4.6568      3.567      5.174    11.0989 0.0000e+00
      3.654      0.063     3.6152     55.770     45.212  32.368770     3.7800     0.1821     0.0852     0.1269 2.2865e-01     4.5817      3.583      5.197    11.0336 0.0000e+00
      3.671      0.063     4.1101     63.364     45.229  32.348287     3.7800     0.1515     0.0852     0.1269 2.2007e-01     4.5817      3.599      5.220    10.9655 0.0000e+00
      3.687      0.064     4.7076     71.311     45.238  32.329952     3.7800     0.1897     0.0852     0.1269 2.4769e-01     4.5516      3.615      5.244    10.8985 0.0000e+00
      3.703      0.064     5.4036     79.237     45.251  32.320757     3.7800     0.1744     0.0852     0.1269 2.3531e-01     4.5366      3.631      5.267    10.8403 0.0000e+00
      3.719      0.065     6.1839     86.676     45.266  32.318251     3.7800     0.1782     0.0852     0.1269 2.0444e-01     4.5366      3.647      5.290    10.7937 0.0000e+00
      3.736      0.066     7.0304     93.193     45.274  32.313843     3.7800     0.1286     0.0852     0.1269 1.9038e-01     4.4764      3.664      5.313    10.7577 0.0000e+00
      3.752      0.067     7.9159     98.483     45.274  32.306357     3.7800     0.1172     0.0852     0.1269 2.1131e-01     4.6267      3.680      5.337    10.7305 0.0000e+00
      3.770      0.068     8.7986    102.378     45.265  32.293798     3.7800     0.1325     0.0852     0.1269 1.9600e-01     4.4614      3.697      5.361    10.7103 0.0000e+00
      3.787      0.069     9.6269    104.815     45.257  32.282717     3.6900     0.1210     0.0852     0.1269 2.0471e-01     4.4915      3.714      5.387    10.6955 0.0000e+00
      3.805      0.070    10.3526    105.856     45.262  32.282041     3.6900     0.1210     0.0852     0.1269 2.4469e-01     4.6267      3.731      5.412    10.6844 0.0000e+00
      3.823      0.071    10.9418    105.700     45.276  32.287629     3.6900     0.1210     0.0852     0.1269 1.9334e-01     4.5516      3.749      5.438    10.6759 0.0000e+00
      3.842      0.072    11.3759    104.631     45.284  32.289089     3.6900     0.1439     0.0852     0.1269 1.8391e-01     4.5215      3.768      5.464    10.6691 0.0000e+00
      3.860      0.072    11.6479    102.955     45.283  32.284831     3.6900     0.1401     0.0852     0.1692 2.0237e-01     4.4915      3.786      5.491    10.6634 0.0000e+00
      3.879      0.072    11.7648    100.943     45.283  32.281639     3.6900     0.1744     0.0852     0.1692 1.7298e-01     4.5366      3.804      5.517    10.6583 0.0000e+00
      3.897      0.072    11.7485     98.801     45.282  32.278663     3.6900     0.2049     0.0852     0.1692 1.7279e-01     4.4764      3.822      5.543    10.6537 0.0000e+00
      3.916      0.071    11.6307     96.669     45.278  32.273129     3.6900     0.1363     0.0852     0.1692 1.8455e-01     4.5666      3.840      5.569    10.6495 0.0000e+00
      3.934      0.071    11.4454     94.630     45.276  32.269501     3.6900     0.1935     0.0852     0.1692 1.7261e-01     4.5065      3.858      5.595    10.6456 0.0000e+00
      3.952      0.070    11.2227     92.724     45.277  32.268792     3.6900     0.1973     0.0852     0.1692 1.7108e-01     4.7921      3.875      5.621    10.6421 0.0000e+00
      3.970      0.069    10.9853     90.963     45.279  32.268832     3.6900     0.1782     0.0852     0.1692 1.8399e-01     4.8522      3.893      5.646    10.6390 0.0000e+00
      3.988      0.069    10.7488     89.354     45.282  32.269634     3.6900     0.1897     0.0852     0.1692 1.7840e-01     4.8522      3.911      5.672    10.6363 0.0000e+00
      4.005      0.068    10.5227     87.900     45.289  32.273389     3.6900     0.1897     0.0852     0.1692 1.7468e-01     4.8221      3.927      5.696    10.6341 0.0000e+00
      4.022      0.067    10.3112     86.599     45.299  32.279121     3.6900     0.2240     0.0852     0.0423 1.7291e-01     4.5366      3.944      5.720    10.6322 0.0000e+00
      4.039      0.066    10.1158     85.446     45.300  32.278455     3.6900     0.1859     0.0852     0.0423 1.5707e-01     4.4764      3.960      5.744    10.6306 0.0000e+00
      4.055      0.066     9.9372     84.434     45.289  32.269235     3.6900     0.1859     0.0852     0.0423 1.7037e-01     4.4314      3.977      5.768    10.6293 0.0000e+00
      4.072      0.066     9.7757     83.558     45.283  32.262862     3.6900     0.1935     0.0852     0.0423 1.7891e-01     4.5366      3.993      5.791    10.6280 0.0000e+00
      4.089      0.067     9.6314     82.804     45.286  32.263578     3.7800     0.1248     0.1278     0.2115 1.5581e-01     4.8221      4.010      5.815    10.6266 0.0000e+00
      4.106      0.068     9.5035     82.151     45.289  32.263653     3.7800     0.1134     0.1278     0.2115 1.6416e-01     4.7921      4.026      5.840    10.6250 0.0000e+00
      4.123      0.068     9.3913     81.591     45.290  32.263108     3.7800     0.1325     0.1278     0.2115 1.5521e-01     4.8071      4.043      5.864    10.6232 0.0000e+00
      4.141      0.069     9.2943     81.118     45.295  32.265756     3.7800     0.1134     0.1278     0.2115 1.4005e-01     4.8372      4.061      5.889    10.6213 0.0000e+00
      4.158      0.070     9.2108     80.724     45.301  32.268344     3.6900     0.1286     0.1278     0.1692 1.7567e-01     4.7921      4.078      5.914    10.6194 0.0000e+00
      4.176      0.071     9.1386     80.398     45.301  32.267602     3.6900     0.1210     0.1278     0.1692 1.4331e-01     4.8221      4.096      5.940    10.6176 0.0000e+00
      4.195      0.072     9.0767     80.130     45.302  32.267291     3.6900     0.1286     0.1278     0.1692 1.3532e-01     4.7320      4.113      5.966    10.6159 0.0000e+00
      4.213      0.073     9.0245     79.908     45.306  32.269309     3.6900     0.1363     0.1278     0.1692 1.4726e-01     4.8221      4.132      5.992    10.6144 0.0000e+00
      4.232      0.074     8.9809     79.722     45.311  32.272214     3.6900     0.1706     0.0852     0.1269 1.2336e-01     4.7320      4.150      6.019    10.6130 0.0000e+00
      4.250      0.075     8.9448     79.559     45.321  32.278761     3.6900     0.1973     0.0852     0.1269 1.3532e-01     4.8221      4.168      6.045    10.6118 0.0000e+00
      4.269      0.076     8.9151     79.406     45.330  32.284754     3.6900     0.2126     0.0852     0.1269 1.3132e-01     4.8672      4.186      6.072    10.6109 0.0000e+00
      4.289      0.077     8.8906     79.254     45.326  32.281892     3.6900     0.1973     0.0852     0.1269 1.1755e-01     4.6869      4.206      6.100    10.6102 0.0000e+00
      4.309      0.078     8.8700     79.108     45.317  32.275350     3.6900     0.1821     0.0852     0.1269 1.5450e-01     4.9574      4.226      6.129    10.6096 0.0000e+00
      4.330      0.077     8.8521     78.976     45.312  32.271306     3.7800     0.1859     0.1278     0.0846 1.1628e-01     5.1077      4.246      6.158    10.6091 0.0000e+00
      4.350      0.076     8.8352     78.872     45.311  32.270662     3.7800     0.1706     0.1278     0.0846 1.4322e-01     5.0326      4.266      6.187    10.6085 0.0000e+00
      4.369      0.074     8.8184     78.808     45.312  32.271266     3.7800     0.1744     0.1278     0.0846 1.2021e-01     4.8823      4.285      6.215    10.6081 0.0000e+00
      4.388      0.071     8.8022     78.790     45.306  32.267337     3.7800     0.1325     0.1278     0.0846 1.1617e-01     5.1678      4.303      6.242    10.6078 0.0000e+00
      4.406      0.067     8.7876     78.821     45.304  32.265750     3.6900     0.1210     0.0852     0.0423 1.1595e-01     5.3332      4.321      6.267    10.6077 0.0000e+00
      4.423      0.064     8.7760     78.888     45.313  32.272021     3.6900     0.1058     0.0852     0.0423 1.1997e-01     5.2430      4.337      6.291    10.6076 0.0000e+00
      4.438      0.060     8.7688     78.973     45.321  32.277921     3.6900     0.1134     0.0852     0.0423 1.3529e-01     5.1829      4.353      6.313    10.6076 0.0000e+00
      4.453      0.057     8.7669     79.055     45.323  32.279084     3.6900     0.1935     0.0852     0.0423 1.3992e-01     6.2049      4.367      6.334    10.6076 0.0000e+00
      4.467      0.053     8.7703     79.119     45.320  32.277800     3.6900     0.1821     0.0852     0.0846 1.1643e-01     6.2350      4.381      6.354    10.6076 0.0000e+00
      4.481      0.050     8.7778     79.154     45.316  32.275706     3.6900     0.1973     0.0852     0.0846 1.1617e-01     6.2049      4.394      6.373    10.6077 0.0000e+00
      4.493      0.046     8.7871     79.156     45.308  32.270263     3.6900     0.1782     0.0852     0.0846 1.3166e-01     6.1298      4.406      6.390    10.6078 0.0000e+00
      4.504      0.042     8.7962     79.136     45.298  32.263981     3.6900     0.3346     0.0852     0.0846 1.3754e-01    10.0075      4.417      6.406    10.6080 0.0000e+00
      4.514      0.038     8.8033     79.096     45.295  32.263107     3.7800     0.3156     0.1278     0.2115 1.1600e-01     9.8873      4.427      6.420    10.6083 0.0000e+00
      4.523      0.035     8.8070     79.040     45.302  32.269386     3.7800     0.3308     0.1278     0.2115 1.1605e-01     9.9023      4.436      6.434    10.6089 0.0000e+00
      4.532      0.031     8.8071     78.976     45.311  32.278552     3.7800     0.3003     0.1278     0.2115 1.1612e-01    10.0677      4.444      6.446    10.6098 0.0000e+00
      4.539      0.028     8.8047     78.914     45.318  32.287110     3.7800     0.5635     0.1278     0.2115 1.1628e-01    14.0206      4.452      6.456    10.6106 0.0000e+00
      4.546      0.025     8.8000     78.861     45.327  32.297341     3.7800     0.5635     0.1278     0.2115 1.1612e-01    14.0055      4.458      6.465    10.6117 0.0000e+00
      4.551      0.022     8.7934     78.816     45.327  32.302072     3.7800     0.5521     0.1704     0.0846 1.1600e-01    14.0657      4.464      6.474    10.6134 0.0000e+00
      4.557      0.020     8.7857     78.778     45.317  32.298606     3.7800     0.5788     0.1704     0.0846 1.1590e-01    14.0055      4.469      6.481    10.6162 0.0000e+00
      4.562      0.018     8.7781     78.748     45.314  32.299879     3.7800     0.5063     0.1704     0.0846 1.1617e-01    12.8182      4.473      6.488    10.6201 0.0000e+00
      4.566      0.016     8.7712     78.728     45.322  32.308211     3.7800     0.4872     0.1704     0.0846 1.1597e-01    12.8182      4.477      6.494    10.6247 0.0000e+00
      4.570      0.014     8.7652     78.713     45.327  32.315923     3.7800     0.4987     0.1704     0.2538 1.1693e-01    12.9234      4.481      6.499    10.6294 0.0000e+00
      4.573      0.012     8.7602     78.698     45.326  32.321111     3.7800     0.4796     0.1704     0.2538 1.1615e-01    12.8633      4.484      6.504    10.6336 0.0000e+00
      4.576      0.011     8.7561     78.684     45.326  32.329119     3.7800     0.4338     0.1704     0.2538 1.1590e-01    11.8863      4.487      6.508    10.6373 0.0000e+00
      4.578      0.010     8.7531     78.676     45.325  32.338121     3.7800     0.4300     0.1704     0.2538 1.1612e-01    11.8713      4.489      6.512    10.6408 0.0000e+00
      4.580      0.009     8.7505     78.676     45.312  32.338639     3.7800     0.4300     0.1704     0.1269 1.1615e-01    11.9614      4.492      6.515    10.6453 0.0000e+00
      4.582      0.008     8.7476     78.673     45.300  32.338731     3.7800     0.4224     0.1704     0.1269 1.1615e-01    11.9164      4.493      6.518    10.6518 0.0000e+00
      4.584      0.007     8.7442     78.650     45.302  32.346343     3.7800     0.3652     0.1704     0.1269 1.1605e-01    11.1348      4.495      6.520    10.6608 0.0000e+00
      4.586      0.007     8.7412     78.593     45.307  32.355584     3.7800     0.3728     0.1704     0.1269 1.1607e-01    11.2851      4.497      6.523    10.6714 0.0000e+00
      4.588      0.007     8.7390     78.499     45.315  32.364958     3.7800     0.3766     0.1704     0.0846 1.1585e-01    11.1949      4.499      6.525    10.6819 0.0000e+00
      4.589      0.006     8.7369     78.374     45.322  32.373004     3.7800     0.3652     0.1704     0.0846 1.1623e-01    11.2250      4.500      6.528    10.6909 0.0000e+00
      4.591      0.006     8.7328     78.227     45.326  32.377908     3.7800     0.3079     0.1704     0.0846 1.1615e-01     9.5717      4.502      6.530    10.6982 0.0000e+00
      4.593      0.006     8.7253     78.068     45.328  32.380977     3.7800     0.3232     0.1704     0.0846 1.1612e-01     9.4214      4.504      6.532    10.7040 0.0000e+00
      4.594      0.006     8.7140     77.916     45.328  32.383029     3.7800     0.3156     0.1704     0.0846 1.1612e-01     9.4063      4.505      6.534    10.7085 0.0000e+00
      4.596      0.006     8.6994     77.797     45.322  32.380651     3.7800     0.3041     0.1278     0.1269 1.1595e-01     9.5717      4.507      6.537    10.7117 0.0000e+00
      4.597      0.006     8.6825     77.722     45.308  32.373210     3.7800     0.2278     0.1278     0.1269 1.1612e-01     7.8733      4.508      6.539    10.7141 0.0000e+00
      4.599      0.006     8.6645     77.691     45.294  32.366641     3.7800     0.2584     0.1278     0.1269 1.1605e-01     7.8733      4.510      6.541    10.7162 0.0000e+00
      4.600      0.006     8.6473     77.703     45.283  32.363155     3.7800     0.2393     0.1278     0.1269 1.1592e-01     7.9033      4.511      6.543    10.7181 0.0000e+00
      4.602      0.006     8.6335     77.752     45.274  32.361821     3.7800     0.2431     0.1278     0.0846 1.1595e-01     7.9183      4.513      6.546    10.7204 0.0000e+00
      4.604      0.006     8.6246     77.831     45.268  32.362285     3.7800     0.2049     0.1278     0.0846 1.1605e-01     6.6558      4.514      6.548    10.7233 0.0000e+00
      4.605      0.006     8.6205     77.930     45.265  32.364669     3.7800     0.2011     0.1278     0.0846 1.1605e-01     6.7159      4.516      6.550    10.7270 0.0000e+00
      4.607      0.006     8.6209     78.030     45.262  32.365650     3.7800     0.1706     0.1278     0.0846 1.1610e-01     6.6408      4.518      6.552    10.7317 0.0000e+00
      4.608      0.006     8.6252     78.115     45.260  32.365488     3.7800     0.1630     0.1278     0.0846 1.1605e-01     6.6408      4.519      6.554    10.7371 0.0000e+00
      4.610      0.005     8.6329     78.177     45.263  32.368102     3.7800     0.1897     0.1278     0.0846 1.1633e-01     5.8893      4.521      6.556    10.7428 0.0000e+00
      4.611      0.005     8.6428     78.210     45.273  32.374189     3.7800     0.1706     0.1278     0.0846 1.1612e-01     5.9644      4.522      6.558    10.7478 0.0000e+00
      4.612      0.005     8.6532     78.213     45.284  32.381411     3.7800     0.1935     0.1278     0.0846 1.1607e-01     5.8592      4.523      6.560    10.7513 0.0000e+00
      4.614      0.005     8.6624     78.192     45.288  32.383772     3.7800     0.2011     0.1278     0.0846 1.1605e-01     5.8893      4.524      6.562    10.7528 0.0000e+00
      4.615      0.004     8.6693     78.153     45.286  32.381903     3.7800     0.2126     0.0852     0.1269 1.1610e-01     5.4835      4.525      6.564    10.7527 0.0000e+00
      4.616      0.003     8.6732     78.103     45.283  32.379265     3.7800     0.1859     0.0852     0.1269 1.1612e-01     5.5586      4.526      6.565    10.7518 0.0000e+00
      4.617      0.002     8.6736     78.053     45.278  32.375156     3.7800     0.1821     0.0852     0.1269 1.1612e-01     5.4384      4.527      6.567    10.7511 0.0000e+00
      4.617      0.000     8.6713     78.006     45.271  32.368478     3.7800     0.1897     0.0852     0.1269 1.1612e-01     5.5135      4.528      6.567    10.7508 0.0000e+00
      4.617     -0.001     8.6671     77.963     45.262  32.357453     3.8700     0.2049     0.1704     0.1269 1.1617e-01     5.5586      4.528      6.567    10.7504 0.0000e+00
      4.617     -0.004     8.6617     77.914     45.257  32.347060     3.8700     0.1859     0.1704     0.1269 1.1633e-01     5.5586      4.527      6.567    10.7500 0.0000e+00
      4.616     -0.006     8.6561     77.846     45.261  32.342448     3.8700     0.1706     0.1704     0.1269 1.1617e-01     5.4684      4.526      6.565    10.7494 0.0000e+00
      4.614     -0.009     8.6514     77.745     45.263  32.338427     3.8700     0.2011     0.1704     0.1269 1.1612e-01     5.4835      4.524      6.562    10.7471 0.0000e+00
      4.611     -0.011     8.6477     77.606     45.263  32.333925     3.8700     0.1973     0.1278     0.1692 1.1607e-01     7.5426      4.522      6.559    10.7418 0.0000e+00
      4.608     -0.014     8.6438     77.434     45.265  32.331701     3.8700     0.1935     0.1278     0.1692 1.1602e-01     7.3773      4.519      6.554    10.7343 0.0000e+00
      4.604     -0.017     8.6378     77.237     45.269  32.331163     3.8700     0.1782     0.1278     0.1692 1.1612e-01     7.4073      4.515      6.548    10.7265 0.0000e+00
      4.599     -0.019     8.6279     77.024     45.275  32.332166     3.8700     0.1897     0.1278     0.1692 1.1612e-01     7.4674      4.510      6.542    10.7200 0.0000e+00
      4.594     -0.022     8.6135     76.808     45.283  32.334979     3.7800     0.2049     0.1704     0.1269 1.1615e-01    17.9434      4.505      6.534    10.7152 0.0000e+00
      4.588     -0.026     8.5952     76.617     45.291  32.340350     3.7800     0.3804     0.1704     0.1269 1.1628e-01    17.9735      4.499      6.526    10.7112 0.0000e+00
      4.581     -0.029     8.5741     76.481     45.302  32.349713     3.7800     0.3842     0.1704     0.1269 1.1617e-01    17.9585      4.493      6.516    10.7074 0.0000e+00
      4.574     -0.034     8.5511     76.422     45.312  32.361603     3.7800     0.3995     0.1704     0.1269 1.1623e-01    18.0036      4.485      6.505    10.7038 0.0000e+00
      4.565     -0.039     8.5277     76.444     45.318  32.371270     3.7800     0.3423     0.1704     0.1269 1.1605e-01    17.2971      4.476      6.492    10.7010 0.0000e+00
      4.554     -0.046     8.5067     76.533     45.323  32.381293     3.7800     0.3118     0.1278     0.1692 1.1628e-01    10.9244      4.466      6.478    10.7002 0.0000e+00
      4.542     -0.053     8.4912     76.657     45.336  32.398305     3.7800     0.3194     0.1278     0.1692 1.1617e-01    10.8943      4.454      6.461    10.7022 0.0000e+00
      4.528     -0.062     8.4836     76.789     45.352  32.418922     3.7800     0.3079     0.1278     0.1692 1.1607e-01    10.8642      4.441      6.441    10.7070 0.0000e+00
      4.512     -0.072     8.4849     76.904     45.359  32.436760     3.7800     0.3118     0.1278     0.1692 1.1620e-01    10.8642      4.424      6.417    10.7133 0.0000e+00
      4.492     -0.084     8.4933     76.985     45.354  32.448656     3.7800     0.2011     0.1704     0.2115 1.1612e-01     5.9494      4.405      6.390    10.7204 0.0000e+00
      4.470     -0.095     8.5055     77.012     45.342  32.457781     3.7800     0.2011     0.1704     0.2115 1.1602e-01     6.0095      4.383      6.358    10.7284 0.0000e+00
      4.444     -0.107     8.5180     76.960     45.335  32.470531     3.7800     0.1821     0.1704     0.2115 1.1595e-01     6.0396      4.358      6.321    10.7389 0.0000e+00
      4.415     -0.116     8.5280     76.796     45.334  32.486346     3.7800     0.1859     0.1704     0.2115 1.1600e-01     5.9043      4.329      6.279    10.7530 0.0000e+00
      4.382     -0.124     8.5336     76.489     45.344  32.505484     3.7800     0.1363     0.1278     0.0846 1.2018e-01     5.0326      4.297      6.232    10.7705 0.0000e+00
      4.348     -0.129     8.5327     76.020     45.361  32.525127     3.7800     0.1210     0.1278     0.0846 1.1605e-01     5.0175      4.263      6.183    10.7898 0.0000e+00
      4.313     -0.132     8.5230     75.375     45.370  32.534671     3.7800     0.1172     0.1278     0.0846 1.1699e-01     4.9574      4.229      6.134    10.8094 0.0000e+00
      4.279     -0.134     8.5014     74.567     45.365  32.532701     3.7800     0.1286     0.1278     0.0846 1.1595e-01     4.9123      4.196      6.086    10.8270 0.0000e+00
      4.245     -0.135     8.4649     73.648     45.361  32.530574     3.6900     0.1706     0.1278     0.2115 1.3739e-01     4.9574      4.162      6.037    10.8401 0.0000e+00
      4.211     -0.136     8.4114     72.692     45.360  32.531682     3.6900     0.1859     0.1278     0.2115 1.4084e-01     4.9424      4.129      5.989    10.8481 0.0000e+00
      4.176     -0.136     8.3393     71.772     45.356  32.532360     3.6900     0.1859     0.1278     0.2115 1.2897e-01     4.9875      4.095      5.940    10.8521 0.0000e+00
      4.141     -0.136     8.2496     70.945     45.352  32.532790     3.6900     0.1782     0.1278     0.2115 1.2497e-01     4.9574      4.061      5.890    10.8538 0.0000e+00
      4.105     -0.134     8.1477     70.227     45.345  32.529125     3.6900     0.1439     0.1278     0.2115 1.2330e-01     5.0476      4.026      5.839    10.8550 0.0000e+00
      4.070     -0.131     8.0415     69.595     45.335  32.520389     3.7800     0.1286     0.1278     0.1269 1.6327e-01     4.9424      3.991      5.788    10.8573 0.0000e+00
      4.036     -0.128     7.9391     69.007     45.329  32.512174     3.7800     0.1134     0.1278     0.1269 1.7011e-01     5.0175      3.957      5.740    10.8608 0.0000e+00
      4.004     -0.124     7.8470     68.438     45.339  32.514170     3.7800     0.1210     0.1278     0.1269 1.4903e-01     5.0626      3.926      5.695    10.8641 0.0000e+00
      3.974     -0.122     7.7673     67.897     45.369  32.530869     3.7800     0.1019     0.1278     0.1269 1.4384e-01     5.0175      3.897      5.653    10.8656 0.0000e+00
      3.946     -0.122     7.6975     67.426     45.390  32.542961     3.6900     0.1439     0.0852     0.0846 1.4368e-01     4.8973      3.869      5.612    10.8644 0.0000e+00
      3.916     -0.125     7.6333     67.084     45.384  32.537829     3.6900     0.1286     0.0852     0.0846 1.6398e-01     5.0326      3.840      5.570    10.8602 0.0000e+00
      3.885     -0.129     7.5714     66.929     45.369  32.525984     3.6900     0.1134     0.0852     0.0846 1.4961e-01     4.9574      3.809      5.525    10.8544 0.0000e+00
      3.850     -0.135     7.5124     66.988     45.352  32.512190     3.6900     0.1668     0.0852     0.0846 1.5834e-01     5.0326      3.776      5.476    10.8492 0.0000e+00
      3.814     -0.141     7.4608     67.248     45.331  32.492769     3.8700     0.1821     0.2130     0.2115 1.7302e-01     5.0776      3.740      5.425    10.8459 0.0000e+00
      3.777     -0.147     7.4233     67.661     45.304  32.466503     3.8700     0.1935     0.2130     0.2115 1.7586e-01     4.9875      3.704      5.372    10.8444 0.0000e+00
      3.739     -0.151     7.4063     68.169     45.279  32.438268     3.8700     0.1706     0.2130     0.2115 1.7906e-01     5.0476      3.666      5.318    10.8435 0.0000e+00
      3.700     -0.155     7.4132     68.723     45.261  32.416377     3.8700     0.2011     0.2130     0.2115 2.2880e-01     4.7620      3.628      5.262    10.8415 0.0000e+00
      3.660     -0.156     7.4428     69.296     45.257  32.406873     3.7800     0.1821     0.1278     0.1269 2.0241e-01     4.7921      3.589      5.205    10.8370 0.0000e+00
      3.618     -0.156     7.4899     69.889     45.262  32.407221     3.7800     0.1935     0.1278     0.1269 2.0241e-01     4.8672      3.548      5.146    10.8290 0.0000e+00
      3.577     -0.155     7.5480     70.523     45.272  32.413554     3.7800     0.1859     0.1278     0.1269 2.0440e-01     4.8522      3.508      5.087    10.8182 0.0000e+00
      3.537     -0.153     7.6113     71.219     45.283  32.423601     3.7800     0.1019     0.1278     0.1269 2.3808e-01     4.7320      3.468      5.030    10.8075 0.0000e+00
      3.498     -0.150     7.6760     71.973     45.289  32.432119     3.7800     0.1363     0.1278     0.1269 2.5039e-01     4.8221      3.431      4.976    10.8002 0.0000e+00
      3.461     -0.146     7.7422     72.750     45.298  32.445340     3.6900     0.1286     0.0852     0.2115 2.6157e-01     4.9123      3.394      4.923    10.7968 0.0000e+00
      3.425     -0.143     7.8126     73.483     45.327  32.474712     3.6900     0.1248     0.0852     0.2115 2.8041e-01     4.7921      3.359      4.872    10.7962 0.0000e+00
      3.389     -0.140     7.8894     74.091     45.381  32.524107     3.6900     0.1363     0.0852     0.2115 2.7889e-01     4.7921      3.323      4.820    10.7980 0.0000e+00
      3.353     -0.138     7.9720     74.499     45.460  32.594816     3.6900     0.1363     0.0852     0.2115 3.0395e-01     4.9123      3.288      4.769    10.8029 0.0000e+00
      3.318     -0.136     8.0566     74.641     45.547  32.677970     3.6900     0.1363     0.0426     0.2115 2.8651e-01     4.8221      3.254      4.720    10.8105 0.0000e+00
      3.285     -0.135     8.1360     74.469     45.614  32.754158     3.6900     0.1134     0.0426     0.2115 2.6860e-01     4.8823      3.221      4.672    10.8201 0.0000e+00
      3.251     -0.134     8.2012     73.943     45.640  32.804093     3.6900     0.1172     0.0426     0.2115 3.0989e-01     4.7470      3.188      4.624    10.8318 0.0000e+00
      3.217     -0.133     8.2434     72.980     45.641  32.833170     3.6900     0.1439     0.0426     0.2115 3.1293e-01     4.8221      3.155      4.575    10.8475 0.0000e+00
      3.182     -0.132     8.2549     71.448     45.659  32.872909     3.6900     0.1363     0.1278     0.1692 3.0125e-01     4.6869      3.121      4.526    10.8702 0.0000e+00
      3.148     -0.132     8.2303     69.240     45.696  32.929946     3.6900     0.1286     0.1278     0.1692 3.4440e-01     4.7921      3.087      4.477    10.9009 0.0000e+00
      3.114     -0.131     8.1659     66.367     45.700  32.971963     3.6900     0.1363     0.1278     0.1692 3.3394e-01     5.2881      3.054      4.430    10.9350 0.0000e+00
      3.082     -0.131     8.0541     62.969     45.651  32.980462     3.6900     0.1134     0.1278     0.1692 3.3141e-01     5.2730      3.023      4.384    10.9665 0.0000e+00
      3.050     -0.131     7.8802     59.227     45.589  32.977515     3.8700     0.1286     0.1278     0.0846 3.1573e-01     5.2430      2.991      4.338    10.9956 0.0000e+00
      3.017     -0.131     7.6314     55.284     45.549  32.986100     3.8700     0.1210     0.1278     0.0846 3.4254e-01     5.3031      2.959      4.291    11.0290 0.0000e+00
      2.983     -0.132     7.3081     51.265     45.523  33.008509     3.8700     0.1744     0.1278     0.0846 3.5775e-01     5.9795      2.925      4.242    11.0718 0.0000e+00
      2.949     -0.134     6.9267     47.349     45.494  33.042795     3.8700     0.1782     0.1278     0.0846 3.6848e-01     5.8592      2.892      4.194    11.1201 0.0000e+00
      2.915     -0.135     6.5087     43.763     45.447  33.082260     3.8700     0.1973     0.1278     0.0846 3.9347e-01     5.9193      2.859      4.146    11.1657 0.0000e+00
      2.881     -0.136     6.0702     40.654     45.376  33.117629     3.9600     0.2011     0.1278     0.1269 3.8451e-01     5.9795      2.825      4.098    11.2073 0.0000e+00
      2.846     -0.135     5.6236     37.993     45.300  33.146454     3.9600     0.1935     0.1278     0.1269 4.0299e-01     5.9043      2.791      4.047    11.2530 0.0000e+00
      2.809     -0.133     5.1876     35.596     45.223  33.162564     3.9600     0.1897     0.1278     0.1269 4.5971e-01     6.0245      2.755      3.996    11.3136 0.0000e+00
      2.774     -0.131     4.7864     33.245     45.127  33.158376     3.9600     0.1859     0.1278     0.1269 4.5991e-01     5.9795      2.720      3.945    11.3950 0.0000e+00
      2.741     -0.127     4.4369     30.780     44.998  33.130792     3.9600     0.1897     0.1278     0.1692 4.4246e-01     5.9043      2.688      3.898    11.4909 0.0000e+00
      2.710     -0.125     4.1376     28.116     44.838  33.086322     3.9600     0.3232     0.1278     0.1692 4.5653e-01     5.5586      2.658      3.855    11.5840 0.0000e+00
      2.681     -0.122     3.8695     25.236     44.679  33.048754     3.9600     0.3041     0.1278     0.1692 4.6363e-01     5.4384      2.629      3.814    11.6643 0.0000e+00
      2.651     -0.121     3.6080     22.176     44.559  33.033819     3.9600     0.3156     0.1278     0.1692 4.7391e-01     5.4835      2.600      3.771    11.7375 0.0000e+00
      2.620     -0.120     3.3351     19.029     44.487  33.033579     3.9600     0.3270     0.1278     0.1692 4.8898e-01     5.4835      2.569      3.727    11.8122 0.0000e+00
      2.588     -0.118     3.0412     15.941     44.440  33.028166     3.9600     0.3156     0.1278     0.1692 4.8024e-01     5.0175      2.538      3.681    11.8940 0.0000e+00
      2.556     -0.114     2.7244     13.109     44.387  33.008218     3.9600     0.3270     0.1278     0.1692 5.5828e-01     5.0025      2.507      3.636    11.9832 0.0000e+00
      2.526     -0.107     2.3896     10.724     44.324  32.984255     3.9600     0.3041     0.1278     0.1692 5.6500e-01     5.0175      2.477      3.592    12.0661 0.0000e+00
      2.498     -0.097     2.0475      8.928     44.252  32.961769     3.9600     0.3118     0.1278     0.1692 5.2865e-01     4.9574      2.449      3.553    12.1253 0.0000e+00
      2.474     -0.085     1.7137      7.779     44.158  32.934765     3.9600     0.3499     0.0852     0.1692 5.7716e-01     4.5366      2.426      3.519    12.1584 0.0000e+00
      2.454     -0.072     1.4084      7.245     44.037  32.900003     3.9600     0.3804     0.0852     0.1692 5.7992e-01     4.5817      2.406      3.490    12.1801 0.0000e+00
      2.438     -0.060     1.1514      7.223     43.910  32.866039     3.9600     0.3346     0.0852     0.1692 5.4297e-01     4.5967      2.391      3.468    12.2059 0.0000e+00
      2.426     -0.049     0.9577      7.563     43.813  32.849564     3.9600     0.3842     0.0852     0.1692 5.7879e-01     4.5516      2.379      3.450    12.2417 0.0000e+00
      2.416     -0.040     0.8333      8.073     43.767  32.856088     3.9600     0.3461     0.1278     0.2538 5.5417e-01     4.2810      2.369      3.436    12.2905 0.0000e+00
      2.407     -0.034     0.7748      8.536     43.773  32.877452     3.9600     0.3766     0.1278     0.2538 5.7917e-01     4.2660      2.361      3.424    12.3529 0.0000e+00
      2.400     -0.029     0.7710      8.764     43.810  32.895591     3.9600     0.3728     0.1278     0.2538 5.7503e-01     4.2961      2.354      3.414    12.4225 0.0000e+00
      2.394     -0.027     0.8059      8.684     43.843  32.895536     3.9600     0.3728     0.1278     0.2538 5.9253e-01     4.3261      2.348      3.405    12.4868 0.0000e+00
      2.388     -0.026     0.8593      8.385     43.861  32.885191     3.8700     0.3613     0.0852     0.1269 5.5804e-01     3.9804      2.342      3.397    12.5335 0.0000e+00
      2.382     -0.027     0.9082      8.068     43.877  32.881600     3.8700     0.3728     0.0852     0.1269 5.5913e-01     4.0556      2.336      3.388    12.5527 0.0000e+00
      2.376     -0.029     0.9326      7.952     43.905  32.887765     3.8700     0.3613     0.0852     0.1269 5.7254e-01     4.1608      2.330      3.380    12.5415 0.0000e+00
      2.369     -0.034     0.9248      8.186     43.937  32.889489     3.8700     0.3652     0.0852     0.1269 5.8958e-01     4.0406      2.323      3.370    12.5125 0.0000e+00
      2.361     -0.042     0.8935      8.817     43.940  32.875348     3.9600     0.4300     0.1278     0.1269 5.9125e-01     3.7700      2.315      3.358    12.4855 0.0000e+00
      2.350     -0.052     0.8601      9.819     43.893  32.849488     3.9600     0.4300     0.1278     0.1269 5.7892e-01     3.8452      2.305      3.343    12.4680 0.0000e+00
      2.337     -0.063     0.8480     11.123     43.804  32.820856     3.9600     0.4148     0.1278     0.1269 5.4557e-01     3.8452      2.292      3.325    12.4507 0.0000e+00
      2.320     -0.075     0.8733     12.619     43.695  32.793701     3.9600     0.4224     0.1278     0.1269 5.4191e-01     3.8452      2.276      3.300    12.4260 0.0000e+00
      2.299     -0.086     0.9408     14.148     43.580  32.764747     3.9600     0.3041     0.1278     0.1269 6.0529e-01     3.9203      2.255      3.270    12.4072 0.0000e+00
      2.273     -0.094     1.0472     15.521     43.460  32.732214     3.9600     0.3194     0.0852     0.2961 6.1738e-01     3.8903      2.229      3.233    12.4175 0.0000e+00
      2.246     -0.101     1.1850     16.587     43.334  32.699312     3.9600     0.2889     0.0852     0.2961 6.5128e-01     3.9203      2.202      3.194    12.4612 0.0000e+00
      2.218     -0.105     1.3424     17.284     43.202  32.671129     3.9600     0.3156     0.0852     0.2961 6.6544e-01     3.8151      2.175      3.154    12.5237 0.0000e+00
      2.191     -0.108     1.5029     17.613     43.077  32.655994     3.9600     0.3194     0.0852     0.2961 6.4902e-01     3.4694      2.149      3.116    12.5897 0.0000e+00
      2.165     -0.109     1.6467     17.580     42.982  32.653837     3.8700     0.3232     0.0852     0.2961 6.5982e-01     3.3642      2.122      3.078    12.6560 0.0000e+00
      2.137     -0.108     1.7573     17.189     42.921  32.652206     3.8700     0.3156     0.0852     0.2961 6.7344e-01     3.3191      2.095      3.039    12.7278 0.0000e+00
      2.108     -0.107     1.8280     16.480     42.888  32.646707     3.8700     0.3194     0.0852     0.2961 7.4553e-01     3.4243      2.067      2.998    12.8109 0.0000e+00
      2.079     -0.106     1.8592     15.550     42.859  32.635871     3.8700     0.3232     0.0852     0.2961 8.3635e-01     3.0486      2.038      2.957    12.9022 0.0000e+00
      2.051     -0.104     1.8526     14.546     42.797  32.612846     3.8700     0.3232     0.0852     0.1692 8.5863e-01     3.1989      2.012      2.918    12.9835 0.0000e+00
      2.027     -0.104     1.8095     13.609     42.694  32.583374     3.8700     0.3041     0.0852     0.1692 7.9316e-01     3.0786      1.987      2.882    13.0352 0.0000e+00
      2.003     -0.103     1.7341     12.829     42.570  32.559400     3.8700     0.2965     0.0852     0.1692 7.8783e-01     3.2590      1.964      2.848    13.0582 0.0000e+00
      1.978     -0.103     1.6360     12.235     42.463  32.550378     3.8700     0.3232     0.0852     0.1692 7.9161e-01     2.7931      1.939      2.813    13.0716 0.0000e+00
      1.951     -0.103     1.5296     11.817     42.393  32.557866     3.7800     0.2927     0.0426     0.1692 8.9853e-01     2.6428      1.913      2.774    13.0995 0.0000e+00
      1.922     -0.104     1.4295     11.529     42.329  32.558119     3.7800     0.3308     0.0426     0.1692 9.5718e-01     2.7480      1.885      2.733    13.1573 0.0000e+00
      1.894     -0.104     1.3452     11.315     42.220  32.533383     3.7800     0.3003     0.0426     0.1692 9.9212e-01     2.6428      1.857      2.694    13.2404 0.0000e+00
      1.868     -0.104     1.2804     11.142     42.058  32.502802     3.7800     0.3575     0.0426     0.1692 9.6974e-01     2.2971      1.832      2.657    13.3267 0.0000e+00
      1.844     -0.104     1.2346     11.003     41.869  32.487930     3.7800     0.3652     0.0426     0.1692 9.4027e-01     2.2670      1.808      2.623    13.3982 0.0000e+00
      1.819     -0.104     1.2028     10.908     41.703  32.492729     3.8700     0.3842     0.0852     0.2538 1.0014e+00     2.2370      1.784      2.588    13.4570 0.0000e+00
      1.793     -0.105     1.1786     10.872     41.588  32.506607     3.8700     0.3728     0.0852     0.2538 1.0439e+00     2.1919      1.758      2.550    13.5278 0.0000e+00
      1.765     -0.106     1.1576     10.913     41.513  32.521386     3.8700     0.3652     0.0852     0.2538 1.1156e+00     1.9965      1.731      2.510    13.6413 0.0000e+00
      1.736     -0.107     1.1392     11.049     41.458  32.544968     3.8700     0.3461     0.0852     0.2538 1.1665e+00     1.9814      1.703      2.469    13.7977 0.0000e+00
      1.709     -0.109     1.1253     11.294     41.392  32.583639     3.8700     0.3575     0.0852     0.2115 1.1449e+00     1.9514      1.676      2.430    13.9573 0.0000e+00
      1.682     -0.110     1.1184     11.641     41.287  32.625931     3.8700     0.4148     0.0852     0.2115 1.1310e+00     2.0416      1.650      2.393    14.0816 0.0000e+00
      1.656     -0.112     1.1202     12.070     41.150  32.657384     3.8700     0.3575     0.0852     0.2115 1.1103e+00     1.7560      1.624      2.355    14.1691 0.0000e+00
      1.628     -0.113     1.1320     12.574     41.029  32.688376     3.8700     0.3499     0.0852     0.2115 1.2313e+00     1.6508      1.596      2.315    14.2495 0.0000e+00
      1.597     -0.113     1.1540     13.168     40.953  32.733117     3.8700     0.3575     0.0852     0.1692 1.3783e+00     1.6508      1.566      2.271    14.3588 0.0000e+00
      1.565     -0.112     1.1853     13.879     40.914  32.799579     3.8700     0.3728     0.0852     0.1692 1.5302e+00     1.7860      1.535      2.226    14.5107 0.0000e+00
      1.535     -0.110     1.2243     14.718     40.890  32.895585     3.8700     0.5216     0.0852     0.1692 1.5048e+00     1.2299      1.505      2.183    14.6808 0.0000e+00
      1.508     -0.108     1.2710     15.669     40.836  33.003170     3.8700     0.5139     0.0852     0.1692 1.4950e+00     1.3051      1.479      2.145    14.8348 0.0000e+00
      1.484     -0.106     1.3272     16.712     40.722  33.083702     3.9600     0.5063     0.0426     0.2961 1.4817e+00     1.2450      1.455      2.110    14.9631 0.0000e+00
      1.459     -0.105     1.3950     17.843     40.582  33.128962     3.9600     0.4987     0.0426     0.2961 1.5699e+00     1.1247      1.430      2.074    15.0819 0.0000e+00
      1.432     -0.105     1.4745     19.088     40.494  33.176773     3.9600     0.5445     0.0426     0.2961 1.6936e+00     1.2299      1.404      2.036    15.2230 0.0000e+00
      1.404     -0.106     1.5632     20.472     40.479  33.257708     3.9600     0.5597     0.0426     0.2961 1.7967e+00     1.2600      1.376      1.996    15.4086 0.0000e+00
      1.375     -0.108     1.6597     21.973     40.502  33.371568     3.9600     0.5521     0.0426     0.2961 1.9349e+00     1.3051      1.349      1.956    15.6218 0.0000e+00
      1.348     -0.108     1.7650     23.532     40.508  33.491286     4.0500     0.5330     0.0426     0.2961 1.9586e+00     1.2600      1.321      1.917    15.8167 0.0000e+00
      1.321     -0.108     1.8825     25.088     40.447  33.567598     4.0500     0.6513     0.0426     0.2961 1.9899e+00     1.7710      1.295      1.878    15.9643 0.0000e+00
      1.293     -0.105     2.0142     26.606     40.346  33.593139     4.0500     0.6856     0.0426     0.2961 2.0815e+00     1.7410      1.268      1.839    16.0783 0.0000e+00
      1.265     -0.102     2.1567     28.074     40.307  33.634135     4.0500     0.6780     0.0426     0.2961 2.3869e+00     1.7560      1.241      1.800    16.1947 0.0000e+00
      1.238     -0.097     2.3028     29.466     40.380  33.754989     4.1400     0.6894     0.0426     0.2538 2.7597e+00     1.7410      1.214      1.761    16.3366 0.0000e+00
      1.213     -0.093     2.4473     30.727     40.509  33.946336     4.1400     1.1434     0.0426     0.2538 2.7181e+00     2.7780      1.190      1.726    16.4937 0.0000e+00
      1.191     -0.089     2.5886     31.806     40.599  34.146324     4.1400     1.1586     0.0426     0.2538 2.6355e+00     2.7480      1.168      1.694    16.6287 0.0000e+00
      1.171     -0.085     2.7268     32.701     40.611  34.303329     4.1400     1.1396     0.0426     0.2538 2.6770e+00     2.6879      1.148      1.665    16.7194 0.0000e+00
      1.151     -0.081     2.8579     33.475     40.562  34.401796     4.3200     1.1586     0.0426     0.3807 2.8045e+00     2.6578      1.129      1.637    16.7920 0.0000e+00
      1.130     -0.077     2.9739     34.229     40.512  34.471952     4.3200     1.3379     0.0426     0.3807 3.2152e+00     2.8832      1.109      1.608    16.8952 0.0000e+00
      1.110     -0.073     3.0686     35.034     40.515  34.564196     4.3200     1.3303     0.0426     0.3807 3.4438e+00     2.8832      1.088      1.578    17.0489 0.0000e+00
      1.090     -0.067     3.1431     35.906     40.559  34.687284     4.3200     1.3303     0.0426     0.3807 3.6917e+00     2.8231      1.069      1.550    17.2305 0.0000e+00
      1.072     -0.059     3.2063     36.831     40.581  34.800763     4.5000     1.2921     0.0852     0.9729 4.0165e+00     2.8832      1.052      1.525    17.4028 0.0000e+00
      1.058     -0.050     3.2692     37.795     40.550  34.871526     4.5000     1.5783     0.0852     0.9729 4.2269e+00     3.1989      1.037      1.504    17.5419 0.0000e+00
      1.047     -0.042     3.3386     38.784     40.502  34.908545     4.5000     1.5554     0.0852     0.9729 4.1388e+00     3.0786      1.027      1.489    17.6517 0.0000e+00
      1.039     -0.034     3.4143     39.773     40.464  34.929620     4.5000     1.5706     0.0852     0.9729 3.8524e+00     3.1388      1.019      1.478    17.7570 0.0000e+00
      1.033     -0.028     3.4939     40.719     40.442  34.944331     4.5000     1.5821     0.0852     0.9729 3.8357e+00     3.1538      1.013      1.469    17.8746 0.0000e+00
      1.027     -0.024     3.5767     41.556     40.446  34.968485     4.5900     1.7843     0.0852     1.1844 4.0139e+00     3.3041      1.007      1.460    17.9939 0.0000e+00
      1.021     -0.021     3.6632     42.220     40.485  35.016445     4.5900     1.7423     0.0852     1.1844 4.0949e+00     3.4093      1.002      1.452    18.0910 0.0000e+00
      1.016     -0.020     3.7519     42.667     40.554  35.089118     4.5900     1.7766     0.0852     1.1844 4.0763e+00     3.3041      0.997      1.445    18.1568 0.0000e+00
      1.012     -0.021     3.8381     42.875     40.635  35.174193     4.5900     1.7423     0.0852     1.1844 4.0043e+00     3.3342      0.992      1.439    18.1984 0.0000e+00
      1.007     -0.022     3.9151     42.842     40.708  35.256731     4.5900     1.6278     0.0852     1.4382 4.0165e+00     3.1087      0.988      1.432    18.2245 0.0000e+00
      1.002     -0.025     3.9764     42.575     40.772  35.334975     4.5900     1.6355     0.0852     1.4382 4.0366e+00     3.1087      0.983      1.425    18.2420 0.0000e+00
      0.996     -0.030     4.0174     42.093     40.827  35.408007     4.5900     1.6546     0.0852     1.4382 4.0798e+00     3.0786      0.977      1.417    18.2573 0.0000e+00
      0.989     -0.037     4.0355     41.438     40.850  35.455691     4.5900     1.6469     0.0852     1.4382 4.1181e+00     3.0486      0.970      1.406    18.2757 0.0000e+00
      0.979     -0.046     4.0305     40.691     40.822  35.459057     4.5900     1.6355     0.0852     1.2267 4.0174e+00     3.0786      0.960      1.393    18.2994 0.0000e+00
      0.967     -0.057     4.0032     39.947     40.747  35.419004     4.5900     1.6813     0.0852     1.2267 4.0463e+00     3.0937      0.948      1.376    18.3278 0.0000e+00
      0.952     -0.070     3.9553     39.286     40.640  35.348618     4.5900     1.6126     0.0852     1.2267 4.1217e+00     3.1688      0.934      1.354    18.3597 0.0000e+00
      0.933     -0.084     3.8911     38.781     40.510  35.264779     4.5900     1.6278     0.0852     1.2267 4.3414e+00     3.1538      0.915      1.327    18.3937 0.0000e+00
      0.910     -0.096     3.8183     38.509     40.353  35.172856     4.5900     1.8567     0.0852     1.2267 4.6399e+00     3.4394      0.892      1.294    18.4272 0.0000e+00
      0.882     -0.106     3.7461     38.558     40.167  35.074084     4.6800     1.8338     0.0852     1.2690 5.1534e+00     3.3041      0.865      1.255    18.4577 0.0000e+00
      0.851     -0.111     3.6819     39.032     39.981  34.985700     4.6800     1.8338     0.0852     1.2690 6.3695e+00     3.3943      0.835      1.210    18.4865 0.0000e+00
      0.818     -0.111     3.6317     40.054     39.818  34.917805     4.6800     1.8567     0.0852     1.2690 8.6380e+00     3.3642      0.802      1.163    18.5229 0.0000e+00
      0.786     -0.104     3.6019     41.758     39.681  34.868142     4.6800     2.1734     0.0852     1.2690 1.1025e+01     4.8071      0.770      1.118    18.5794 0.0000e+00
      0.758     -0.092     3.6004     44.233     39.570  34.831393     4.5900     2.2229     0.0852     1.6074 1.1204e+01     4.8823      0.743      1.078    18.6586 0.0000e+00
      0.736     -0.077     3.6374     47.457     39.470  34.793799     4.5900     2.1886     0.0852     1.6074 1.1319e+01     4.8823      0.721      1.047    18.7507 0.0000e+00
      0.719     -0.061     3.7251     51.293     39.369  34.749297     4.5900     2.1962     0.0852     1.6074 1.1553e+01     4.8372      0.705      1.023    18.8448 0.0000e+00
      0.707     -0.045     3.8763     55.515     39.275  34.707806     4.5900     2.4366     0.0852     1.6074 1.1463e+01     6.4153      0.693      1.005    18.9334 0.0000e+00
      0.699     -0.031     4.0994     59.839     39.191  34.674106     5.0400     2.4595     0.1704     3.2148 1.1229e+01     6.5055      0.685      0.994    19.0098 0.0000e+00
      0.694     -0.021     4.3925     64.011     39.115  34.645156     5.0400     2.4480     0.1704     3.2148 1.0887e+01     6.4003      0.681      0.987    19.0732 0.0000e+00
      0.691     -0.012     4.7423     67.855     39.054  34.625117     5.0400     2.4556     0.1704     3.2148 1.0465e+01     6.4153      0.678      0.983    19.1293 0.0000e+00
      0.690     -0.006     5.1272     71.277     39.014  34.616571     5.0400     2.4213     0.1704     3.2148 1.0375e+01     7.7680      0.677      0.981    19.1828 0.0000e+00
      0.689     -0.001     5.5212     74.253     38.979  34.607337     5.2200     2.4289     0.2130     5.8797 1.0495e+01     7.9033      0.676      0.980    19.2345 0.0000e+00
      0.689      0.003     5.9008     76.794     38.938  34.589013     5.2200     2.4595     0.2130     5.8797 1.0075e+01     7.8883      0.676      0.980    19.2832 0.0000e+00
      0.691      0.006     6.2503     78.912     38.901  34.570574     5.2200     2.4213     0.2130     5.8797 1.0323e+01     7.9183      0.677      0.982    19.3261 0.0000e+00
      0.693      0.009     6.5614     80.635     38.869  34.553045     5.2200     2.6426     0.2130     5.8797 1.0377e+01     7.7230      0.679      0.985    19.3607 0.0000e+00
      0.695      0.011     6.8321     82.013     38.836  34.531754     5.2200     2.6197     0.2130     5.8797 1.0424e+01     7.6027      0.682      0.989    19.3880 0.0000e+00
      0.699      0.012     7.0630     83.081     38.810  34.512905     5.3100     2.6273     0.1704     6.1335 1.0287e+01     7.5426      0.685      0.994    19.4107 0.0000e+00
      0.703      0.012     7.2554     83.849     38.795  34.499394     5.3100     2.6655     0.1704     6.1335 1.0185e+01     7.6478      0.689      0.999    19.4295 0.0000e+00
      0.707      0.010     7.4119     84.317     38.788  34.487618     5.3100     2.3755     0.1704     6.1335 9.2802e+00     6.9113      0.693      1.005    19.4436 0.0000e+00
      0.710      0.007     7.5373     84.493     38.784  34.474436     5.3100     2.3641     0.1704     6.1335 8.6493e+00     6.9414      0.697      1.010    19.4534 0.0000e+00
      0.712      0.001     7.6347     84.373     38.778  34.456333     5.3100     2.3794     0.1704     5.8797 9.1005e+00     6.9264      0.699      1.013    19.4590 0.0000e+00
      0.712     -0.007     7.7053     83.928     38.778  34.440362     5.3100     2.3603     0.1704     5.8797 9.4327e+00     6.8813      0.699      1.013    19.4590 0.0000e+00
      0.710     -0.018     7.7494     83.113     38.793  34.438109     5.3100     2.2115     0.1704     5.8797 8.6268e+00     7.1518      0.697      1.010    19.4523 0.0000e+00
      0.706     -0.033     7.7675     81.908     38.825  34.452930     5.3100     2.1810     0.1704     5.8797 7.6334e+00     7.0616      0.692      1.004    19.4397 0.0000e+00
      0.698     -0.050     7.7591     80.359     38.872  34.484818     5.2200     2.2001     0.1704     5.7105 7.1021e+00     7.0917      0.684      0.992    19.4227 0.0000e+00
      0.685     -0.070     7.7212     78.586     38.928  34.530393     5.2200     2.2039     0.1704     5.7105 7.2866e+00     7.1067      0.672      0.974    19.4029 0.0000e+00
      0.665     -0.090     7.6494     76.757     38.998  34.593885     5.2200     2.0704     0.1704     5.7105 7.7808e+00     6.5656      0.652      0.945    19.3828 0.0000e+00
      0.638     -0.109     7.5411     75.057     39.085  34.684304     5.2200     2.0551     0.1704     5.7105 9.9831e+00     6.5356      0.626      0.907    19.3652 0.0000e+00
      0.605     -0.125     7.4004     73.664     39.192  34.809919     5.0400     2.0818     0.1704     4.9068 1.2651e+01     6.4003      0.593      0.860    19.3524 0.0000e+00
      0.568     -0.136     7.2380     72.738     39.325  34.986402     5.0400     2.1009     0.1704     4.9068 1.6672e+01     6.4754      0.557      0.807    19.3460 0.0000e+00
      0.529     -0.141     7.0692     72.434     39.496  35.229130     5.0400     2.2649     0.1704     4.9068 2.1531e+01     7.8582      0.519      0.752    19.3480 0.0000e+00
      0.490     -0.140     6.9102     72.924     39.711  35.543420     5.0400     2.2649     0.1704     4.9068 2.4380e+01     7.8883      0.481      0.697    19.3636 0.0000e+00
      0.453     -0.134     6.7764     74.406     39.971  35.925947     5.0400     2.2725     0.1704     4.9068 3.1664e+01     7.8883      0.444      0.644    19.4020 0.0000e+00
      0.418     -0.124     6.6807     77.097     40.259  36.353952     5.2200     2.2573     0.1704     5.2452 3.6995e+01     7.9183      0.410      0.594    19.4741 0.0000e+00
      0.387     -0.111     6.6364     81.180     40.562  36.806899     5.2200     2.9363     0.1704     5.2452 3.7334e+01    12.8182      0.379      0.550    19.5871 0.0000e+00
      0.360     -0.095     6.6591     86.754     40.941  37.330322     5.2200     2.9668     0.1704     5.2452 4.2174e+01    12.8332      0.353      0.511    19.7392 0.0000e+00
      0.337     -0.077     6.7669     93.790     41.403  37.937041     5.2200     2.9287     0.1704     5.2452 5.1217e+01    12.8783      0.330      0.479    19.9245 0.0000e+00
      0.319     -0.059     6.9798    102.086     41.826  38.517498     5.7600     2.9439     0.2130     8.6292 5.2014e+01    12.7881      0.313      0.453    20.1338 0.0000e+00
      0.306     -0.041     7.3149    111.277     42.131  38.986816     5.7600     3.4780     0.2130     8.6292 5.1262e+01    16.4705      0.300      0.435    20.3528 0.0000e+00
      0.299     -0.024     7.7813    120.925     42.334  39.339422     5.7600     3.4856     0.2130     8.6292 4.8330e+01    16.3803      0.293      0.425    20.5712 0.0000e+00
      0.297     -0.008     8.3741    130.590     42.453  39.584175     5.7600     3.4971     0.2130     8.6292 4.5162e+01    16.4555      0.291      0.422    20.7944 0.0000e+00
      0.298      0.006     9.0734    139.814     42.505  39.740784     6.1200     3.4666     0.2982    11.6748 4.4645e+01    16.4254      0.292      0.424    21.0270 0.0000e+00
      0.302      0.018     9.8487    148.135     42.524  39.851014     6.1200     2.8295     0.2982    11.6748 4.4869e+01    17.4024      0.296      0.429    21.2529 0.0000e+00
      0.308      0.028    10.6650    155.129     42.546  39.960111     6.1200     2.8295     0.2982    11.6748 4.3819e+01    17.2671      0.302      0.438    21.4501 0.0000e+00
      0.317      0.037    11.4856    160.480     42.564  40.067456     6.1200     2.7952     0.2982    11.6748 4.2413e+01    17.3723      0.311      0.450    21.6106 0.0000e+00
      0.328      0.045    12.2702    164.025     42.549  40.142249     6.3000     2.7875     0.3408    14.6781 3.7849e+01    17.2671      0.321      0.466    21.7396 0.0000e+00
      0.341      0.050    12.9764    165.723     42.502  40.178687     6.3000     2.6159     0.3408    14.6781 3.3908e+01    18.1689      0.334      0.485    21.8497 0.0000e+00
      0.355      0.052    13.5645    165.633     42.451  40.200358     6.3000     2.6197     0.3408    14.6781 3.1302e+01    18.1839      0.348      0.505    21.9546 0.0000e+00
      0.371      0.051    14.0062    163.948     42.427  40.232854     6.3000     2.6311     0.3408    14.6781 2.6422e+01    18.1689      0.364      0.527    22.0612 0.0000e+00
      0.386      0.043    14.2892    160.973     42.474  40.318518     6.3000     2.6159     0.3408    14.6781 2.1132e+01    18.1990      0.379      0.550    22.1659 0.0000e+00
      0.400      0.031    14.4126    157.092     42.664  40.527739     6.5700     2.6349     0.3834    14.0859 1.6470e+01    17.5977      0.392      0.569    22.2613 0.0000e+00
      0.409      0.013    14.3837    152.756     43.016  40.890554     6.5700     2.6082     0.3834    14.0859 1.6218e+01    17.5226      0.401      0.582    22.3433 0.0000e+00
      0.411     -0.007    14.2205    148.489     43.490  41.382875     6.5700     2.6159     0.3834    14.0859 1.7469e+01    17.5527      0.403      0.585    22.4090 0.0000e+00
      0.406     -0.029    13.9507    144.836     44.016  41.943829     6.5700     2.6502     0.3834    14.0859 2.1424e+01    17.5527      0.398      0.578    22.4560 0.0000e+00
      0.394     -0.050    13.6063    142.275     44.456  42.437726     6.4800     2.7570     0.3408    14.2974 2.5014e+01    18.2440      0.386      0.560    22.4889 0.0000e+00
      0.377     -0.068    13.2229    141.138     44.722  42.768443     6.4800     2.7608     0.3408    14.2974 2.6040e+01    18.1689      0.369      0.536    22.5216 0.0000e+00
      0.355     -0.084    12.8423    141.563     44.912  43.014274     6.4800     2.7761     0.3408    14.2974 3.2579e+01    18.1990      0.348      0.505    22.5685 0.0000e+00
      0.330     -0.096    12.5104    143.444     45.131  43.272475     6.4800     2.7456     0.3408    14.2974 4.1864e+01    18.2440      0.324      0.470    22.6359 0.0000e+00
      0.304     -0.106    12.2690    146.444     45.347  43.518783     6.3000     3.3712     0.3408    13.7898 4.4297e+01    18.8753      0.298      0.432    22.7206 0.0000e+00
      0.276     -0.115    12.1501    150.097     45.510  43.713872     6.3000     3.3636     0.3408    13.7898 4.6811e+01    18.8753      0.271      0.393    22.8078 0.0000e+00
      0.247     -0.123    12.1693    153.945     45.680  43.917693     6.3000     3.3521     0.3408    13.7898 5.1564e+01    18.9655      0.242      0.351    22.8797 0.0000e+00
      0.215     -0.131    12.3177    157.593     45.912  44.188561     6.3000     3.3559     0.3408    13.7898 6.1795e+01    18.9805      0.211      0.305    22.9331 0.0000e+00
      0.180     -0.138    12.5643    160.716     46.149  44.473886     6.3000     3.3025     0.3408    13.7898 7.2010e+01    19.7170      0.176      0.256    22.9773 0.0000e+00
      0.143     -0.144    12.8670    163.093     46.337  44.713046     6.4800     3.3140     0.3408    15.5664 8.7774e+01    19.7471      0.140      0.203    23.0197 0.0000e+00
      0.104     -0.148    13.1856    164.626     46.475  44.894527     6.4800     3.3216     0.3408    15.5664 1.1839e+02    19.5817      0.102      0.147    23.0641 0.0000e+00
      0.064     -0.151    13.4848    165.376     46.599  45.050876     6.4800     3.2911     0.3408    15.5664 1.5065e+02    19.6569      0.063      0.090    23.1158 0.0000e+00
      0.025     -0.152    13.7362    165.563     46.735  45.211898     6.4800     3.0775     0.3408    15.5664 1.6562e+02    19.9274      0.024      0.035    23.1773 0.0000e+00
     -0.013     -0.153    13.9232    165.467     46.842  45.343257     6.5700     3.0736     0.3408    16.2432 1.7430e+02    19.9425     -0.013     -0.019    23.2399 0.0000e+00
     -0.051     -0.154    14.0406    165.303     46.978  45.507720     6.5700     3.0393     0.3408    16.2432 1.7601e+02    19.8974     -0.049     -0.072    23.2924 0.0000e+00
     -0.089     -0.156    14.0942    165.169     47.230  45.798679     6.5700     3.0660     0.3408    16.2432 2.1902e+02    19.8523     -0.087     -0.126    23.3322 0.0000e+00
     -0.128     -0.159    14.1020    165.101     47.493  46.125299     6.5700     2.6388     0.3408    16.2432 3.0237e+02    20.3633     -0.125     -0.182    23.3638 0.0000e+00
     -0.169     -0.163    14.0861    165.094     47.646  46.364644     6.5700     2.6159     0.3834    16.5816 2.8756e+02    20.3332     -0.165     -0.240    23.3937 0.0000e+00
     -0.210     -0.168    14.0631    165.060     47.684  46.497321     6.5700     2.6159     0.3834    16.5816 3.1463e+02    20.3934     -0.206     -0.299    23.4281 0.0000e+00
     -0.253     -0.172    14.0388    164.824     47.629  46.534936     6.5700     2.6311     0.3834    16.5816 3.0713e+02    20.4835     -0.248     -0.359    23.4776 0.0000e+00
     -0.296     -0.176    14.0132    164.183     47.442  46.434022     6.5700     2.4442     0.3834    16.5816 3.1586e+02    19.9124     -0.290     -0.421    23.5528 0.0000e+00
     -0.340     -0.178    13.9874    162.945     47.064  46.130021     6.3900     2.4366     0.3834    16.2432 3.2711e+02    19.9124     -0.334     -0.484    23.6489 0.0000e+00
     -0.385     -0.179    13.9580    160.964     46.437  45.557726     6.3900     2.4556     0.3834    16.2432 3.8526e+02    19.7471     -0.378     -0.548    23.7500 0.0000e+00
     -0.430     -0.178    13.9131    158.210     45.436  44.592267     6.3900     2.4518     0.3834    16.2432 3.5899e+02    19.8823     -0.421     -0.611    23.8460 0.0000e+00
     -0.472     -0.176    13.8367    154.806     43.825  43.007896     6.3900     1.6278     0.3834    16.2432 3.3846e+02    14.2611     -0.463     -0.671    23.9320 0.0000e+00
     -0.513     -0.170    13.7146    151.030     41.196  40.411836     6.3900     1.6278     0.3834    16.2432 3.4023e+02    14.2009     -0.502     -0.729    24.0007 0.0000e+00
     -0.551     -0.163    13.5366    147.248     37.087  36.361461     6.5700     1.6278     0.3834    16.6239 3.0667e+02    14.3813     -0.540     -0.784    24.0446 0.0000e+00
     -0.587     -0.154    13.3005    143.834     33.234  32.562327     6.5700     1.6507     0.3834    16.6239 2.3372e+02    14.2761     -0.575     -0.834    24.0610 0.0000e+00
     -0.616     -0.146    13.0159    141.146     32.943  32.253993     6.5700    -0.1346     0.3834    16.6239 1.6287e+02    -0.5286     -0.604     -0.876    24.0537 0.0000e+00
     -0.638     -0.139    12.7035    139.469     35.368  34.608222     6.5700    -0.1079     0.3834    16.6239 1.0896e+02    -0.5136     -0.626     -0.908    24.0313 0.0000e+00
     -0.655     -0.137    12.3919    138.910     36.706  35.909004     4.5000    -0.1079     0.0852     8.1216 7.1356e+01    -0.5436     -0.642     -0.931    24.0034 0.0000e+00
     -0.667 -9.990e-29    12.1110 -9.990e-29 -9.990e-29 -9.990e-29     4.5000 -9.990e-29     0.0852     8.1216 5.8097e+01 -9.990e-29     -0.654     -0.948    23.9756 0.0000e+00
     -0.675 -9.990e-29    11.8905 -9.990e-29 -9.990e-29 -9.990e-29     4.5000 -9.990e-29     0.0852     8.1216 5.7807e+01 -9.990e-29     -0.662     -0.960    23.9495 0.0000e+00
     -0.679 -9.990e-29    11.7541 -9.990e-29 -9.990e-29 -9.990e-29     4.5000 -9.990e-29     0.0852     8.1216 4.9135e+01 -9.990e-29     -0.666     -0.967    23.9274 0.0000e+00
     -0.681 -9.990e-29    11.7091 -9.990e-29 -9.990e-29 -9.990e-29     0.0000 -9.990e-29     0.0000     0.6768 4.6628e+01 -9.990e-29     -0.668     -0.969    23.9179 0.0000e+00
