* Sea-Bird SBE19plus  Data File:
* FileName = C:\DATA\062719_bvr50_0002.hex
* Software version 2.8.0.119 SB_Terminal.dll
* Temperature SN = 7809
* Conductivity SN = 7809
* System UpLoad Time = Jun 27 2019 13:50:10
* <ApplicationData>
* <Seaterm232>
* <SoftwareVersion>2.8.0.119</SoftwareVersion>
* <BuildDate>07-Nov-2018</BuildDate>
* </Seaterm232>
* </ApplicationData>
* cast   2 27 Jun 2019 13:36:18 samples 1250 to 2299, avg = 1, stop = mag switch
# nquan = 16
# nvalues = 945                         
# units = specified
# name 0 = depFM: Depth [fresh water, m]
# name 1 = dz/dtM: Descent Rate [m/s]
# name 2 = sbeox0Mg/L: Oxygen, SBE 43 [mg/l]
# name 3 = sbeox0PS: Oxygen, SBE 43 [% saturation]
# name 4 = specc: Specific Conductance [uS/cm]
# name 5 = c0uS/cm: Conductivity [uS/cm]
# name 6 = flECO-AFL: Fluorescence, WET Labs ECO-AFL/FL [mg/m^3]
# name 7 = ph: pH
# name 8 = orp: Oxidation Reduction Potential [mV]
# name 9 = par/sat/log: PAR/Logarithmic, Satlantic
# name 10 = turbWETntu0: Turbidity, WET Labs ECO [NTU]
# name 11 = prdM: Pressure, Strain Gauge [db]
# name 12 = prdE: Pressure, Strain Gauge [psi]
# name 13 = tv290C: Temperature [ITS-90, deg C]
# name 14 = density00: Density [density, kg/m^3]
# name 15 = flag:  0.000e+00
# span 0 =     -0.577,     10.725       
# span 1 =     -0.269,      0.292       
# span 2 =    -0.8522,     9.8860       
# span 3 =     -7.647,    113.465       
# span 4 =     26.221,    144.386       
# span 5 =  20.940483,  96.465438       
# span 6 =    -0.4830,   236.9481       
# span 7 =      6.254,      8.901       
# span 8 =    69.8532,   408.1766       
# span 9 = 1.2320e-01, 2.5078e+03       
# span 10 =    -1.7232,   136.3903      
# span 11 =     -0.574,     10.518      
# span 12 =     -0.833,     15.255      
# span 13 =     8.3635,    35.9575      
# span 14 =   993.7100,   999.9299      
# span 15 = 0.0000e+00, 0.0000e+00      
# interval = seconds: 0.25
# start_time = Jun 27 2019 13:36:18 [Instrument's time stamp, header]
# bad_flag = -9.990e-29
# <Sensors count="9" >
#   <sensor Channel="1" >
#     <!-- Count, Temperature -->
#     <TemperatureSensor SensorID="58" >
#       <SerialNumber>7809</SerialNumber>
#       <CalibrationDate>24-Mar-19</CalibrationDate>
#       <A0>1.21792325e-003</A0>
#       <A1>2.81669265e-004</A1>
#       <A2>-1.60333336e-006</A2>
#       <A3>1.98414625e-007</A3>
#       <Slope>1.00000000</Slope>
#       <Offset>0.0000</Offset>
#     </TemperatureSensor>
#   </sensor>
#   <sensor Channel="2" >
#     <!-- Frequency 0, Conductivity -->
#     <ConductivitySensor SensorID="3" >
#       <SerialNumber>7809</SerialNumber>
#       <CalibrationDate>24-Mar-19</CalibrationDate>
#       <UseG_J>1</UseG_J>
#       <!-- Cell const and series R are applicable only for wide range sensors. -->
#       <SeriesR>0.0000</SeriesR>
#       <CellConst>2000.0000</CellConst>
#       <ConductivityType>0</ConductivityType>
#       <Coefficients equation="0" >
#         <A>0.00000000e+000</A>
#         <B>0.00000000e+000</B>
#         <C>0.00000000e+000</C>
#         <D>0.00000000e+000</D>
#         <M>0.0</M>
#         <CPcor>-9.57000000e-008</CPcor>
#       </Coefficients>
#       <Coefficients equation="1" >
#         <G>-1.00589325e+000</G>
#         <H>1.26816302e-001</H>
#         <I>-1.51560448e-004</I>
#         <J>2.67137274e-005</J>
#         <CPcor>-9.57000000e-008</CPcor>
#         <CTcor>3.2500e-006</CTcor>
#         <!-- WBOTC not applicable unless ConductivityType = 1. -->
#         <WBOTC>0.00000000e+000</WBOTC>
#       </Coefficients>
#       <Slope>1.00000000</Slope>
#       <Offset>0.00000</Offset>
#     </ConductivitySensor>
#   </sensor>
#   <sensor Channel="3" >
#     <!-- Count, Pressure, Strain Gauge -->
#     <PressureSensor SensorID="46" >
#       <SerialNumber>7809</SerialNumber>
#       <CalibrationDate>11-Mar-19</CalibrationDate>
#       <PA0>4.56561833e-002</PA0>
#       <PA1>4.85095118e-004</PA1>
#       <PA2>-2.88327090e-012</PA2>
#       <PTEMPA0>-5.48784562e+001</PTEMPA0>
#       <PTEMPA1>5.53756816e+001</PTEMPA1>
#       <PTEMPA2>-5.86727098e-001</PTEMPA2>
#       <PTCA0>5.25246745e+005</PTCA0>
#       <PTCA1>1.22304214e+001</PTCA1>
#       <PTCA2>-3.56745036e-001</PTCA2>
#       <PTCB0>2.51668750e+001</PTCB0>
#       <PTCB1>3.75000000e-004</PTCB1>
#       <PTCB2>0.00000000e+000</PTCB2>
#       <Offset>0.000000</Offset>
#     </PressureSensor>
#   </sensor>
#   <sensor Channel="4" >
#     <!-- A/D voltage 0, Oxygen, SBE 43 -->
#     <OxygenSensor SensorID="38" >
#       <SerialNumber>0434</SerialNumber>
#       <CalibrationDate>13-Apr-19</CalibrationDate>
#       <Use2007Equation>1</Use2007Equation>
#       <CalibrationCoefficients equation="0" >
#         <!-- Coefficients for Owens-Millard equation. -->
#         <Boc>0.0000</Boc>
#         <Soc>0.0000e+000</Soc>
#         <offset>0.0000</offset>
#         <Pcor>0.00e+000</Pcor>
#         <Tcor>0.0000</Tcor>
#         <Tau>0.0</Tau>
#       </CalibrationCoefficients>
#       <CalibrationCoefficients equation="1" >
#         <!-- Coefficients for Sea-Bird equation - SBE calibration in 2007 and later. -->
#         <Soc>4.2007e-001</Soc>
#         <offset>-0.6109</offset>
#         <A>-4.3656e-003</A>
#         <B> 1.7017e-004</B>
#         <C>-2.5341e-006</C>
#         <D0> 2.5826e+000</D0>
#         <D1> 1.92634e-004</D1>
#         <D2>-4.64803e-002</D2>
#         <E> 3.6000e-002</E>
#         <Tau20> 1.1800</Tau20>
#         <H1>-3.3000e-002</H1>
#         <H2> 5.0000e+003</H2>
#         <H3> 1.4500e+003</H3>
#       </CalibrationCoefficients>
#     </OxygenSensor>
#   </sensor>
#   <sensor Channel="5" >
#     <!-- A/D voltage 1, PAR/Logarithmic, Satlantic -->
#     <PARLog_SatlanticSensor SensorID="76" >
#       <SerialNumber>1122</SerialNumber>
#       <CalibrationDate>08-May-2019</CalibrationDate>
#       <a0>9.7456e-001</a0>
#       <a1>8.1640e-001</a1>
#       <Im>1.3589e+000</Im>
#       <Multiplier>1.0000e+000</Multiplier>
#     </PARLog_SatlanticSensor>
#   </sensor>
#   <sensor Channel="6" >
#     <!-- A/D voltage 2, pH -->
#     <pH_Sensor SensorID="43" >
#       <SerialNumber>0363</SerialNumber>
#       <CalibrationDate>15-Apr-19</CalibrationDate>
#       <Slope>4.5952</Slope>
#       <Offset>2.5370</Offset>
#     </pH_Sensor>
#   </sensor>
#   <sensor Channel="7" >
#     <!-- A/D voltage 3, Oxidation Reduction Potential -->
#     <OxidationReductionPotentialSensor SensorID="41" >
#       <SerialNumber>0363</SerialNumber>
#       <CalibrationDate>15-Apr-19</CalibrationDate>
#       <B>2.499480</B>
#       <M>-0.496195</M>
#       <Offset>0.0</Offset>
#     </OxidationReductionPotentialSensor>
#   </sensor>
#   <sensor Channel="8" >
#     <!-- A/D voltage 4, Fluorometer, WET Labs ECO-AFL/FL -->
#     <FluoroWetlabECO_AFL_FL_Sensor SensorID="20" >
#       <SerialNumber>FLNTURT-2496</SerialNumber>
#       <CalibrationDate>08-May-2019</CalibrationDate>
#       <ScaleFactor>5.00000000e+001</ScaleFactor>
#       <!-- Dark output -->
#       <Vblank>0.0550</Vblank>
#     </FluoroWetlabECO_AFL_FL_Sensor>
#   </sensor>
#   <sensor Channel="9" >
#     <!-- A/D voltage 5, Turbidity Meter, WET Labs, ECO-NTU -->
#     <TurbidityMeter SensorID="67" >
#       <SerialNumber>FLNTURT-2496</SerialNumber>
#       <CalibrationDate>08-May-2019</CalibrationDate>
#       <ScaleFactor>189.000000</ScaleFactor>
#       <!-- Dark output -->
#       <DarkVoltage>0.071000</DarkVoltage>
#     </TurbidityMeter>
#   </sensor>
# </Sensors>
# datcnv_date = Jun 27 2019 13:51:58, 7.26.7.129 [datcnv_vars = 15]
# datcnv_in = C:\DATA\062719_bvr50.hex C:\DATA\SBE19plusV2_7809.xmlcon
# datcnv_skipover = 0
# datcnv_ox_hysteresis_correction = yes
# datcnv_ox_tau_correction = yes
# filter_date = Jun 27 2019 13:52:20, 7.26.7.129
# filter_in = C:\DATA\062719_bvr50.cnv
# filter_low_pass_tc_A = 0.030
# filter_low_pass_tc_B = 0.150
# filter_low_pass_A_vars = prdM prdE tv290C density00
# filter_low_pass_B_vars = depFM dz/dtM sbeox0Mg/L sbeox0PS specc c0uS/cm flECO-AFL ph orp par/sat/log turbWETntu0
# alignctd_date = Jun 27 2019 13:52:37, 7.26.7.129
# alignctd_in = C:\DATA\062719_bvr50.cnv
# alignctd_adv = dz/dtM 1.000, sbeox0Mg/L 1.000, sbeox0PS 1.000, specc 1.000, c0uS/cm 1.000, flECO-AFL 1.000, ph 1.000, orp 1.000, turbWETntu0 1.000                                                                                 
# file_type = ascii
*END*
     -0.577      0.145     7.7762    106.251     32.008  36.516576   236.9481      8.209   408.1766 2.3884e+02     6.8252     -0.574     -0.833    35.9056   993.7272 0.0000e+00
     -0.543      0.205     8.0337    106.849     29.484  32.667020   236.9415      8.557   395.5284 2.5604e+02     6.8781     -0.552     -0.801    35.9575   993.7100 0.0000e+00
     -0.467      0.255     8.2731    107.659     28.527  30.857050   176.9295      8.766   386.2199 2.8213e+02     5.4678     -0.468     -0.678    35.5751   993.8501 0.0000e+00
     -0.365      0.287     8.4881    108.694     28.635  30.432223    66.0312      8.871   377.8831 3.5837e+02     2.8169     -0.353     -0.512    33.8146   994.4518 0.0000e+00
     -0.266      0.292     8.6573    109.729     29.698  31.209934     5.5070      8.901   370.3574 4.4756e+02     1.3385     -0.256     -0.370    31.7843   995.1137 0.0000e+00
     -0.181      0.262     8.7690    110.494     30.953  32.327794    -0.0063      8.896   364.2302 4.7906e+02     1.1931     -0.174     -0.251    30.2349   995.5930 0.0000e+00
     -0.112      0.204     8.8313    110.911     31.311  32.589257    -0.4830      8.875   360.0702 9.4431e+02     1.2233     -0.102     -0.149    28.9381   995.9810 0.0000e+00
     -0.064      0.137     8.8534    111.009     31.249  32.467551    -0.2835      8.840   357.1422 1.8877e+03     1.4742     -0.052     -0.075    28.0137   996.2471 0.0000e+00
     -0.044      0.076     8.8461    110.848     31.186  32.379224     0.1526      8.802   354.6397 2.3694e+03     1.8997     -0.033     -0.048    27.4623   996.4034 0.0000e+00
     -0.048      0.030     8.8233    110.510     30.741  31.902014     0.3940      8.769   352.0962 1.8904e+03     2.1401     -0.045     -0.065    27.1812   996.4818 0.0000e+00
     -0.063      0.002     8.7952    110.099     29.962  31.076156     0.4155      8.744   349.1895 9.3963e+02     2.1201     -0.063     -0.091    26.9992   996.5320 0.0000e+00
     -0.075     -0.009     8.7670    109.709     29.188  30.262276     0.4476      8.719   346.5966 4.1722e+02     1.8541     -0.075     -0.108    26.9218   996.5530 0.0000e+00
     -0.080     -0.007     8.7391    109.374     28.741  29.802749     0.5131      8.690   343.9761 3.8487e+02     1.4155     -0.082     -0.119    26.9101   996.5564 0.0000e+00
     -0.078      0.002     8.6973    108.924     28.628  29.707873     0.5485      8.665   341.3390 7.2059e+02     1.1745     -0.078     -0.112    26.8846   996.5632 0.0000e+00
     -0.069      0.009     8.5398    107.035     28.583  29.686235     0.5370      8.645   339.8353 1.1738e+03     1.1359     -0.067     -0.097    26.8489   996.5727 0.0000e+00
     -0.061      0.012     8.2433    103.371     28.490  29.604619     0.4272      8.630   338.7001 1.0103e+03     0.8175     -0.058     -0.084    26.8248   996.5791 0.0000e+00
     -0.056      0.013     7.9772    100.045     28.430  29.545936     0.2351      8.615   336.9051 5.9737e+02     0.2091     -0.053     -0.077    26.8274   996.5783 0.0000e+00
     -0.057      0.013     7.7732     97.467     28.438  29.547750     0.1311      8.594   335.1691 7.2499e+02    -0.1569     -0.055     -0.080    26.8779   996.5644 0.0000e+00
     -0.059      0.013     7.5239     94.312     28.462  29.563095     0.1221      8.568   333.3686 9.5874e+02    -0.1672     -0.060     -0.088    26.9311   996.5498 0.0000e+00
     -0.058      0.013     7.2341     90.657     28.510  29.604554     0.1008      8.550   331.1394 6.9610e+02     0.3802     -0.059     -0.086    26.9571   996.5426 0.0000e+00
     -0.052      0.008     6.9923     87.612     28.576  29.668309     0.0633      8.547   329.2102 4.4355e+02     1.3492     -0.053     -0.076    26.9647   996.5406 0.0000e+00
     -0.043     -0.006     6.8436     85.739     28.549  29.635999     0.0510      8.551   327.4217 7.2794e+02     1.8474     -0.042     -0.061    26.9464   996.5457 0.0000e+00
     -0.035     -0.028     6.7568     84.644     28.450  29.531138     0.0557      8.553   325.6901 1.4086e+03     1.8487     -0.031     -0.044    26.9261   996.5513 0.0000e+00
     -0.039     -0.053     6.6767     83.642     28.644  29.732881     0.0515      8.548   324.7930 1.9423e+03     1.5942     -0.031     -0.045    26.9110   996.5555 0.0000e+00
     -0.059     -0.073     6.5848     82.508     29.365  30.488974     0.0087      8.538   324.7486 1.6758e+03     0.8026     -0.051     -0.075    26.9037   996.5575 0.0000e+00
     -0.096     -0.084     6.5265     81.802     30.149  31.312574    -0.0708      8.528   324.6370 8.6562e+02    -0.1526     -0.092     -0.134    26.8979   996.5587 0.0000e+00
     -0.136     -0.084     6.5493     82.159     30.429  31.632416    -0.1217      8.519   323.8739 5.0947e+02    -0.5819     -0.138     -0.200    26.8940   996.5595 0.0000e+00
     -0.163     -0.072     6.6385     83.432     30.243  31.500757    -0.1125      8.508   322.9223 9.5722e+02    -0.5856     -0.165     -0.239    26.8851   996.5619 0.0000e+00
     -0.176     -0.052     6.7469     84.924     29.947  31.243726     0.0755      8.491   322.2504 1.4219e+03    -0.2309     -0.175     -0.254    26.9098   996.5554 0.0000e+00
     -0.179     -0.029     6.8441     86.195     29.816  31.126425     0.4080      8.471   321.7738 1.1229e+03     0.3972     -0.178     -0.257    26.9177   996.5535 0.0000e+00
     -0.177     -0.011     6.9114     87.071     29.839  31.161241     0.5872      8.451   321.2891 6.2267e+02     0.7491     -0.174     -0.252    26.9316   996.5498 0.0000e+00
     -0.174     -0.001     6.9292     87.334     29.821  31.157066     0.6042      8.431   320.6917 4.7262e+02     0.8128     -0.171     -0.247    27.0855   996.5074 0.0000e+00
     -0.172      0.004     6.8842     86.796     29.733  31.075970     0.5609      8.415   320.1434 4.3369e+02     0.9377     -0.167     -0.242    27.1891   996.4787 0.0000e+00
     -0.172      0.007     6.7762     85.436     29.726  31.069086     0.4709      8.401   319.6499 3.9411e+02     1.1437     -0.168     -0.244    27.1877   996.4790 0.0000e+00
     -0.173      0.008     6.6212     83.471     29.735  31.073838     0.4184      8.386   319.0271 3.5974e+02     1.2393     -0.171     -0.247    27.2052   996.4742 0.0000e+00
     -0.172      0.009     6.4464     81.261     29.551  30.879595     0.4114      8.371   318.2918 3.4082e+02     1.1439     -0.170     -0.246    27.2353   996.4659 0.0000e+00
     -0.167      0.012     6.2822     79.173     29.253  30.560665     0.4134      8.357   317.6425 3.3763e+02     0.3501     -0.165     -0.239    27.2611   996.4587 0.0000e+00
     -0.161      0.017     6.1570     77.555     29.046  30.326879     0.4164      8.344   317.2849 3.3797e+02    -1.0172     -0.156     -0.227    27.2562   996.4601 0.0000e+00
     -0.158      0.021     6.0819     76.585     29.004  30.273710     0.4207      8.332   317.0656 3.3745e+02    -1.7227     -0.154     -0.223    27.2413   996.4643 0.0000e+00
     -0.154      0.022     6.0477     76.168     29.021  30.298503     0.4221      8.318   316.7978 3.3784e+02    -1.7232     -0.152     -0.221    27.2452   996.4631 0.0000e+00
     -0.147      0.022     6.0423     76.109     28.967  30.245961     0.3204      8.307   316.2837 3.3885e+02    -1.2851     -0.145     -0.210    27.2382   996.4650 0.0000e+00
     -0.138      0.022     6.0530     76.206     28.887  30.146045     0.1187      8.298   315.5816 3.3927e+02    -0.4901     -0.135     -0.196    27.1946   996.4770 0.0000e+00
     -0.131      0.024     6.0654     76.296     28.875  30.105629     0.0037      8.292   315.1062 3.4107e+02    -0.0419     -0.128     -0.185    27.1648   996.4853 0.0000e+00
     -0.128      0.027     6.0806     76.432     28.989  30.201402    -0.0122      8.281   314.8381 3.6577e+02     0.0374     -0.126     -0.182    27.1966   996.4766 0.0000e+00
     -0.125      0.028     6.1026     76.697     29.139  30.352207    -0.0127      8.264   314.4906 6.5188e+02     0.0756     -0.124     -0.179    27.2185   996.4705 0.0000e+00
     -0.118      0.029     6.1229     76.975     29.060  30.279256     0.0057      8.253   313.9162 1.4194e+03     0.1257     -0.118     -0.172    27.1773   996.4819 0.0000e+00
     -0.106      0.031     6.1505     77.319     28.749  29.953898     0.0374      8.249   313.2275 2.1903e+03     0.2171     -0.105     -0.153    27.1207   996.4976 0.0000e+00
     -0.094      0.035     6.2175     78.115     28.479  29.654333     0.0585      8.236   312.7029 2.2488e+03     0.2952     -0.089     -0.130    27.0698   996.5117 0.0000e+00
     -0.088      0.039     6.3354     79.532     28.367  29.512484     0.0697      8.211   312.3904 1.6899e+03     0.3170     -0.083     -0.121    27.0584   996.5150 0.0000e+00
     -0.083      0.039     6.4694     81.139     28.330  29.444315     0.1302      8.188   312.0313 1.0681e+03     0.0879     -0.085     -0.124    27.1026   996.5027 0.0000e+00
     -0.072      0.034     6.5795     82.424     28.263  29.337661     0.2342      8.184   311.5445 9.5959e+02    -0.3460     -0.074     -0.108    27.1045   996.5022 0.0000e+00
     -0.056      0.028     6.6542     83.254     28.144  29.174611     0.2871      8.192   311.1504 1.5723e+03    -0.5701     -0.053     -0.075    27.0553   996.5157 0.0000e+00
     -0.044      0.021     6.7065     83.807     28.007  28.995603     0.2928      8.204   310.7075 1.9201e+03    -0.5901     -0.040     -0.057    27.0149   996.5268 0.0000e+00
     -0.041      0.016     6.7523     84.294     27.871  28.822883     0.2951      8.214   310.1473 1.3389e+03    -0.5214     -0.039     -0.057    26.9651   996.5405 0.0000e+00
     -0.045      0.012     6.7813     84.598     27.808  28.735851     0.2973      8.213   309.8843 6.2404e+02    -0.3622     -0.044     -0.064    26.8971   996.5591 0.0000e+00
     -0.049      0.010     6.7767     84.519     27.847  28.768080     0.3017      8.201   309.7637 3.8205e+02    -0.2392     -0.050     -0.072    26.8230   996.5793 0.0000e+00
     -0.049      0.010     6.7605     84.326     27.906  28.831866     0.3051      8.192   309.4635 5.7428e+02    -0.1473     -0.051     -0.073    26.7526   996.5985 0.0000e+00
     -0.043      0.012     6.7777     84.536     27.885  28.809173     0.3214      8.187   309.1808 8.2464e+02     0.0277     -0.044     -0.063    26.6962   996.6138 0.0000e+00
     -0.033      0.016     6.8422     85.306     27.776  28.684038     0.3505      8.182   309.0125 7.8019e+02     0.3035     -0.032     -0.046    26.6532   996.6256 0.0000e+00
     -0.027      0.018     6.9282     86.338     27.696  28.587795     0.3620      8.174   308.8913 6.1354e+02     0.5005     -0.025     -0.036    26.6359   996.6303 0.0000e+00
     -0.026      0.019     6.9981     87.187     27.652  28.533735     0.3570      8.166   308.7483 4.5245e+02     0.5413     -0.025     -0.037    26.6581   996.6244 0.0000e+00
     -0.024      0.018     7.0333     87.612     27.599  28.474521     0.3331      8.156   308.5732 6.0436e+02     0.5013     -0.026     -0.036    26.6627   996.6231 0.0000e+00
     -0.019      0.017     7.0387     87.662     27.574  28.442855     0.2812      8.146   308.4087 1.0188e+03     0.3778     -0.020     -0.029    26.6288   996.6322 0.0000e+00
     -0.013      0.017     7.0305     87.542     27.543  28.404635     0.2415      8.135   308.3945 1.4435e+03     0.2609     -0.012     -0.017    26.5972   996.6408 0.0000e+00
     -0.007      0.016     7.0308     87.527     27.477  28.329630     0.2348      8.125   308.5735 1.9346e+03     0.2683     -0.006     -0.009    26.5871   996.6437 0.0000e+00
     -0.002      0.014     7.0544     87.797     27.453  28.297312     0.2433      8.114   308.6805 1.8957e+03     0.3356     -0.002     -0.003    26.5823   996.6449 0.0000e+00
      0.002      0.011     7.1003     88.348     27.493  28.331106     0.2497      8.104   308.6548 1.2454e+03     0.3531      0.002      0.004    26.5674   996.6489 0.0000e+00
      0.003      0.007     7.1606     89.090     27.522  28.357545     0.2422      8.094   308.6068 9.7240e+02     0.3163      0.004      0.006    26.5572   996.6516 0.0000e+00
      0.003      0.005     7.2268     89.922     27.524  28.363190     0.2220      8.085   308.5316 1.3900e+03     0.2837      0.003      0.004    26.5468   996.6545 0.0000e+00
      0.003      0.004     7.2852     90.674     27.551  28.399368     0.2125      8.075   308.4339 1.7274e+03     0.2871      0.002      0.003    26.5302   996.6590 0.0000e+00
      0.004      0.004     7.3225     91.167     27.618  28.477746     0.2230      8.065   308.3714 1.4568e+03     0.2913      0.004      0.005    26.5151   996.6630 0.0000e+00
      0.006      0.004     7.3294     91.266     27.683  28.549514     0.2369      8.057   308.2922 1.1731e+03     0.2698      0.006      0.009    26.5085   996.6649 0.0000e+00
      0.008      0.005     7.2985     90.878     27.765  28.632653     0.2423      8.051   308.1642 1.4563e+03     0.2563      0.008      0.012    26.5127   996.6638 0.0000e+00
      0.009      0.006     7.2303     90.020     27.916  28.785060     0.2353      8.046   308.0287 1.4401e+03     0.2592      0.009      0.013    26.5328   996.6584 0.0000e+00
      0.009      0.005     7.1302     88.777     28.119  28.996410     0.2481      8.042   307.7725 8.2260e+02     0.2718      0.009      0.013    26.5549   996.6524 0.0000e+00
      0.011      0.000     7.0044     87.227     28.331  29.221199     0.2850      8.041   307.1316 4.6269e+02     0.2776      0.010      0.014    26.5631   996.6502 0.0000e+00
      0.014     -0.007     6.8593     85.438     28.446  29.345735     0.2998      8.042   306.2161 6.6077e+02     0.2637      0.013      0.019    26.5590   996.6514 0.0000e+00
      0.016     -0.013     6.7018     83.507     28.387  29.296651     0.2962      8.040   305.7373 8.7677e+02     0.2673      0.017      0.025    26.5476   996.6545 0.0000e+00
      0.011     -0.017     6.5430     81.580     28.272  29.198786     0.2591      8.030   305.6445 6.6276e+02     0.2880      0.015      0.022    26.5494   996.6540 0.0000e+00
      0.000     -0.018     6.3951     79.782     28.235  29.177667     0.1806      8.016   305.4384 4.4029e+02     0.3176      0.002      0.002    26.5675   996.6492 0.0000e+00
     -0.013     -0.017     6.2657     78.197     28.276  29.231682     0.1272      8.001   305.2239 3.5136e+02     0.3305     -0.016     -0.024    26.5720   996.6480 0.0000e+00
     -0.018     -0.014     6.1531     76.818     28.251  29.217404     0.1079      7.986   305.0303 4.7625e+02     0.2807     -0.022     -0.031    26.5874   996.6437 0.0000e+00
     -0.017     -0.004     6.0532     75.597     28.035  29.005048     0.0943      7.974   304.6464 1.0406e+03     0.3048     -0.016     -0.024    26.6360   996.6304 0.0000e+00
     -0.013      0.010     5.9698     74.574     27.850  28.821349     0.0760      7.965   304.1092 1.2972e+03     0.4574     -0.011     -0.017    26.6704   996.6211 0.0000e+00
     -0.012      0.024     5.9085     73.827     27.980  28.963208     0.0595      7.953   303.7834 1.1852e+03     0.5535     -0.012     -0.017    26.6827   996.6178 0.0000e+00
     -0.010      0.030     5.8707     73.353     28.330  29.324408     0.0598      7.942   303.6330 1.4458e+03     0.5493     -0.015     -0.021    26.7014   996.6127 0.0000e+00
      0.003      0.028     5.8627     73.208     28.588  29.572042     0.0789      7.939   303.4089 1.5097e+03     0.4722     -0.001     -0.001    26.7294   996.6051 0.0000e+00
      0.023      0.021     5.8927     73.554     28.636  29.609689     0.1084      7.940   303.3109 1.0027e+03     0.3747      0.027      0.038    26.7339   996.6038 0.0000e+00
      0.035      0.013     5.9542     74.351     28.605  29.589228     0.1224      7.937   303.4814 4.8963e+02     0.3211      0.040      0.059    26.7524   996.5990 0.0000e+00
      0.033      0.003     6.0238     75.266     28.576  29.578465     0.1178      7.931   303.6634 3.9919e+02     0.2825      0.035      0.053    26.7729   996.5935 0.0000e+00
      0.022     -0.007     6.0766     75.962     28.466  29.479587     0.1135      7.921   303.6185 5.0608e+02     0.2692      0.020      0.030    26.7074   996.6113 0.0000e+00
      0.011     -0.012     6.0958     76.250     28.316  29.345466     0.1314      7.906   303.3681 4.2210e+02     0.2249      0.008      0.012    26.6664   996.6224 0.0000e+00
      0.006     -0.007     6.0798     76.128     28.353  29.416175     0.1692      7.888   303.1316 7.0597e+02     0.1406      0.006      0.008    26.7182   996.6083 0.0000e+00
      0.005     -0.001     6.0403     75.723     28.529  29.636626     0.1889      7.872   302.9965 1.4504e+03     0.1024      0.004      0.005    26.7513   996.5993 0.0000e+00
      0.009      0.003     5.9820     75.068     28.646  29.790249     0.1799      7.861   302.7662 1.7331e+03     0.0572      0.004      0.005    26.7712   996.5939 0.0000e+00
      0.019      0.002     5.9010     74.164     28.623  29.814328     0.1558      7.853   302.5840 1.3549e+03     0.0201      0.020      0.029    26.8027   996.5852 0.0000e+00
      0.028     -0.001     5.8085     73.160     28.483  29.737483     0.1311      7.844   302.6009 7.9103e+02     0.0475      0.033      0.049    26.8594   996.5698 0.0000e+00
      0.023     -0.006     5.7257     72.231     28.386  29.686087     0.1235      7.834   302.6259 3.9973e+02     0.0615      0.025      0.036    26.9504   996.5450 0.0000e+00
      0.012     -0.011     5.6619     71.467     28.382  29.700592     0.1248      7.823   302.6281 4.0169e+02     0.0573      0.010      0.013    26.9763   996.5378 0.0000e+00
      0.003     -0.014     5.6151     70.889     28.398  29.722530     0.1290      7.812   302.7136 7.4641e+02     0.3241      0.001      0.000    27.0475   996.5181 0.0000e+00
      0.001     -0.014     5.5800     70.452     28.432  29.760998     0.1487      7.800   302.8854 1.0571e+03     0.8631      0.000      0.001    27.2212   996.4701 0.0000e+00
      0.001     -0.010     5.5530     70.118     28.452  29.784999     0.1727      7.790   302.9844 1.2796e+03     1.1669      0.002      0.003    27.3090   996.4457 0.0000e+00
      0.001     -0.006     5.5318     69.859     28.363  29.695479     0.1853      7.781   302.9644 1.5229e+03     1.1783      0.001      0.001    27.3199   996.4427 0.0000e+00
      0.000     -0.003     5.5173     69.680     28.177  29.503484     0.2140      7.772   302.8154 1.4000e+03     1.0018      0.000      0.000    27.3270   996.4408 0.0000e+00
     -0.001      0.002     5.5200     69.706     27.990  29.303643     0.2679      7.764   302.4732 9.2889e+02     0.6704     -0.000     -0.000    27.3321   996.4393 0.0000e+00
     -0.005      0.010     5.5515     70.071     27.827  29.119235     0.3004      7.755   301.9246 5.5786e+02     0.4811     -0.005     -0.007    27.3352   996.4384 0.0000e+00
     -0.006      0.023     5.6150     70.796     27.672  28.923456     0.3028      7.744   301.2592 4.3356e+02     0.4828     -0.009     -0.013    27.3422   996.4365 0.0000e+00
      0.000      0.042     5.7046     71.797     27.523  28.712979     0.2973      7.733   300.6221 3.9778e+02     0.4949     -0.001     -0.003    27.3528   996.4335 0.0000e+00
      0.013      0.065     5.8029     72.878     27.360  28.477708     0.2773      7.723   300.0723 2.9385e+02     0.4630      0.012      0.018    27.3448   996.4358 0.0000e+00
      0.032      0.092     5.8875     73.793     27.187  28.235880     0.2509      7.713   299.6883 2.1198e+02     0.4584      0.027      0.041    27.3261   996.4410 0.0000e+00
      0.058      0.120     5.9538     74.502     27.078  28.073006     0.2475      7.703   299.4204 2.0617e+02     0.5043      0.054      0.078    27.2732   996.4557 0.0000e+00
      0.093      0.145     6.0071     75.078     27.133  28.094463     0.2535      7.692   299.0700 3.9844e+02     0.5263      0.090      0.130    27.1600   996.4872 0.0000e+00
      0.135      0.162     6.0408     75.438     27.422  28.368364     0.2451      7.680   298.7212 7.7977e+02     0.4951      0.130      0.189    27.0308   996.5229 0.0000e+00
      0.185      0.166     6.0595     75.621     27.843  28.783405     0.2336      7.669   298.6446 8.2427e+02     0.4874      0.179      0.260    26.9156   996.5547 0.0000e+00
      0.240      0.156     6.0819     75.834     28.191  29.115531     0.2351      7.659   298.7460 4.4145e+02     0.5317      0.236      0.342    26.8242   996.5800 0.0000e+00
      0.290      0.136     6.1059     76.063     28.373  29.275120     0.2457      7.649   298.7422 1.5128e+02     0.5389      0.291      0.422    26.7554   996.5991 0.0000e+00
      0.324      0.111     6.1195     76.208     28.486  29.380519     0.2587      7.640   298.6851 8.1668e+01     0.5090      0.325      0.472    26.7156   996.6101 0.0000e+00
      0.340      0.083     6.1238     76.319     28.580  29.501590     0.2788      7.631   298.6583 6.8304e+01     0.4983      0.336      0.487    26.6896   996.6173 0.0000e+00
      0.347      0.057     6.1290     76.514     28.558  29.533484     0.2982      7.619   298.5905 6.3614e+01     0.5076      0.340      0.493    26.6364   996.6320 0.0000e+00
      0.356      0.038     6.1488     76.901     28.482  29.512444     0.3104      7.607   298.5544 6.2294e+01     0.5227      0.348      0.505    26.5729   996.6493 0.0000e+00
      0.364      0.028     6.1903     77.525     28.491  29.564530     0.3142      7.595   298.5654 6.2850e+01     0.5170      0.359      0.522    26.5390   996.6585 0.0000e+00
      0.369      0.023     6.2443     78.269     28.552  29.655724     0.3097      7.584   298.5508 6.4190e+01     0.5041      0.362      0.526    26.5835   996.6465 0.0000e+00
      0.373      0.019     6.2931     78.923     28.605  29.726806     0.3074      7.574   298.5503 6.4685e+01     0.4990      0.364      0.527    26.7017   996.6144 0.0000e+00
      0.380      0.014     6.3247     79.346     28.655  29.789503     0.3043      7.567   298.6462 6.3145e+01     0.4880      0.373      0.541    26.8156   996.5833 0.0000e+00
      0.385      0.010     6.3331     79.477     28.696  29.842752     0.2984      7.561   298.8494 5.9773e+01     0.4694      0.379      0.549    26.8856   996.5642 0.0000e+00
      0.385      0.007     6.3145     79.280     28.702  29.863038     0.2965      7.555   299.0278 5.6842e+01     0.4706      0.378      0.549    26.9311   996.5518 0.0000e+00
      0.384      0.004     6.2672     78.741     28.662  29.844455     0.2984      7.549   299.0823 5.5827e+01     0.5024      0.377      0.547    26.9599   996.5440 0.0000e+00
      0.384      0.002     6.1927     77.911     28.584  29.808458     0.3042      7.543   298.9914 5.6584e+01     0.5263      0.376      0.546    26.9730   996.5404 0.0000e+00
      0.385      0.000     6.0983     76.891     28.517  29.808567     0.3055      7.536   298.8755 5.8639e+01     0.5293      0.378      0.547    26.9884   996.5361 0.0000e+00
      0.386      0.000     5.9950     75.755     28.486  29.845883     0.2975      7.527   298.8863 6.1044e+01     0.5071      0.380      0.550    27.0160   996.5285 0.0000e+00
      0.386     -0.001     5.8962     74.620     28.472  29.879055     0.2944      7.520   298.9490 6.3192e+01     0.4866      0.379      0.550    27.0426   996.5212 0.0000e+00
      0.385     -0.002     5.8102     73.600     28.457  29.892470     0.3022      7.513   299.0325 6.4908e+01     0.5116      0.378      0.548    27.1112   996.5023 0.0000e+00
      0.385     -0.004     5.7342     72.679     28.429  29.881225     0.3058      7.507   299.1215 6.5384e+01     0.5462      0.378      0.548    27.2582   996.4615 0.0000e+00
      0.384     -0.004     5.6675     71.849     28.411  29.870025     0.3029      7.501   299.1637 6.4034e+01     0.5452      0.377      0.547    27.3991   996.4224 0.0000e+00
      0.382     -0.004     5.6100     71.118     28.426  29.883965     0.3012      7.495   299.1995 6.1901e+01     0.5313      0.375      0.543    27.4763   996.4009 0.0000e+00
      0.379     -0.005     5.5579     70.468     28.459  29.922865     0.3032      7.489   299.2955 6.0176e+01     0.5427      0.371      0.538    27.5191   996.3888 0.0000e+00
      0.378     -0.007     5.5110     69.917     28.474  29.959664     0.3088      7.484   299.5507 5.8878e+01     0.5512      0.370      0.537    27.5565   996.3784 0.0000e+00
      0.378     -0.010     5.4738     69.510     28.435  29.948228     0.3089      7.478   299.7893 5.8045e+01     0.5358      0.372      0.539    27.5678   996.3752 0.0000e+00
      0.378     -0.013     5.4528     69.310     28.371  29.911534     0.3039      7.471   299.7714 5.7836e+01     0.5204      0.372      0.539    27.5522   996.3796 0.0000e+00
      0.375     -0.015     5.4483     69.325     28.326  29.896758     0.3014      7.464   299.7647 5.8404e+01     0.5289      0.369      0.534    27.5556   996.3786 0.0000e+00
      0.368     -0.016     5.4489     69.432     28.282  29.896527     0.3035      7.456   299.7934 5.9989e+01     0.5414      0.363      0.526    27.5953   996.3675 0.0000e+00
      0.359     -0.019     5.4446     69.499     28.241  29.908814     0.3036      7.449   299.6032 6.2664e+01     0.5064      0.351      0.509    27.6550   996.3507 0.0000e+00
      0.353     -0.020     5.4396     69.525     28.211  29.918509     0.2937      7.443   299.4443 6.5588e+01     0.4667      0.343      0.498    27.7123   996.3345 0.0000e+00
      0.353     -0.020     5.4364     69.524     28.164  29.886909     0.2878      7.438   299.5072 6.6398e+01     0.4879      0.347      0.504    27.7571   996.3219 0.0000e+00
      0.351     -0.017     5.4264     69.421     28.112  29.844022     0.2938      7.432   299.5887 6.4846e+01     0.5325      0.348      0.503    27.8343   996.3001 0.0000e+00
      0.341     -0.015     5.4028     69.150     28.099  29.844132     0.3051      7.425   299.5692 6.3129e+01     0.5479      0.334      0.484    27.9594   996.2646 0.0000e+00
      0.333     -0.015     5.3676     68.719     28.072  29.824813     0.3111      7.420   299.5295 6.2401e+01     0.5428      0.323      0.468    28.0391   996.2419 0.0000e+00
      0.333     -0.013     5.3274     68.200     27.992  29.737354     0.3059      7.416   299.5394 6.1920e+01     0.5029      0.326      0.472    28.0532   996.2379 0.0000e+00
      0.335     -0.007     5.2884     67.670     27.947  29.674968     0.3036      7.409   299.6028 6.0692e+01     0.4592      0.331      0.480    28.0689   996.2335 0.0000e+00
      0.330      0.000     5.2561     67.196     28.002  29.704987     0.3090      7.401   299.6942 5.9605e+01     0.4739      0.324      0.471    28.1036   996.2235 0.0000e+00
      0.325      0.005     5.2313     66.807     28.108  29.783013     0.3103      7.392   299.7834 5.9593e+01     0.4844      0.315      0.457    28.1223   996.2181 0.0000e+00
      0.328      0.005     5.2087     66.455     28.206  29.856921     0.3026      7.385   299.8215 6.0055e+01     0.4545      0.318      0.462    28.1167   996.2198 0.0000e+00
      0.337      0.004     5.1839     66.087     28.271  29.900605     0.2939      7.380   299.8102 6.0242e+01     0.4395      0.332      0.482    28.0975   996.2253 0.0000e+00
      0.343      0.005     5.1577     65.709     28.259  29.867005     0.2917      7.375   299.8184 5.9641e+01     0.4676      0.340      0.493    28.0376   996.2423 0.0000e+00
      0.342      0.008     5.1328     65.357     28.182  29.767881     0.2928      7.367   299.7494 5.8803e+01     0.4994      0.337      0.489    27.9683   996.2620 0.0000e+00
      0.337      0.010     5.1093     65.022     28.151  29.717283     0.2978      7.354   299.6638 5.9864e+01     0.4955      0.329      0.478    27.9191   996.2761 0.0000e+00
      0.335      0.010     5.0856     64.692     28.207  29.762805     0.3012      7.339   299.7302 6.3461e+01     0.4862      0.324      0.471    27.8707   996.2897 0.0000e+00
      0.340      0.010     5.0626     64.379     28.262  29.810652     0.2983      7.331   299.7774 6.8084e+01     0.4855      0.331      0.479    27.8353   996.2998 0.0000e+00
      0.351      0.010     5.0410     64.080     28.252  29.788178     0.3063      7.329   299.7180 7.1148e+01     0.4875      0.345      0.500    27.8085   996.3074 0.0000e+00
      0.359      0.010     5.0217     63.814     28.221  29.744866     0.3121      7.327   299.7010 6.9927e+01     0.5092      0.356      0.516    27.7733   996.3172 0.0000e+00
      0.359      0.006     5.0037     63.569     28.216  29.731106     0.2986      7.324   299.7430 6.5135e+01     0.5190      0.355      0.516    27.7495   996.3241 0.0000e+00
      0.354      0.001     4.9867     63.340     28.238  29.748688     0.2909      7.322   299.7104 6.0595e+01     0.4752      0.346      0.502    27.7364   996.3278 0.0000e+00
      0.350     -0.004     4.9722     63.147     28.260  29.767092     0.3146      7.320   299.6514 5.8519e+01     0.4390      0.341      0.495    27.7124   996.3344 0.0000e+00
      0.350     -0.004     4.9591     62.969     28.262  29.763270     0.3592      7.318   299.7169 5.9011e+01     0.4743      0.345      0.500    27.6909   996.3405 0.0000e+00
      0.350     -0.003     4.9483     62.815     28.272  29.765909     0.3789      7.315   299.8137 6.1651e+01     0.5088      0.344      0.499    27.6783   996.3441 0.0000e+00
      0.350     -0.001     4.9424     62.723     28.252  29.735540     0.3707      7.311   299.7899 6.4748e+01     0.4949      0.341      0.495    27.6673   996.3471 0.0000e+00
      0.351      0.000     4.9417     62.695     28.179  29.649865     0.3557      7.310   299.6871 6.7208e+01     0.5038      0.344      0.498    27.6604   996.3491 0.0000e+00
      0.352      0.001     4.9463     62.722     28.164  29.618307     0.3359      7.306   299.6897 6.8457e+01     0.5173      0.347      0.504    27.6521   996.3514 0.0000e+00
      0.351      0.001     4.9561     62.806     28.234  29.671202     0.3219      7.300   299.8208 6.7552e+01     0.4943      0.345      0.501    27.6344   996.3564 0.0000e+00
      0.349      0.001     4.9678     62.926     28.293  29.718332     0.3079      7.296   299.9826 6.5536e+01     0.4875      0.340      0.493    27.6164   996.3614 0.0000e+00
      0.351     -0.001     4.9770     63.019     28.328  29.743987     0.2971      7.294   300.1829 6.3671e+01     0.4358      0.343      0.498    27.6109   996.3629 0.0000e+00
      0.354     -0.003     4.9831     63.068     28.388  29.791020     0.3041      7.293   300.3504 6.1740e+01     0.3274      0.350      0.508    27.5799   996.3717 0.0000e+00
      0.354     -0.005     4.9872     63.087     28.453  29.842828     0.3151      7.292   300.4580 6.0043e+01     0.2917      0.348      0.504    27.5299   996.3857 0.0000e+00
      0.350     -0.007     4.9894     63.082     28.487  29.862765     0.3090      7.289   300.4522 5.8747e+01     0.2984      0.343      0.497    27.5127   996.3905 0.0000e+00
      0.346     -0.009     4.9907     63.077     28.477  29.841710     0.2905      7.286   300.2797 5.7821e+01     0.2782      0.340      0.492    27.4955   996.3953 0.0000e+00
      0.343     -0.008     4.9927     63.098     28.358  29.715137     0.2819      7.284   300.0937 5.8591e+01     0.3099      0.336      0.488    27.4670   996.4032 0.0000e+00
      0.340     -0.003     4.9977     63.162     27.826  29.157227     0.2915      7.281   300.0096 6.1674e+01     0.4195      0.333      0.483    27.4375   996.4115 0.0000e+00
      0.337      0.002     5.0339     63.567     26.907  28.171867     0.3033      7.275   300.0366 6.6079e+01     0.4892      0.330      0.478    27.4057   996.4204 0.0000e+00
      0.338      0.006     5.2154     65.658     26.294  27.445064     0.3021      7.265   300.0774 7.0252e+01     0.4971      0.329      0.478    27.3829   996.4267 0.0000e+00
      0.344      0.009     5.6854     71.203     26.221  27.221459     0.3117      7.255   300.1586 7.2312e+01     0.5145      0.337      0.488    27.3828   996.4268 0.0000e+00
      0.351      0.010     6.4299     80.121     26.325  27.181006     0.3421      7.248   300.3299 7.0783e+01     0.5361      0.346      0.501    27.3949   996.4233 0.0000e+00
      0.355      0.009     7.2569     90.116     26.393  27.146046     0.3571      7.245   300.3411 6.5815e+01     0.5611      0.349      0.507    27.3886   996.4246 0.0000e+00
      0.356      0.006     7.9820     98.921     26.425  27.115803     0.3550      7.243   300.1217 5.9607e+01     0.5542      0.349      0.506    27.2389   996.4661 0.0000e+00
      0.355      0.004     8.5420    105.740     26.475  27.132456     0.3597      7.240   300.0012 5.5392e+01     0.4525      0.348      0.505    26.8972   996.5603 0.0000e+00
      0.354      0.004     8.9291    110.468     26.516  27.157027     0.3704      7.236   300.0026 5.5217e+01     0.3483      0.348      0.504    26.5810   996.6465 0.0000e+00
      0.352      0.006     9.1366    113.013     26.524  27.159096     0.3714      7.233   299.7943 5.8158e+01     0.3093      0.343      0.498    26.3918   996.6975 0.0000e+00
      0.354      0.010     9.1734    113.465     26.524  27.157460     0.3547      7.231   299.4610 6.1698e+01     0.2758      0.344      0.499    26.2841   996.7265 0.0000e+00
      0.360      0.015     9.0793    112.300     26.504  27.137250     0.3426      7.230   299.3290 6.4542e+01     0.3043      0.352      0.511    26.2247   996.7425 0.0000e+00
      0.366      0.021     8.9259    110.380     26.479  27.105058     0.3464      7.227   299.4020 6.5417e+01     0.4248      0.361      0.522    26.1937   996.7509 0.0000e+00
      0.370      0.022     8.7797    108.508     26.476  27.085432     0.3568      7.224   299.3124 6.3133e+01     0.5195      0.363      0.527    26.1872   996.7525 0.0000e+00
      0.374      0.010     8.6650    107.014     26.501  27.090251     0.3646      7.221   299.0194 5.9447e+01     0.5655      0.364      0.528    26.1870   996.7527 0.0000e+00
      0.384     -0.017     8.5745    105.872     26.517  27.099847     0.3631      7.218   298.9567 5.7168e+01     0.5543      0.374      0.543    26.1917   996.7515 0.0000e+00
      0.395     -0.057     8.5072    105.078     26.483  27.074571     0.3637      7.215   299.0705 5.8818e+01     0.5144      0.393      0.570    26.1869   996.7528 0.0000e+00
      0.389     -0.105     8.4669    104.610     26.440  27.038425     0.3717      7.210   299.0187 6.8318e+01     0.5101      0.395      0.572    26.1482   996.7632 0.0000e+00
      0.353     -0.158     8.4424    104.287     26.450  27.043478     0.3733      7.205   298.7605 8.7355e+01     0.5025      0.355      0.515    26.0933   996.7777 0.0000e+00
      0.291     -0.212     8.4207    104.007     26.481  27.072221     0.3833      7.200   298.5291 1.1190e+02     0.4875      0.287      0.417    26.0753   996.7822 0.0000e+00
      0.219     -0.253     8.4017    103.803     26.470  27.068731     0.6048      7.196   298.3725 1.4086e+02     0.4275      0.216      0.313    26.1151   996.7712 0.0000e+00
      0.142     -0.269     8.3888    103.683     26.455  27.064748     1.0145      7.192   298.2434 1.8175e+02     0.3340      0.141      0.206    26.1434   996.7633 0.0000e+00
      0.061     -0.257     8.3797    103.593     26.471  27.087525     1.2274      7.187   298.2585 2.2100e+02     0.3074      0.060      0.087    26.1128   996.7711 0.0000e+00
     -0.018     -0.224     8.3692    103.469     26.472  27.090361     1.2196      7.181   298.2972 2.3685e+02     0.4013     -0.023     -0.033    26.0964   996.7751 0.0000e+00
     -0.081     -0.177     8.3549    103.283     26.483  27.099043     0.9547      7.173   298.2807 2.4086e+02     1.3383     -0.090     -0.130    26.1262   996.7669 0.0000e+00
     -0.119     -0.124     8.3392    103.076     26.515  27.129043     0.4614      7.164   298.3172 2.4312e+02     3.0496     -0.125     -0.180    26.1516   996.7599 0.0000e+00
     -0.133     -0.071     8.3267    102.914     26.524  27.135879     0.1963      7.155   298.3948 2.4020e+02     3.9851     -0.134     -0.196    26.1625   996.7570 0.0000e+00
     -0.133     -0.026     8.3205    102.831     26.509  27.118244     0.1860      7.148   298.4450 2.3411e+02     3.9972     -0.132     -0.193    26.1653   996.7562 0.0000e+00
     -0.128     -0.001     8.3200    102.816     26.499  27.106151     0.2238      7.145   298.6661 2.2717e+02     3.1638     -0.126     -0.183    26.1580   996.7582 0.0000e+00
     -0.118      0.004     8.3224    102.837     26.512  27.116543     0.2811      7.143   299.1741 2.2113e+02     1.6431     -0.119     -0.172    26.1492   996.7606 0.0000e+00
     -0.105     -0.002     8.3292    102.919     26.513  27.117007     0.3062      7.139   299.5114 2.1586e+02     0.8163     -0.100     -0.145    26.1458   996.7616 0.0000e+00
     -0.101     -0.011     8.3395    103.050     26.506  27.111752     0.3015      7.135   299.3034 2.1315e+02     0.7051     -0.088     -0.128    26.1440   996.7621 0.0000e+00
     -0.116     -0.019     8.3484    103.165     26.510  27.116461     0.2246      7.134   298.8101 2.3797e+02     0.4618     -0.111     -0.161    26.1374   996.7638 0.0000e+00
     -0.138     -0.024     8.3557    103.250     26.505  27.110494     0.0788      7.134   298.4511 5.2657e+02     0.0380     -0.142     -0.206    26.1327   996.7649 0.0000e+00
     -0.148     -0.026     8.3608    103.308     26.500  27.103040     0.0034      7.131   298.2318 1.1644e+03    -0.1920     -0.151     -0.217    26.1308   996.7654 0.0000e+00
     -0.147     -0.026     8.3620    103.317     26.489  27.089785    -0.0011      7.126   297.9662 1.7324e+03    -0.1889     -0.144     -0.209    26.1351   996.7642 0.0000e+00
     -0.145     -0.029     8.3589    103.270     26.479  27.077106    -0.0019      7.122   297.7344 1.9870e+03    -0.1866     -0.140     -0.205    26.1407   996.7628 0.0000e+00
     -0.147     -0.042     8.3506    103.165     26.479  27.076625     0.0716      7.121   297.4936 2.0480e+03    -0.1969     -0.145     -0.210    26.1336   996.7646 0.0000e+00
     -0.152     -0.063     8.3380    103.018     26.484  27.083964     0.2203      7.120   297.2058 2.0802e+03    -0.1498     -0.146     -0.213    26.1308   996.7654 0.0000e+00
     -0.167     -0.084     8.3241    102.856     26.499  27.102409     0.3046      7.116   297.0944 2.1356e+03     0.1542     -0.155     -0.225    26.1317   996.7651 0.0000e+00
     -0.202     -0.096     8.3097    102.685     26.504  27.109319     0.3191      7.110   297.1787 2.1674e+03     3.3152     -0.194     -0.281    26.1224   996.7674 0.0000e+00
     -0.246     -0.095     8.2957    102.515     26.498  27.104075     0.3788      7.101   297.3650 2.1798e+03    38.1018     -0.244     -0.355    26.1193   996.7680 0.0000e+00
     -0.282     -0.081     8.2825    102.354     26.495  27.102449     0.4792      7.091   297.5398 2.1679e+03   101.8495     -0.282     -0.409    26.1282   996.7654 0.0000e+00
     -0.304     -0.056     8.2666    102.162     26.482  27.089656     0.5276      7.085   297.6573 2.1486e+03   136.3678     -0.305     -0.442    26.1341   996.7637 0.0000e+00
     -0.309     -0.025     8.2496    101.956     26.467  27.076277     0.5302      7.082   297.7543 2.1455e+03   136.3903     -0.308     -0.447    26.1364   996.7631 0.0000e+00
     -0.303      0.004     8.2378    101.806     26.460  27.067574     0.4759      7.079   297.8516 2.1458e+03   101.9574     -0.298     -0.433    26.1382   996.7627 0.0000e+00
     -0.291      0.027     8.2314    101.712     26.445  27.047870     0.3564      7.075   297.8870 2.1501e+03    38.3587     -0.285     -0.414    26.1392   996.7624 0.0000e+00
     -0.279      0.042     8.2293    101.658     26.434  27.028356     0.2900      7.068   297.8375 2.1578e+03     3.6638     -0.273     -0.395    26.1424   996.7617 0.0000e+00
     -0.269      0.052     8.2317    101.648     26.438  27.021949     0.2976      7.060   297.7704 2.1553e+03     0.5188     -0.264     -0.384    26.1463   996.7607 0.0000e+00
     -0.257      0.058     8.2358    101.660     26.460  27.033822     0.2936      7.053   297.5059 2.1459e+03     0.2348     -0.254     -0.368    26.1445   996.7612 0.0000e+00
     -0.242      0.065     8.2369    101.644     26.480  27.045009     0.2585      7.049   297.2204 2.1430e+03     0.1323     -0.239     -0.347    26.1362   996.7635 0.0000e+00
     -0.221      0.075     8.2342    101.579     26.475  27.030313     0.2365      7.047   297.2446 2.1464e+03     0.0330     -0.218     -0.316    26.1206   996.7678 0.0000e+00
     -0.201      0.087     8.2299    101.483     26.441  26.983002     0.2369      7.047   297.3682 2.1514e+03     0.0172     -0.196     -0.283    26.0959   996.7745 0.0000e+00
     -0.183      0.098     8.2269    101.387     26.393  26.917056     0.2102      7.049   297.5102 2.1560e+03     0.0393     -0.182     -0.264    26.0746   996.7802 0.0000e+00
     -0.158      0.108     8.2272    101.312     26.366  26.867356     0.1478      7.051   297.6710 2.1566e+03     0.0379     -0.158     -0.230    26.0598   996.7843 0.0000e+00
     -0.124      0.114     8.2294    101.247     26.352  26.826137     0.1155      7.052   297.7639 2.1493e+03    -0.0003     -0.122     -0.177    26.0445   996.7884 0.0000e+00
     -0.089      0.119     8.2331    101.191     26.354  26.799282     0.1227      7.053   297.7724 2.1398e+03     0.0033     -0.086     -0.125    26.0233   996.7942 0.0000e+00
     -0.055      0.123     8.2381    101.162     26.376  26.796371     0.1228      7.059   297.6879 2.1505e+03     0.0824     -0.053     -0.076    25.9911   996.8029 0.0000e+00
     -0.026      0.125     8.2442    101.176     26.388  26.790900     0.1608      7.066   297.6024 2.3623e+03     0.1044     -0.024     -0.034    25.9468   996.8148 0.0000e+00
      0.002      0.124     8.2509    101.219     26.404  26.796545     0.2518      7.071   297.5990 2.5078e+03     0.0722      0.000     -0.000    25.8973   996.8281 0.0000e+00
      0.033      0.122     8.2567    101.256     26.419  26.801168     0.2961      7.075   297.7329 2.2500e+03     0.0531      0.030      0.043    25.8384   996.8438 0.0000e+00
      0.068      0.122     8.2631    101.307     26.409  26.783341     0.2887      7.076   297.8445 1.9145e+03     0.0380      0.068      0.099    25.7821   996.8588 0.0000e+00
      0.101      0.123     8.2711    101.378     26.405  26.771316     0.2754      7.076   297.9161 1.5320e+03     0.0856      0.101      0.148    25.7540   996.8663 0.0000e+00
      0.131      0.124     8.2777    101.428     26.425  26.782642     0.2476      7.073   298.1686 1.2770e+03     0.2031      0.129      0.186    25.7359   996.8712 0.0000e+00
      0.159      0.128     8.2842    101.471     26.446  26.793382     0.2300      7.067   298.4873 1.4294e+03     0.2787      0.155      0.224    25.7166   996.8764 0.0000e+00
      0.189      0.134     8.2897    101.496     26.439  26.774279     0.2354      7.062   298.6721 1.5911e+03     0.2797      0.184      0.267    25.7021   996.8803 0.0000e+00
      0.222      0.141     8.2891    101.441     26.420  26.741974     0.2523      7.059   298.6824 1.4199e+03     0.2801      0.216      0.312    25.6888   996.8840 0.0000e+00
      0.260      0.148     8.2853    101.345     26.412  26.719966     0.2778      7.058   298.6126 1.1704e+03     0.2831      0.252      0.365    25.6731   996.8883 0.0000e+00
      0.303      0.152     8.2844    101.281     26.406  26.698482     0.2929      7.058   298.6018 1.0854e+03     0.2501      0.297      0.430    25.6528   996.8939 0.0000e+00
      0.347      0.151     8.2854    101.242     26.395  26.672522     0.2963      7.058   298.7245 1.1240e+03     0.2424      0.342      0.497    25.6289   996.9003 0.0000e+00
      0.389      0.148     8.2865    101.212     26.395  26.659815     0.3018      7.058   298.8919 1.5068e+03     0.3210      0.384      0.557    25.6039   996.9070 0.0000e+00
      0.426      0.143     8.2892    101.212     26.416  26.671706     0.2989      7.058   299.0766 2.0209e+03     0.4141      0.419      0.608    25.5771   996.9142 0.0000e+00
      0.457      0.138     8.2932    101.233     26.441  26.689408     0.2869      7.058   299.3234 2.0242e+03     0.4503      0.448      0.651    25.5478   996.9220 0.0000e+00
      0.487      0.133     8.2944    101.227     26.441  26.683508     0.2874      7.059   299.5522 1.6391e+03     0.4637      0.476      0.691    25.5181   996.9299 0.0000e+00
      0.520      0.129     8.2906    101.167     26.425  26.663795     0.3041      7.059   299.6926 1.3009e+03     0.4772      0.508      0.737    25.4944   996.9362 0.0000e+00
      0.556      0.124     8.2843    101.085     26.404  26.641378     0.3153      7.060   299.7302 1.0709e+03     0.4837      0.546      0.791    25.4777   996.9408 0.0000e+00
      0.591      0.119     8.2784    101.008     26.368  26.602783     0.3109      7.061   299.8338 1.0474e+03     0.4762      0.581      0.843    25.4632   996.9447 0.0000e+00
      0.623      0.114     8.2760    100.961     26.348  26.577789     0.3032      7.061   300.0862 1.1712e+03     0.4840      0.611      0.887    25.4503   996.9482 0.0000e+00
      0.650      0.109     8.2804    100.977     26.373  26.592938     0.2915      7.061   300.3730 1.0974e+03     0.5125      0.638      0.926    25.4434   996.9501 0.0000e+00
      0.673      0.109     8.2860    100.994     26.391  26.595605     0.2811      7.058   300.7197 1.0001e+03     0.4934      0.660      0.958    25.4426   996.9505 0.0000e+00
      0.693      0.111     8.2852    100.935     26.356  26.546566     0.2910      7.056   300.9230 1.1409e+03     0.4500      0.678      0.984    25.4424   996.9506 0.0000e+00
      0.718      0.110     8.2806    100.838     26.329  26.507521     0.3072      7.054   300.8518 1.1349e+03     0.4460      0.700      1.016    25.4357   996.9524 0.0000e+00
      0.752      0.105     8.2771    100.759     26.336  26.504143     0.3028      7.054   300.8050 9.7759e+02     0.4780      0.735      1.067    25.4134   996.9583 0.0000e+00
      0.792      0.094     8.2743    100.694     26.346  26.505708     0.3077      7.056   300.7878 9.7290e+02     0.5099      0.780      1.132    25.3812   996.9669 0.0000e+00
      0.824      0.080     8.2693    100.617     26.371  26.526427     0.3396      7.058   300.7297 8.4735e+02     0.5035      0.816      1.182    25.3532   996.9742 0.0000e+00
      0.839      0.064     8.2609    100.510     26.410  26.564330     0.3508      7.059   300.7043 5.3520e+02     0.4660      0.828      1.201    25.3328   996.9797 0.0000e+00
      0.841      0.049     8.2526    100.405     26.430  26.583348     0.3483      7.061   300.7389 3.1134e+02     0.4498      0.826      1.196    25.3131   996.9848 0.0000e+00
      0.842      0.038     8.2487    100.350     26.415  26.566047     0.3519      7.061   300.8895 2.0086e+02     0.4715      0.822      1.191    25.2934   996.9898 0.0000e+00
      0.850      0.038     8.2510    100.361     26.399  26.545456     0.3343      7.061   301.0634 1.5258e+02     0.4992      0.833      1.208    25.2861   996.9918 0.0000e+00
      0.862      0.048     8.2561    100.391     26.388  26.524696     0.3088      7.058   301.1204 1.3993e+02     0.5232      0.848      1.229    25.2868   996.9917 0.0000e+00
      0.873      0.063     8.2585    100.376     26.381  26.505353     0.3028      7.055   301.1482 1.3310e+02     0.5321      0.855      1.239    25.2844   996.9924 0.0000e+00
      0.889      0.078     8.2583    100.336     26.388  26.501881     0.3232      7.052   301.2277 1.2673e+02     0.5082      0.869      1.260    25.2801   996.9935 0.0000e+00
      0.913      0.092     8.2609    100.340     26.378  26.482691     0.3560      7.048   301.3070 1.1977e+02     0.4966      0.895      1.298    25.2737   996.9953 0.0000e+00
      0.941      0.104     8.2687    100.401     26.368  26.463636     0.3703      7.045   301.4188 1.1467e+02     0.5217      0.922      1.339    25.2556   997.0001 0.0000e+00
      0.970      0.114     8.2781    100.463     26.381  26.461803     0.3654      7.044   301.5477 1.1054e+02     0.5170      0.950      1.378    25.2267   997.0077 0.0000e+00
      1.002      0.119     8.2806    100.426     26.399  26.460504     0.3750      7.044   301.6609 1.0599e+02     0.4733      0.981      1.423    25.2060   997.0132 0.0000e+00
      1.036      0.120     8.2719    100.253     26.406  26.447899     0.4080      7.043   301.7547 1.0240e+02     0.4523      1.016      1.474    25.1940   997.0164 0.0000e+00
      1.069      0.120     8.2593    100.041     26.411  26.436251     0.4261      7.043   301.7361 1.0027e+02     0.4597      1.051      1.523    25.1786   997.0206 0.0000e+00
      1.097      0.117     8.2508     99.890     26.435  26.446531     0.4209      7.043   301.6931 9.8405e+01     0.4640      1.076      1.560    25.1511   997.0278 0.0000e+00
      1.125      0.112     8.2501     99.846     26.444  26.445284     0.4149      7.043   301.7521 9.5037e+01     0.4723      1.100      1.596    25.1100   997.0384 0.0000e+00
      1.155      0.108     8.2577     99.921     26.425  26.421157     0.4311      7.042   301.7601 9.0116e+01     0.4938      1.132      1.643    25.0710   997.0486 0.0000e+00
      1.184      0.106     8.2725    100.089     26.415  26.408575     0.4615      7.040   301.6185 8.5897e+01     0.5276      1.164      1.689    25.0401   997.0567 0.0000e+00
      1.208      0.105     8.2930    100.314     26.433  26.420025     0.4701      7.040   301.5023 8.3331e+01     0.5526      1.185      1.719    25.0126   997.0639 0.0000e+00
      1.231      0.101     8.3153    100.546     26.457  26.432714     0.4657      7.039   301.4735 8.1227e+01     0.5344      1.205      1.747    24.9931   997.0689 0.0000e+00
      1.259      0.097     8.3326    100.711     26.471  26.435097     0.4686      7.038   301.4425 7.9032e+01     0.5041      1.234      1.789    24.9860   997.0709 0.0000e+00
      1.287      0.094     8.3418    100.784     26.496  26.448816     0.4786      7.036   301.4723 7.8084e+01     0.4813      1.264      1.833    24.9850   997.0714 0.0000e+00
      1.311      0.093     8.3492    100.835     26.530  26.471696     0.4832      7.033   301.4894 7.8408e+01     0.4553      1.287      1.866    24.9728   997.0745 0.0000e+00
      1.331      0.092     8.3596    100.920     26.528  26.457953     0.4806      7.031   301.3045 7.8550e+01     0.4523      1.304      1.892    24.9487   997.0808 0.0000e+00
      1.351      0.092     8.3723    101.031     26.492  26.409521     0.5080      7.030   301.1292 7.8568e+01     0.4772      1.324      1.920    24.9244   997.0871 0.0000e+00
      1.375      0.092     8.3882    101.183     26.487  26.393602     0.5725      7.028   301.0902 7.8584e+01     0.4945      1.349      1.955    24.9026   997.0928 0.0000e+00
      1.399      0.094     8.4089    101.399     26.495  26.392346     0.6103      7.026   301.0921 7.8364e+01     0.4643      1.372      1.990    24.8839   997.0977 0.0000e+00
      1.424      0.098     8.4366    101.700     26.507  26.394322     0.6011      7.026   301.1524 7.8320e+01     0.4077      1.396      2.024    24.8620   997.1034 0.0000e+00
      1.449      0.101     8.4708    102.078     26.540  26.417477     0.5903      7.026   301.1311 7.8560e+01     0.3996      1.421      2.061    24.8372   997.1098 0.0000e+00
      1.475      0.104     8.5051    102.454     26.551  26.418534     0.5932      7.025   301.0925 7.8807e+01     0.4650      1.446      2.099    24.8165   997.1152 0.0000e+00
      1.501      0.106     8.5321    102.741     26.550  26.407088     0.6013      7.025   301.1152 7.8925e+01     0.5435      1.472      2.135    24.7989   997.1197 0.0000e+00
      1.529      0.107     8.5506    102.930     26.559  26.405946     0.6100      7.024   301.0625 7.8994e+01     0.5616      1.499      2.174    24.7820   997.1241 0.0000e+00
      1.557      0.107     8.5606    103.021     26.566  26.404717     0.6120      7.022   300.9715 7.9138e+01     0.5526      1.528      2.216    24.7644   997.1288 0.0000e+00
      1.586      0.106     8.5598    102.985     26.561  26.392222     0.6073      7.020   300.8747 7.9419e+01     0.5665      1.556      2.256    24.7446   997.1339 0.0000e+00
      1.613      0.104     8.5507    102.845     26.558  26.381728     0.6050      7.018   300.8379 7.9946e+01     0.5659      1.582      2.294    24.7229   997.1395 0.0000e+00
      1.640      0.099     8.5367    102.645     26.590  26.404704     0.6113      7.016   300.9564 8.0831e+01     0.5448      1.608      2.332    24.7046   997.1444 0.0000e+00
      1.666      0.093     8.5223    102.447     26.610  26.416249     0.6142      7.015   301.1042 8.1958e+01     0.5403      1.635      2.371    24.6910   997.1480 0.0000e+00
      1.689      0.085     8.5107    102.297     26.590  26.394429     0.6225      7.014   301.0761 8.3064e+01     0.5116      1.657      2.404    24.6783   997.1512 0.0000e+00
      1.710      0.075     8.5016    102.191     26.590  26.394629     0.6515      7.014   300.9615 8.3967e+01     0.4597      1.678      2.434    24.6633   997.1551 0.0000e+00
      1.730      0.062     8.4942    102.114     26.610  26.418669     0.6693      7.013   300.9220 8.4426e+01     0.4698      1.698      2.463    24.6435   997.1602 0.0000e+00
      1.746      0.047     8.4889    102.067     26.618  26.431348     0.6645      7.013   300.9430 8.4138e+01     0.5033      1.714      2.486    24.6273   997.1644 0.0000e+00
      1.756      0.033     8.4854    102.041     26.603  26.421050     0.6630      7.015   300.9569 8.3441e+01     0.5033      1.724      2.501    24.6237   997.1653 0.0000e+00
      1.761      0.022     8.4812    102.006     26.599  26.421049     0.6682      7.018   300.9174 8.2796e+01     0.5033      1.728      2.506    24.6264   997.1646 0.0000e+00
      1.761      0.015     8.4752    101.950     26.604  26.431335     0.6657      7.020   300.8962 8.2602e+01     0.5035      1.728      2.506    24.6329   997.1630 0.0000e+00
      1.761      0.013     8.4704    101.902     26.589  26.418542     0.6596      7.021   300.9591 8.3662e+01     0.5056      1.726      2.504    24.6439   997.1602 0.0000e+00
      1.761      0.017     8.4717    101.914     26.565  26.393252     0.6636      7.021   301.1623 8.5202e+01     0.5290      1.726      2.505    24.6519   997.1582 0.0000e+00
      1.765      0.024     8.4809    101.999     26.558  26.379315     0.6709      7.021   301.3735 8.5967e+01     0.5567      1.731      2.510    24.6587   997.1565 0.0000e+00
      1.772      0.034     8.4923    102.098     26.566  26.376907     0.6698      7.021   301.5336 8.6988e+01     0.5782      1.735      2.517    24.6698   997.1537 0.0000e+00
      1.782      0.045     8.4969    102.125     26.561  26.364116     0.6677      7.020   301.8080 8.9001e+01     0.5596      1.745      2.531    24.6754   997.1523 0.0000e+00
      1.797      0.055     8.4944    102.091     26.550  26.351521     0.6708      7.017   302.0245 9.1203e+01     0.4956      1.762      2.557    24.6751   997.1525 0.0000e+00
      1.813      0.065     8.4907    102.046     26.550  26.351511     0.6729      7.015   302.0853 9.3407e+01     0.4610      1.780      2.580    24.6619   997.1559 0.0000e+00
      1.829      0.073     8.4882    101.998     26.567  26.363991     0.6758      7.014   302.1131 9.5757e+01     0.4676      1.792      2.598    24.6342   997.1630 0.0000e+00
      1.849      0.078     8.4868    101.958     26.586  26.375527     0.6793      7.012   302.1027 9.7776e+01     0.4772      1.813      2.628    24.6166   997.1675 0.0000e+00
      1.873      0.082     8.4857    101.920     26.581  26.364107     0.6728      7.010   302.1319 9.8954e+01     0.4790      1.839      2.666    24.6197   997.1668 0.0000e+00
      1.895      0.086     8.4860    101.885     26.580  26.352784     0.6665      7.008   302.2939 9.9169e+01     0.4900      1.858      2.695    24.6250   997.1656 0.0000e+00
      1.915      0.087     8.4895    101.872     26.609  26.365484     0.6730      7.006   302.5124 9.8589e+01     0.5113      1.876      2.722    24.6126   997.1688 0.0000e+00
      1.938      0.084     8.4956    101.887     26.652  26.390759     0.6728      7.005   302.7084 9.7545e+01     0.5073      1.900      2.755    24.5962   997.1731 0.0000e+00
      1.963      0.079     8.5045    101.947     26.678  26.404593     0.6642      7.003   302.8577 9.5933e+01     0.4746      1.926      2.792    24.5879   997.1753 0.0000e+00
      1.986      0.070     8.5186    102.086     26.688  26.405852     0.6643      7.002   302.9410 9.3779e+01     0.4435      1.949      2.827    24.5701   997.1799 0.0000e+00
      2.004      0.058     8.5383    102.305     26.693  26.405967     0.6653      7.002   303.0275 9.1891e+01     0.4584      1.968      2.854    24.5361   997.1886 0.0000e+00
      2.017      0.043     8.5623    102.585     26.695  26.405977     0.6678      7.002   303.1284 9.0261e+01     0.5238      1.979      2.870    24.5020   997.1972 0.0000e+00
      2.024      0.028     8.5896    102.923     26.693  26.405968     0.6682      7.004   303.2146 8.8292e+01     0.5459      1.986      2.881    24.4769   997.2034 0.0000e+00
      2.028      0.016     8.6187    103.304     26.684  26.405862     0.6439      7.006   303.3823 8.6410e+01     0.4967      1.991      2.887    24.4625   997.2071 0.0000e+00
      2.028      0.006     8.6472    103.685     26.671  26.404717     0.6080      7.007   303.5212 8.4910e+01     0.4854      1.989      2.885    24.4546   997.2091 0.0000e+00
      2.025      0.001     8.6708    104.001     26.649  26.392132     0.5896      7.008   303.6026 8.3525e+01     0.5085      1.986      2.880    24.4478   997.2109 0.0000e+00
      2.024      0.001     8.6851    104.189     26.633  26.380598     0.5875      7.009   303.7645 8.2510e+01     0.5137      1.985      2.878    24.4521   997.2098 0.0000e+00
      2.024      0.004     8.6880    104.216     26.646  26.392142     0.5822      7.011   303.8442 8.1855e+01     0.5153      1.985      2.879    24.4727   997.2046 0.0000e+00
      2.024      0.009     8.6795    104.092     26.666  26.404830     0.5770      7.011   303.7922 8.1237e+01     0.4950      1.985      2.879    24.4962   997.1987 0.0000e+00
      2.027      0.014     8.6614    103.870     26.670  26.407117     0.5858      7.011   303.8233 8.0861e+01     0.4980      1.985      2.880    24.5143   997.1941 0.0000e+00
      2.033      0.021     8.6383    103.619     26.675  26.419794     0.6016      7.010   304.0479 8.0718e+01     0.5182      1.994      2.891    24.5241   997.1917 0.0000e+00
      2.039      0.030     8.6207    103.425     26.682  26.431234     0.6294      7.009   304.2710 8.0459e+01     0.5098      2.001      2.902    24.5219   997.1923 0.0000e+00
      2.044      0.035     8.6125    103.319     26.671  26.418567     0.6611      7.008   304.3699 8.0091e+01     0.4951      2.002      2.904    24.5007   997.1976 0.0000e+00
      2.054      0.035     8.6062    103.236     26.648  26.393516     0.6725      7.008   304.3828 7.9689e+01     0.4715      2.010      2.915    24.4918   997.1998 0.0000e+00
      2.072      0.031     8.5999    103.172     26.633  26.382094     0.6723      7.008   304.3417 7.9184e+01     0.4870      2.032      2.948    24.5183   997.1933 0.0000e+00
      2.087      0.027     8.5967    103.162     26.651  26.407354     0.6591      7.009   304.3892 7.8492e+01     0.5180      2.052      2.977    24.5314   997.1901 0.0000e+00
      2.091      0.026     8.5962    103.177     26.683  26.445189     0.6256      7.009   304.6121 7.7642e+01     0.4861      2.054      2.978    24.5193   997.1932 0.0000e+00
      2.086      0.025     8.5977    103.185     26.699  26.458916     0.5969      7.009   304.8858 7.6875e+01     0.4615      2.045      2.965    24.5122   997.1949 0.0000e+00
      2.085      0.024     8.5996    103.165     26.699  26.446438     0.5893      7.008   305.0317 7.6223e+01     0.4834      2.040      2.959    24.5195   997.1931 0.0000e+00
      2.093      0.026     8.5992    103.111     26.688  26.421188     0.5946      7.007   305.0855 7.5487e+01     0.4885      2.049      2.972    24.5383   997.1883 0.0000e+00
      2.107      0.031     8.5986    103.072     26.683  26.407349     0.5995      7.006   305.1064 7.4641e+01     0.4571      2.067      2.998    24.5560   997.1839 0.0000e+00
      2.120      0.034     8.6028    103.106     26.686  26.405989     0.6052      7.006   305.1120 7.3886e+01     0.4323      2.082      3.019    24.5522   997.1850 0.0000e+00
      2.129      0.035     8.6144    103.235     26.687  26.404731     0.6122      7.005   305.1538 7.3304e+01     0.4510      2.089      3.030    24.5210   997.1929 0.0000e+00
      2.135      0.035     8.6324    103.438     26.678  26.392136     0.6140      7.004   305.2669 7.2757e+01     0.4862      2.095      3.038    24.4905   997.2006 0.0000e+00
      2.140      0.038     8.6528    103.659     26.673  26.380581     0.6270      7.004   305.4474 7.2159e+01     0.5301      2.099      3.043    24.4761   997.2043 0.0000e+00
      2.147      0.046     8.6701    103.824     26.696  26.391888     0.6487      7.003   305.6156 7.1559e+01     0.5552      2.103      3.049    24.4686   997.2062 0.0000e+00
      2.157      0.057     8.6805    103.883     26.724  26.401958     0.6505      7.002   305.7514 7.0992e+01     0.5277      2.114      3.065    24.4660   997.2068 0.0000e+00
      2.174      0.070     8.6847    103.864     26.717  26.375423     0.6493      7.000   305.8854 7.0392e+01     0.5260      2.130      3.089    24.4598   997.2085 0.0000e+00
      2.197      0.081     8.6877    103.833     26.685  26.324787     0.6597      6.998   306.0315 6.9731e+01     0.5338      2.152      3.122    24.4484   997.2114 0.0000e+00
      2.222      0.087     8.6920    103.815     26.676  26.297220     0.6632      6.996   306.1402 6.9123e+01     0.4915      2.179      3.161    24.4302   997.2161 0.0000e+00
      2.247      0.088     8.6972    103.812     26.693  26.295842     0.6661      6.993   306.1680 6.8693e+01     0.4735      2.205      3.198    24.3913   997.2260 0.0000e+00
      2.272      0.084     8.6999    103.793     26.720  26.308095     0.6689      6.991   306.1098 6.8371e+01     0.5130      2.228      3.232    24.3525   997.2358 0.0000e+00
      2.294      0.075     8.6948    103.697     26.740  26.318466     0.6625      6.991   306.0378 6.8084e+01     0.5425      2.252      3.266    24.3214   997.2437 0.0000e+00
      2.313      0.065     8.6849    103.556     26.722  26.294347     0.6576      6.991   306.0726 6.7821e+01     0.5349      2.270      3.293    24.2831   997.2532 0.0000e+00
      2.327      0.057     8.6734    103.404     26.702  26.270231     0.6536      6.991   306.1002 6.7591e+01     0.5195      2.282      3.311    24.2473   997.2622 0.0000e+00
      2.338      0.051     8.6547    103.171     26.715  26.280631     0.6484      6.992   306.0272 6.7422e+01     0.5206      2.292      3.325    24.2205   997.2690 0.0000e+00
      2.348      0.048     8.6278    102.844     26.730  26.293205     0.6389      6.992   305.9641 6.7236e+01     0.5153      2.302      3.339    24.2032   997.2734 0.0000e+00
      2.358      0.048     8.6013    102.525     26.733  26.295379     0.6164      6.991   305.9396 6.7008e+01     0.4881      2.312      3.353    24.1928   997.2760 0.0000e+00
      2.370      0.049     8.5787    102.253     26.745  26.306922     0.6016      6.991   305.9898 6.6774e+01     0.4859      2.323      3.369    24.1853   997.2779 0.0000e+00
      2.385      0.051     8.5584    102.013     26.743  26.305883     0.5990      6.992   306.1400 6.6534e+01     0.4899      2.338      3.391    24.1796   997.2793 0.0000e+00
      2.400      0.051     8.5440    101.847     26.718  26.282814     0.6017      6.992   306.2070 6.6349e+01     0.4707      2.355      3.416    24.1771   997.2800 0.0000e+00
      2.414      0.050     8.5377    101.773     26.717  26.281755     0.6259      6.992   306.1121 6.6170e+01     0.4833      2.368      3.434    24.1761   997.2803 0.0000e+00
      2.426      0.047     8.5391    101.778     26.732  26.293089     0.6570      6.990   306.0255 6.5955e+01     0.5109      2.379      3.450    24.1737   997.2810 0.0000e+00
      2.437      0.042     8.5483    101.868     26.738  26.292967     0.6655      6.990   306.1057 6.5815e+01     0.5092      2.390      3.466    24.1751   997.2808 0.0000e+00
      2.448      0.036     8.5597    101.987     26.729  26.280271     0.6599      6.990   306.2215 6.5725e+01     0.5282      2.401      3.483    24.1793   997.2797 0.0000e+00
      2.459      0.031     8.5690    102.087     26.719  26.266457     0.6587      6.991   306.2212 6.5610e+01     0.5445      2.412      3.500    24.1809   997.2794 0.0000e+00
      2.466      0.028     8.5771    102.166     26.710  26.252817     0.6595      6.992   306.1879 6.5522e+01     0.5098      2.420      3.510    24.1753   997.2808 0.0000e+00
      2.469      0.029     8.5822    102.201     26.706  26.242229     0.6610      6.993   306.2498 6.5501e+01     0.4685      2.422      3.513    24.1606   997.2844 0.0000e+00
      2.471      0.034     8.5835    102.181     26.740  26.265300     0.6678      6.993   306.3669 6.5516e+01     0.4381      2.422      3.513    24.1517   997.2866 0.0000e+00
      2.476      0.043     8.5806    102.104     26.765  26.277987     0.6808      6.991   306.3988 6.5539e+01     0.5030      2.426      3.519    24.1501   997.2871 0.0000e+00
      2.487      0.053     8.5731    101.972     26.767  26.268742     0.6965      6.988   306.4637 6.5554e+01     0.6630      2.437      3.534    24.1414   997.2893 0.0000e+00
      2.507      0.061     8.5650    101.837     26.790  26.280373     0.7109      6.987   306.5483 6.5565e+01     0.7340      2.457      3.564    24.1266   997.2931 0.0000e+00
      2.531      0.067     8.5593    101.740     26.810  26.291718     0.7163      6.987   306.5621 6.5580e+01     0.7068      2.483      3.601    24.1078   997.2978 0.0000e+00
      2.552      0.069     8.5534    101.647     26.804  26.279023     0.7010      6.988   306.5445 6.5605e+01     0.6942      2.504      3.632    24.0849   997.3036 0.0000e+00
      2.567      0.069     8.5454    101.533     26.784  26.253752     0.6815      6.988   306.4220 6.5645e+01     0.7136      2.518      3.652    24.0613   997.3095 0.0000e+00
      2.582      0.066     8.5340    101.377     26.776  26.239921     0.6720      6.988   306.2853 6.5672e+01     0.7112      2.531      3.671    24.0401   997.3148 0.0000e+00
      2.598      0.062     8.5189    101.171     26.782  26.238666     0.6644      6.987   306.2684 6.5717e+01     0.6982      2.547      3.694    24.0247   997.3187 0.0000e+00
      2.614      0.059     8.5053    100.977     26.792  26.238564     0.6844      6.986   306.3031 6.5799e+01     0.7202      2.563      3.718    24.0140   997.3214 0.0000e+00
      2.630      0.056     8.4969    100.844     26.802  26.238668     0.7317      6.986   306.3606 6.5894e+01     0.7484      2.580      3.742    24.0051   997.3237 0.0000e+00
      2.645      0.053     8.4940    100.782     26.811  26.239907     0.7589      6.986   306.4478 6.5969e+01     0.7444      2.595      3.764    23.9950   997.3262 0.0000e+00
      2.658      0.049     8.4979    100.812     26.829  26.253540     0.7629      6.987   306.4969 6.5991e+01     0.7039      2.607      3.781    23.9808   997.3298 0.0000e+00
      2.668      0.045     8.5087    100.940     26.852  26.276618     0.7626      6.988   306.5241 6.5993e+01     0.6848      2.617      3.796    23.9620   997.3344 0.0000e+00
      2.678      0.042     8.5222    101.114     26.837  26.265179     0.7554      6.987   306.5194 6.5997e+01     0.7108      2.627      3.809    23.9430   997.3392 0.0000e+00
      2.688      0.038     8.5329    101.256     26.809  26.242119     0.7357      6.985   306.4402 6.5974e+01     0.7228      2.634      3.821    23.9267   997.3432 0.0000e+00
      2.698      0.037     8.5399    101.346     26.817  26.251565     0.7150      6.984   306.4265 6.5972e+01     0.6983      2.645      3.837    23.9177   997.3455 0.0000e+00
      2.709      0.038     8.5474    101.438     26.817  26.252510     0.7055      6.985   306.4392 6.6133e+01     0.6771      2.658      3.856    23.9184   997.3455 0.0000e+00
      2.716      0.039     8.5580    101.572     26.816  26.253549     0.7073      6.986   306.3361 6.6428e+01     0.6961      2.665      3.865    23.9284   997.3429 0.0000e+00
      2.723      0.040     8.5697    101.712     26.826  26.264137     0.7099      6.988   306.2986 6.6630e+01     0.7312      2.669      3.869    23.9400   997.3401 0.0000e+00
      2.733      0.042     8.5758    101.766     26.821  26.253642     0.7033      6.988   306.4158 6.6722e+01     0.7405      2.679      3.886    23.9397   997.3402 0.0000e+00
      2.747      0.045     8.5725    101.691     26.831  26.253531     0.6968      6.989   306.5487 6.6854e+01     0.7437      2.694      3.909    23.9386   997.3405 0.0000e+00
      2.760      0.048     8.5644    101.555     26.852  26.262779     0.7010      6.989   306.5293 6.7044e+01     0.7362      2.707      3.927    23.9473   997.3385 0.0000e+00
      2.772      0.052     8.5535    101.378     26.841  26.238560     0.7101      6.988   306.3529 6.7257e+01     0.7160      2.718      3.943    23.9521   997.3374 0.0000e+00
      2.785      0.054     8.5360    101.103     26.836  26.214436     0.7124      6.987   306.3941 6.7462e+01     0.7289      2.731      3.961    23.9404   997.3402 0.0000e+00
      2.798      0.057     8.5126    100.736     26.873  26.224829     0.7104      6.986   306.6842 6.7703e+01     0.7283      2.744      3.980    23.9184   997.3458 0.0000e+00
      2.813      0.060     8.4874    100.343     26.914  26.237312     0.7374      6.985   306.8489 6.8028e+01     0.6430      2.758      4.000    23.8969   997.3511 0.0000e+00
      2.829      0.063     8.4616     99.953     26.940  26.238441     0.7963      6.982   306.9232 6.8371e+01     0.5502      2.774      4.023    23.8759   997.3563 0.0000e+00
      2.846      0.064     8.4363     99.581     26.961  26.238443     0.8329      6.977   306.9797 6.8751e+01     0.5233      2.791      4.048    23.8422   997.3647 0.0000e+00
      2.864      0.062     8.4164     99.290     26.976  26.237311     0.8250      6.973   306.8437 6.9200e+01     0.5148      2.809      4.074    23.7891   997.3778 0.0000e+00
      2.882      0.057     8.4050     99.125     26.973  26.224730     0.7963      6.972   306.6562 6.9644e+01     0.5783      2.826      4.099    23.7353   997.3910 0.0000e+00
      2.899      0.051     8.4059     99.119     26.966  26.213196     0.7718      6.972   306.6902 7.0115e+01     0.7013      2.845      4.126    23.6913   997.4018 0.0000e+00
      2.911      0.043     8.4201     99.267     26.984  26.224731     0.7628      6.971   306.8252 7.0691e+01     0.7568      2.857      4.144    23.6517   997.4115 0.0000e+00
      2.918      0.035     8.4366     99.442     27.003  26.237305     0.7667      6.971   306.9972 7.1270e+01     0.7576      2.861      4.150    23.6182   997.4197 0.0000e+00
      2.924      0.026     8.4441     99.531     27.003  26.238345     0.7665      6.971   307.1347 7.1775e+01     0.7439      2.866      4.158    23.6029   997.4235 0.0000e+00
      2.931      0.019     8.4434     99.552     26.994  26.237298     0.7603      6.971   307.0260 7.2278e+01     0.7541      2.876      4.171    23.6013   997.4238 0.0000e+00
      2.936      0.017     8.4384     99.536     26.969  26.224660     0.7613      6.972   306.8020 7.2810e+01     0.7834      2.881      4.178    23.5897   997.4267 0.0000e+00
      2.937      0.019     8.4295     99.473     26.944  26.212439     0.7609      6.973   306.7480 7.3343e+01     0.7709      2.880      4.178    23.5719   997.4311 0.0000e+00
      2.937      0.024     8.4228     99.394     26.947  26.216433     0.7549      6.974   306.9759 7.3865e+01     0.7333      2.879      4.176    23.5720   997.4310 0.0000e+00
      2.940      0.032     8.4235     99.338     26.959  26.209514     0.7500      6.974   307.3206 7.4335e+01     0.7219      2.880      4.178    23.5923   997.4261 0.0000e+00
      2.950      0.042     8.4264     99.282     26.968  26.192186     0.7536      6.974   307.5596 7.4710e+01     0.7319      2.891      4.193    23.6149   997.4207 0.0000e+00
      2.965      0.054     8.4236     99.188     26.991  26.197201     0.7637      6.973   307.7154 7.5018e+01     0.7550      2.908      4.218    23.6453   997.4133 0.0000e+00
      2.981      0.064     8.4163     99.069     27.011  26.206692     0.7680      6.971   307.8279 7.5244e+01     0.7725      2.923      4.239    23.6575   997.4105 0.0000e+00
      3.000      0.069     8.4117     98.961     26.999  26.180051     0.7708      6.969   307.8873 7.5380e+01     0.7140      2.941      4.265    23.6103   997.4220 0.0000e+00
      3.021      0.071     8.4131     98.893     26.971  26.128819     0.7720      6.969   308.0033 7.5489e+01     0.6049      2.964      4.299    23.5471   997.4374 0.0000e+00
      3.042      0.071     8.4178     98.852     26.965  26.094729     0.7648      6.968   308.1119 7.5568e+01     0.5347      2.985      4.329    23.5153   997.4452 0.0000e+00
      3.059      0.070     8.4172     98.749     26.984  26.085020     0.7621      6.967   308.1678 7.5632e+01     0.5209      3.001      4.352    23.5128   997.4459 0.0000e+00
      3.074      0.068     8.4068     98.544     26.999  26.074833     0.7991      6.967   308.2485 7.5676e+01     0.5686      3.014      4.371    23.4850   997.4527 0.0000e+00
      3.090      0.064     8.3944     98.319     26.981  26.034961     0.8658      6.965   308.3994 7.5614e+01     0.6533      3.029      4.393    23.4319   997.4656 0.0000e+00
      3.108      0.062     8.3867     98.139     26.955  25.983534     0.9014      6.964   308.6154 7.5545e+01     0.7254      3.049      4.423    23.3814   997.4778 0.0000e+00
      3.125      0.060     8.3829     98.006     26.958  25.960519     0.9003      6.964   308.7104 7.5543e+01     0.7517      3.067      4.448    23.3240   997.4917 0.0000e+00
      3.140      0.057     8.3824     97.920     26.968  25.946961     0.8780      6.964   308.6866 7.5518e+01     0.7422      3.080      4.467    23.2826   997.5017 0.0000e+00
      3.153      0.054     8.3874     97.908     26.988  25.946448     0.8489      6.964   308.7580 7.5502e+01     0.7416      3.091      4.484    23.2456   997.5106 0.0000e+00
      3.166      0.052     8.4021     98.021     27.014  25.954288     0.8341      6.964   308.9714 7.5492e+01     0.7440      3.105      4.504    23.1934   997.5231 0.0000e+00
      3.179      0.052     8.4249     98.252     26.984  25.914852     0.8290      6.964   309.2020 7.5406e+01     0.7380      3.118      4.523    23.1415   997.5356 0.0000e+00
      3.191      0.053     8.4499     98.521     26.924  25.850251     0.8302      6.965   309.3086 7.5275e+01     0.7352      3.129      4.539    23.1011   997.5452 0.0000e+00
      3.204      0.054     8.4703     98.724     26.889  25.807584     0.8574      6.965   309.4001 7.5121e+01     0.7430      3.142      4.556    23.0633   997.5542 0.0000e+00
      3.218      0.056     8.4778     98.754     26.878  25.779579     0.9069      6.964   309.5345 7.4900e+01     0.7669      3.156      4.577    23.0258   997.5633 0.0000e+00
      3.233      0.058     8.4705     98.586     26.888  25.765380     0.9345      6.963   309.5570 7.4625e+01     0.7953      3.171      4.599    23.0094   997.5672 0.0000e+00
      3.249      0.059     8.4556     98.307     26.917  25.762742     0.9483      6.963   309.6722 7.4312e+01     0.7911      3.186      4.621    23.0049   997.5683 0.0000e+00
      3.264      0.061     8.4394     98.008     26.934  25.747644     0.9877      6.962   309.9817 7.3997e+01     0.7490      3.201      4.643    22.9866   997.5727 0.0000e+00
      3.280      0.062     8.4239     97.728     26.924  25.709660     1.0370      6.961   310.2004 7.3685e+01     0.7441      3.217      4.664    22.9564   997.5798 0.0000e+00
      3.295      0.063     8.4109     97.483     26.926  25.684067     1.0593      6.961   310.2524 7.3284e+01     0.7983      3.232      4.687    22.9131   997.5902 0.0000e+00
      3.311      0.064     8.4017     97.285     26.962  25.691920     1.0578      6.960   310.3520 7.2766e+01     0.8141      3.247      4.709    22.8523   997.6046 0.0000e+00
      3.327      0.064     8.3969     97.136     26.976  25.677699     1.0540      6.958   310.6310 7.2238e+01     0.7718      3.263      4.732    22.7902   997.6192 0.0000e+00
      3.345      0.063     8.3949     97.014     26.965  25.638963     1.0569      6.956   310.9585 7.1760e+01     0.7125      3.280      4.757    22.7370   997.6317 0.0000e+00
      3.362      0.061     8.3904     96.860     26.960  25.604154     1.0664      6.955   311.1277 7.1251e+01     0.6875      3.297      4.782    22.6873   997.6435 0.0000e+00
      3.379      0.056     8.3782     96.624     26.958  25.573970     1.0729      6.954   311.1287 7.0665e+01     0.7311      3.314      4.806    22.6390   997.6549 0.0000e+00
      3.395      0.049     8.3580     96.315     26.999  25.591158     1.0840      6.954   311.1425 7.0117e+01     0.7807      3.331      4.831    22.5896   997.6664 0.0000e+00
      3.407      0.040     8.3320     95.972     27.044  25.621631     1.1050      6.954   311.2078 6.9689e+01     0.7965      3.342      4.847    22.5361   997.6789 0.0000e+00
      3.415      0.034     8.3067     95.681     27.048  25.625208     1.1185      6.955   311.3161 6.9286e+01     0.7904      3.349      4.857    22.4778   997.6925 0.0000e+00
      3.421      0.029     8.2892     95.501     27.051  25.634407     1.1178      6.957   311.5056 6.8919e+01     0.7726      3.356      4.867    22.4250   997.7047 0.0000e+00
      3.424      0.027     8.2839     95.420     27.028  25.605985     1.0875      6.959   311.7778 6.8598e+01     0.7446      3.358      4.870    22.3811   997.7149 0.0000e+00
      3.428      0.029     8.2931     95.431     26.983  25.535307     1.0301      6.959   312.0266 6.8161e+01     0.7146      3.360      4.873    22.3533   997.7213 0.0000e+00
      3.435      0.033     8.3107     95.497     26.964  25.477623     0.9964      6.959   312.1916 6.7640e+01     0.7051      3.367      4.883    22.3584   997.7202 0.0000e+00
      3.446      0.038     8.3278     95.556     26.942  25.415974     1.0006      6.959   312.3096 6.7184e+01     0.7279      3.379      4.900    22.3851   997.7141 0.0000e+00
      3.458      0.044     8.3399     95.558     26.926  25.360798     1.0113      6.959   312.4206 6.6742e+01     0.7599      3.391      4.918    22.3839   997.7144 0.0000e+00
      3.469      0.051     8.3420     95.442     26.923  25.317934     1.0216      6.958   312.5866 6.6257e+01     0.7651      3.402      4.934    22.3195   997.7292 0.0000e+00
      3.481      0.056     8.3302     95.163     26.926  25.278278     1.0467      6.957   312.7680 6.5807e+01     0.7576      3.413      4.952    22.2354   997.7486 0.0000e+00
      3.495      0.060     8.3054     94.730     26.956  25.261889     1.0728      6.955   312.9793 6.5410e+01     0.7682      3.427      4.970    22.1628   997.7653 0.0000e+00
      3.512      0.062     8.2687     94.161     26.987  25.246584     1.0856      6.954   313.1623 6.4977e+01     0.7616      3.443      4.993    22.0895   997.7821 0.0000e+00
      3.532      0.062     8.2248     93.525     27.002  25.220041     1.1407      6.954   313.2605 6.4460e+01     0.7106      3.463      5.023    22.0139   997.7994 0.0000e+00
      3.552      0.060     8.1820     92.927     27.011  25.194649     1.2443      6.956   313.3925 6.3967e+01     0.6756      3.484      5.053    21.9360   997.8172 0.0000e+00
      3.568      0.055     8.1440     92.407     27.038  25.193277     1.3071      6.957   313.5536 6.3607e+01     0.6992      3.501      5.078    21.8537   997.8358 0.0000e+00
      3.579      0.050     8.1123     91.969     27.074  25.203416     1.3188      6.958   313.8321 6.3261e+01     0.7345      3.512      5.093    21.7673   997.8552 0.0000e+00
      3.588      0.046     8.0868     91.606     27.084  25.190331     1.3168      6.960   314.1791 6.2883e+01     0.7413      3.518      5.101    21.6883   997.8730 0.0000e+00
      3.598      0.045     8.0641     91.274     27.079  25.161908     1.3088      6.960   314.3069 6.2581e+01     0.7489      3.527      5.116    21.6274   997.8867 0.0000e+00
      3.609      0.045     8.0446     90.970     27.054  25.113478     1.3079      6.960   314.3441 6.2317e+01     0.7606      3.539      5.133    21.5817   997.8969 0.0000e+00
      3.620      0.047     8.0335     90.752     27.015  25.048778     1.3158      6.960   314.4572 6.2003e+01     0.7518      3.550      5.148    21.5394   997.9064 0.0000e+00
      3.633      0.049     8.0307     90.623     27.010  25.013961     1.3163      6.960   314.5552 6.1680e+01     0.7403      3.563      5.168    21.4984   997.9155 0.0000e+00
      3.646      0.050     8.0301     90.516     27.038  25.009650     1.3063      6.961   314.6689 6.1439e+01     0.7199      3.576      5.186    21.4579   997.9245 0.0000e+00
      3.660      0.051     8.0281     90.393     27.057  24.996608     1.3069      6.962   314.8854 6.1254e+01     0.7019      3.588      5.205    21.4107   997.9350 0.0000e+00
      3.673      0.051     8.0257     90.265     27.076  24.983099     1.3152      6.961   315.1084 6.1039e+01     0.7201      3.602      5.225    21.3572   997.9469 0.0000e+00
      3.685      0.051     8.0212     90.112     27.100  24.973139     1.3286      6.961   315.2140 6.0814e+01     0.8082      3.614      5.241    21.3009   997.9593 0.0000e+00
      3.698      0.050     8.0103     89.891     27.096  24.939589     1.3566      6.961   315.3020 6.0615e+01     0.9154      3.627      5.260    21.2440   997.9719 0.0000e+00
      3.712      0.049     7.9929     89.602     27.079  24.894582     1.3675      6.961   315.3990 6.0438e+01     0.9351      3.640      5.280    21.1878   997.9842 0.0000e+00
      3.724      0.048     7.9729     89.293     27.084  24.872977     1.3653      6.962   315.4392 6.0247e+01     0.9478      3.653      5.298    21.1302   997.9968 0.0000e+00
      3.736      0.048     7.9571     89.036     27.106  24.868639     1.3738      6.962   315.5300 6.0049e+01     1.0034      3.663      5.313    21.0720   998.0096 0.0000e+00
      3.747      0.047     7.9450     88.821     27.104  24.842095     1.4000      6.963   315.7229 5.9860e+01     0.9518      3.674      5.329    21.0141   998.0222 0.0000e+00
      3.759      0.047     7.9334     88.614     27.091  24.805746     1.4482      6.965   315.9648 5.9639e+01     0.8153      3.686      5.347    20.9603   998.0339 0.0000e+00
      3.772      0.047     7.9262     88.458     27.121  24.809732     1.4807      6.965   316.2173 5.9443e+01     0.7623      3.699      5.365    20.9131   998.0442 0.0000e+00
      3.784      0.047     7.9281     88.407     27.164  24.826816     1.4892      6.965   316.3671 5.9302e+01     0.7369      3.711      5.382    20.8674   998.0541 0.0000e+00
      3.796      0.048     7.9399     88.471     27.181  24.821966     1.4984      6.965   316.4000 5.9123e+01     0.6728      3.723      5.399    20.8222   998.0639 0.0000e+00
      3.807      0.050     7.9587     88.615     27.196  24.814503     1.5049      6.966   316.4421 5.8930e+01     0.6420      3.734      5.415    20.7774   998.0735 0.0000e+00
      3.819      0.052     7.9798     88.778     27.205  24.799994     1.5072      6.966   316.5320 5.8787e+01     0.6928      3.744      5.430    20.7331   998.0831 0.0000e+00
      3.833      0.055     7.9976     88.900     27.202  24.773375     1.5094      6.965   316.7126 5.8635e+01     0.7628      3.758      5.451    20.6915   998.0920 0.0000e+00
      3.848      0.058     8.0107     88.969     27.198  24.746368     1.5139      6.964   316.9047 5.8444e+01     0.7664      3.773      5.473    20.6542   998.1000 0.0000e+00
      3.864      0.059     8.0211     89.009     27.202  24.727173     1.5272      6.962   316.9620 5.8226e+01     0.7370      3.788      5.495    20.6175   998.1079 0.0000e+00
      3.880      0.057     8.0288     89.029     27.229  24.731560     1.5400      6.960   316.9760 5.7986e+01     0.7018      3.805      5.518    20.5767   998.1167 0.0000e+00
      3.896      0.054     8.0331     89.024     27.252  24.735945     1.5560      6.960   316.9872 5.7760e+01     0.7012      3.821      5.542    20.5327   998.1261 0.0000e+00
      3.911      0.049     8.0318     88.971     27.244  24.716731     1.5903      6.960   317.0119 5.7565e+01     0.7955      3.836      5.564    20.4874   998.1357 0.0000e+00
      3.923      0.047     8.0245     88.859     27.225  24.689546     1.6158      6.960   317.1028 5.7401e+01     0.8910      3.849      5.582    20.4446   998.1448 0.0000e+00
      3.931      0.047     8.0143     88.710     27.206  24.660980     1.6132      6.958   317.2250 5.7239e+01     0.9061      3.855      5.592    20.4053   998.1532 0.0000e+00
      3.938      0.051     8.0048     88.544     27.187  24.625067     1.6112      6.956   317.3714 5.7064e+01     0.9124      3.861      5.601    20.3744   998.1597 0.0000e+00
      3.948      0.058     7.9974     88.363     27.163  24.572473     1.6260      6.955   317.5814 5.6884e+01     0.9348      3.870      5.612    20.3554   998.1637 0.0000e+00
      3.964      0.068     7.9908     88.167     27.162  24.532509     1.6623      6.952   317.8724 5.6646e+01     0.9470      3.883      5.633    20.3383   998.1673 0.0000e+00
      3.986      0.077     7.9862     87.988     27.195  24.522429     1.7028      6.949   318.2216 5.6348e+01     0.9616      3.909      5.669    20.3225   998.1708 0.0000e+00
      4.011      0.083     7.9885     87.889     27.228  24.513979     1.7183      6.948   318.4487 5.5989e+01     0.9811      3.934      5.707    20.2927   998.1772 0.0000e+00
      4.034      0.083     8.0006     87.902     27.247  24.493723     1.7280      6.947   318.4675 5.5539e+01     0.9851      3.956      5.738    20.2316   998.1900 0.0000e+00
      4.058      0.078     8.0194     88.000     27.256  24.467775     1.7766      6.947   318.6200 5.5140e+01     0.9775      3.979      5.771    20.1550   998.2060 0.0000e+00
      4.081      0.071     8.0454     88.198     27.271  24.453937     1.8546      6.948   318.9168 5.4904e+01     0.9543      4.004      5.806    20.0811   998.2214 0.0000e+00
      4.097      0.065     8.0817     88.521     27.296  24.453239     1.9086      6.949   319.1298 5.4764e+01     0.9338      4.021      5.833    20.0115   998.2359 0.0000e+00
      4.107      0.060     8.1237     88.919     27.324  24.459303     1.9261      6.948   319.2172 5.4623e+01     0.9601      4.027      5.842    19.9406   998.2506 0.0000e+00
      4.116      0.055     8.1629     89.324     27.337  24.463790     1.9271      6.948   319.1992 5.4430e+01     0.9769      4.034      5.851    19.8747   998.2642 0.0000e+00
      4.131      0.051     8.1964     89.697     27.313  24.444057     1.9297      6.948   319.2565 5.4218e+01     0.9732      4.050      5.873    19.8289   998.2736 0.0000e+00
      4.148      0.050     8.2242     89.997     27.278  24.411021     1.9229      6.949   319.3072 5.4052e+01     0.9817      4.069      5.902    19.7886   998.2819 0.0000e+00
      4.163      0.052     8.2437     90.186     27.253  24.381516     1.9062      6.950   319.2967 5.3954e+01     0.9810      4.086      5.926    19.7428   998.2914 0.0000e+00
      4.173      0.055     8.2544     90.254     27.224  24.341056     1.8924      6.950   319.3872 5.3888e+01     0.9641      4.094      5.938    19.7318   998.2937 0.0000e+00
      4.182      0.057     8.2592     90.211     27.213  24.302401     1.8771      6.950   319.4549 5.3751e+01     0.9412      4.098      5.944    19.7497   998.2900 0.0000e+00
      4.195      0.058     8.2578     90.082     27.243  24.294719     1.8691      6.951   319.4279 5.3482e+01     0.9333      4.111      5.962    19.7448   998.2911 0.0000e+00
      4.215      0.060     8.2518     89.921     27.294  24.311558     1.8640      6.951   319.4049 5.3180e+01     0.9345      4.134      5.994    19.7289   998.2944 0.0000e+00
      4.236      0.061     8.2462     89.779     27.327  24.315659     1.8591      6.950   319.4340 5.2965e+01     0.9557      4.155      6.026    19.7140   998.2975 0.0000e+00
      4.253      0.060     8.2424     89.661     27.313  24.280841     1.8618      6.950   319.5217 5.2800e+01     0.9598      4.172      6.052    19.6527   998.3100 0.0000e+00
      4.266      0.056     8.2426     89.565     27.264  24.207716     1.8620      6.951   319.6052 5.2663e+01     0.9184      4.184      6.069    19.5758   998.3256 0.0000e+00
      4.278      0.051     8.2491     89.468     27.233  24.129253     1.8618      6.952   319.7548 5.2569e+01     0.9139      4.195      6.084    19.5321   998.3345 0.0000e+00
      4.290      0.046     8.2606     89.375     27.267  24.093285     1.8686      6.952   319.9545 5.2468e+01     0.9391      4.207      6.101    19.4826   998.3446 0.0000e+00
      4.301      0.042     8.2764     89.335     27.336  24.089910     1.8745      6.951   320.0415 5.2335e+01     0.8955      4.218      6.118    19.4450   998.3521 0.0000e+00
      4.312      0.038     8.2929     89.349     27.391  24.088371     1.8717      6.951   320.1171 5.2200e+01     0.7797      4.228      6.132    19.4100   998.3592 0.0000e+00
      4.322      0.036     8.3103     89.433     27.411  24.074611     1.8616      6.951   320.2665 5.2107e+01     0.6861      4.238      6.147    19.3072   998.3796 0.0000e+00
      4.331      0.035     8.3322     89.616     27.401  24.050371     1.8562      6.951   320.3850 5.2079e+01     0.6817      4.249      6.163    19.1708   998.4068 0.0000e+00
      4.338      0.036     8.3552     89.841     27.408  24.048999     1.8320      6.951   320.4315 5.2061e+01     0.7917      4.255      6.171    19.0499   998.4307 0.0000e+00
      4.343      0.040     8.3746     90.047     27.419  24.058005     1.7770      6.951   320.4846 5.1971e+01     0.9350      4.257      6.175    18.9535   998.4494 0.0000e+00
      4.353      0.045     8.3919     90.238     27.388  24.032400     1.7460      6.951   320.5976 5.1781e+01     0.9725      4.267      6.189    18.8983   998.4603 0.0000e+00
      4.366      0.050     8.4123     90.407     27.360  23.993155     1.7446      6.950   320.7645 5.1562e+01     0.9497      4.282      6.210    18.8779   998.4643 0.0000e+00
      4.381      0.055     8.4326     90.490     27.372  23.964072     1.7431      6.950   320.9545 5.1365e+01     0.8889      4.295      6.229    18.8643   998.4670 0.0000e+00
      4.398      0.059     8.4507     90.509     27.398  23.934443     1.7443      6.950   321.1741 5.1161e+01     0.7610      4.313      6.255    18.8609   998.4677 0.0000e+00
      4.415      0.061     8.4736     90.574     27.408  23.888574     1.7416      6.950   321.3544 5.0983e+01     0.6815      4.332      6.283    18.8827   998.4635 0.0000e+00
      4.430      0.063     8.4994     90.669     27.356  23.790006     1.7366      6.950   321.3275 5.0837e+01     0.6812      4.345      6.302    18.8634   998.4674 0.0000e+00
      4.444      0.065     8.5160     90.656     27.310  23.694105     1.7366      6.949   321.1936 5.0682e+01     0.7249      4.357      6.319    18.7755   998.4845 0.0000e+00
      4.459      0.065     8.5186     90.495     27.359  23.680462     1.7320      6.949   321.1971 5.0509e+01     0.7512      4.372      6.341    18.6718   998.5046 0.0000e+00
      4.478      0.064     8.5107     90.274     27.415  23.688406     1.7327      6.949   321.4556 5.0299e+01     0.7047      4.391      6.369    18.5741   998.5234 0.0000e+00
      4.498      0.063     8.5011     90.104     27.409  23.663234     1.7450      6.949   321.8249 5.0110e+01     0.6867      4.411      6.399    18.4799   998.5414 0.0000e+00
      4.515      0.060     8.5048     90.090     27.389  23.629818     1.7939      6.948   322.0486 4.9974e+01     0.7957      4.429      6.424    18.3780   998.5608 0.0000e+00
      4.529      0.056     8.5289     90.260     27.386  23.601525     1.8816      6.948   322.1811 4.9844e+01     0.9411      4.443      6.443    18.2624   998.5827 0.0000e+00
      4.541      0.051     8.5632     90.503     27.396  23.574842     1.9216      6.949   322.3944 4.9716e+01     0.9703      4.453      6.459    18.1777   998.5985 0.0000e+00
      4.552      0.047     8.5971     90.740     27.421  23.560875     1.9132      6.951   322.5633 4.9622e+01     0.9189      4.464      6.475    18.1604   998.6018 0.0000e+00
      4.564      0.045     8.6288     91.004     27.443  23.559475     1.9104      6.951   322.6746 4.9553e+01     0.8773      4.476      6.491    18.1428   998.6052 0.0000e+00
      4.576      0.044     8.6595     91.283     27.457  23.557885     1.8440      6.951   322.7934 4.9468e+01     0.8604      4.487      6.508    18.0930   998.6145 0.0000e+00
      4.588      0.043     8.6920     91.523     27.473  23.541638     1.7090      6.950   322.7952 4.9395e+01     0.8779      4.498      6.525    18.0260   998.6269 0.0000e+00
      4.599      0.041     8.7244     91.705     27.466  23.489859     1.6311      6.949   322.6967 4.9344e+01     0.8934      4.509      6.540    17.9428   998.6423 0.0000e+00
      4.609      0.041     8.7509     91.839     27.456  23.439233     1.6216      6.949   322.6351 4.9290e+01     0.9163      4.521      6.557    17.9089   998.6486 0.0000e+00
      4.618      0.042     8.7701     91.945     27.486  23.436921     1.6802      6.949   322.7380 4.9230e+01     0.9578      4.529      6.569    17.9141   998.6477 0.0000e+00
      4.627      0.043     8.7832     92.043     27.529  23.461866     1.7940      6.950   322.9084 4.9160e+01     0.9697      4.536      6.579    17.8545   998.6587 0.0000e+00
      4.637      0.044     8.7962     92.173     27.560  23.487105     1.8532      6.950   322.9741 4.9102e+01     0.9609      4.547      6.595    17.7510   998.6777 0.0000e+00
      4.650      0.044     8.8147     92.376     27.559  23.488352     1.8587      6.950   322.9299 4.9057e+01     0.9500      4.559      6.614    17.6704   998.6923 0.0000e+00
      4.663      0.044     8.8355     92.621     27.536  23.476939     1.8075      6.950   322.8904 4.9017e+01     0.9040      4.573      6.633    17.6194   998.7016 0.0000e+00
      4.676      0.040     8.8498     92.821     27.518  23.475993     1.6936      6.949   323.0127 4.9002e+01     0.8306      4.587      6.653    17.6013   998.7050 0.0000e+00
      4.687      0.034     8.8558     92.931     27.504  23.476936     1.6186      6.948   323.2907 4.9005e+01     0.7836      4.597      6.668    17.6061   998.7042 0.0000e+00
      4.696      0.029     8.8547     92.951     27.507  23.488351     1.6028      6.947   323.4974 4.9051e+01     0.7613      4.606      6.681    17.6076   998.7039 0.0000e+00
      4.702      0.024     8.8469     92.900     27.495  23.487163     1.6060      6.947   323.5331 4.9222e+01     0.7568      4.612      6.689    17.6185   998.7020 0.0000e+00
      4.704      0.023     8.8358     92.800     27.460  23.462588     1.6140      6.947   323.5513 4.9453e+01     0.7625      4.613      6.691    17.6539   998.6956 0.0000e+00
      4.705      0.023     8.8242     92.670     27.442  23.444949     1.6041      6.946   323.7181 4.9606e+01     0.7659      4.614      6.691    17.6804   998.6908 0.0000e+00
      4.710      0.027     8.8131     92.540     27.395  23.400753     1.5905      6.945   324.0005 4.9662e+01     0.7649      4.618      6.696    17.6896   998.6892 0.0000e+00
      4.719      0.037     8.8086     92.431     27.308  23.308796     1.5964      6.942   324.2982 4.9719e+01     0.8156      4.628      6.713    17.7093   998.6856 0.0000e+00
      4.729      0.048     8.8176     92.303     27.280  23.221133     1.6066      6.938   324.5638 4.9836e+01     0.9201      4.639      6.729    17.7249   998.6828 0.0000e+00
      4.739      0.057     8.8303     92.057     27.342  23.165360     1.6095      6.935   324.6321 4.9830e+01     0.9466      4.644      6.735    17.7120   998.6852 0.0000e+00
      4.757      0.060     8.8268     91.665     27.435  23.141762     1.6056      6.935   324.6077 4.9590e+01     0.9062      4.659      6.758    17.7054   998.6865 0.0000e+00
      4.782      0.060     8.7977     91.163     27.485  23.125980     1.6026      6.935   324.6982 4.9391e+01     0.8916      4.691      6.804    17.7087   998.6859 0.0000e+00
      4.803      0.058     8.7458     90.554     27.480  23.101321     1.5993      6.935   324.7797 4.9417e+01     0.8680      4.714      6.838    17.5991   998.7059 0.0000e+00
      4.814      0.054     8.6819     89.856     27.488  23.097311     1.5833      6.935   324.8191 4.9562e+01     0.7853      4.723      6.850    17.3485   998.7508 0.0000e+00
      4.821      0.047     8.6115     89.081     27.480  23.077489     1.5730      6.935   324.9171 4.9743e+01     0.7099      4.727      6.856    17.1344   998.7886 0.0000e+00
      4.830      0.041     8.5400     88.271     27.400  22.988505     1.5792      6.935   324.9312 4.9890e+01     0.7103      4.734      6.867    17.0407   998.8051 0.0000e+00
      4.842      0.037     8.4840     87.578     27.346  22.909425     1.6324      6.935   324.9034 4.9991e+01     0.7245      4.748      6.887    17.0256   998.8077 0.0000e+00
      4.853      0.036     8.4475     87.080     27.357  22.882463     1.7389      6.935   325.0970 5.0157e+01     0.7183      4.760      6.904    17.0144   998.8097 0.0000e+00
      4.862      0.038     8.4241     86.751     27.277  22.789326     1.8011      6.936   325.3792 5.0353e+01     0.7335      4.767      6.915    16.9862   998.8147 0.0000e+00
      4.870      0.042     8.4238     86.639     27.099  22.607871     1.7957      6.936   325.5627 5.0524e+01     0.7442      4.776      6.928    16.9597   998.8192 0.0000e+00
      4.877      0.047     8.4560     86.783     26.993  22.464509     1.7426      6.936   325.7668 5.0696e+01     0.7496      4.782      6.936    16.8878   998.8316 0.0000e+00
      4.887      0.054     8.5130     87.153     26.977  22.387904     1.6616      6.937   326.0408 5.0818e+01     0.7659      4.788      6.946    16.8015   998.8465 0.0000e+00
      4.903      0.062     8.5958     87.805     26.959  22.315857     1.6226      6.938   326.2934 5.0862e+01     0.7436      4.807      6.971    16.7743   998.8513 0.0000e+00
      4.923      0.070     8.7182     88.857     26.921  22.227615     1.6174      6.938   326.4120 5.0762e+01     0.7093      4.828      7.002    16.7335   998.8583 0.0000e+00
      4.943      0.077     8.8798     90.270     26.901  22.145487     1.5990      6.937   326.3570 5.0541e+01     0.7776      4.848      7.030    16.6109   998.8791 0.0000e+00
      4.963      0.082     9.0658     91.900     26.914  22.083913     1.5736      6.937   326.3158 5.0318e+01     0.9471      4.867      7.060    16.4809   998.9012 0.0000e+00
      4.985      0.084     9.2581     93.595     26.961  22.053893     1.5612      6.937   326.5165 5.0098e+01     1.0219      4.888      7.091    16.3843   998.9175 0.0000e+00
      5.008      0.084     9.4361     95.168     27.013  22.036148     1.5617      6.937   326.8907 4.9859e+01     0.9609      4.911      7.123    16.2889   998.9334 0.0000e+00
      5.031      0.083     9.5853     96.471     27.029  21.996135     1.5710      6.937   327.0543 4.9664e+01     0.9312      4.934      7.155    16.1634   998.9541 0.0000e+00
      5.052      0.082     9.7022     97.447     27.037  21.950609     1.5782      6.937   327.0322 4.9589e+01     0.9573      4.955      7.188    16.0204   998.9776 0.0000e+00
      5.072      0.079     9.7842     98.060     27.079  21.929636     1.5712      6.938   327.1394 4.9513e+01     0.9817      4.974      7.215    15.8906   998.9987 0.0000e+00
      5.091      0.076     9.8302     98.314     27.149  21.932769     1.5560      6.940   327.3185 4.9372e+01     0.9967      4.992      7.240    15.7784   999.0168 0.0000e+00
      5.111      0.073     9.8479     98.303     27.199  21.924997     1.5416      6.940   327.4768 4.9277e+01     0.9751      5.012      7.269    15.6849   999.0318 0.0000e+00
      5.130      0.070     9.8507     98.157     27.222  21.899032     1.5444      6.941   327.6769 4.9289e+01     0.9497      5.031      7.296    15.5930   999.0464 0.0000e+00
      5.147      0.068     9.8483     97.967     27.243  21.872491     1.5640      6.943   327.9315 4.9326e+01     0.9509      5.048      7.321    15.4884   999.0630 0.0000e+00
      5.163      0.065     9.8448     97.772     27.277  21.857756     1.5705      6.944   328.0597 4.9310e+01     0.9240      5.063      7.343    15.3866   999.0788 0.0000e+00
      5.179      0.063     9.8412     97.582     27.314  21.847672     1.5627      6.945   328.0220 4.9294e+01     0.9195      5.079      7.366    15.2987   999.0926 0.0000e+00
      5.195      0.063     9.8361     97.380     27.321  21.813948     1.5643      6.944   328.0781 4.9272e+01     0.9950      5.095      7.390    15.2186   999.1050 0.0000e+00
      5.210      0.065     9.8266     97.127     27.314  21.767095     1.5728      6.944   328.2226 4.9213e+01     1.0508      5.109      7.410    15.1393   999.1172 0.0000e+00
      5.225      0.067     9.8113     96.812     27.315  21.725125     1.5707      6.944   328.3917 4.9078e+01     1.0373      5.123      7.429    15.0619   999.1290 0.0000e+00
      5.242      0.068     9.7893     96.427     27.322  21.687003     1.5645      6.944   328.6601 4.8871e+01     0.9948      5.139      7.453    14.9906   999.1399 0.0000e+00
      5.262      0.068     9.7575     95.951     27.375  21.686670     1.6368      6.944   328.8008 4.8603e+01     0.9628      5.159      7.483    14.9203   999.1505 0.0000e+00
      5.282      0.067     9.7144     95.376     27.469  21.721046     1.7857      6.945   328.7160 4.8343e+01     0.9778      5.181      7.515    14.8453   999.1618 0.0000e+00
      5.301      0.064     9.6625     94.734     27.515  21.722035     1.8732      6.946   328.6672 4.8193e+01     0.9808      5.200      7.542    14.7659   999.1738 0.0000e+00
      5.316      0.061     9.6097     94.100     27.525  21.698590     1.8885      6.946   328.7275 4.8084e+01     0.9329      5.215      7.562    14.6849   999.1857 0.0000e+00
      5.329      0.057     9.5606     93.522     27.548  21.691243     1.9276      6.945   328.7562 4.7952e+01     0.9563      5.226      7.579    14.6041   999.1976 0.0000e+00
      5.341      0.054     9.5099     93.007     27.562  21.696595     1.9988      6.945   328.6699 4.7788e+01     1.1003      5.237      7.596    14.5317   999.2082 0.0000e+00
      5.355      0.053     9.4567     92.569     27.538  21.699862     2.0383      6.946   328.6307 4.7639e+01     1.1988      5.251      7.617    14.4666   999.2177 0.0000e+00
      5.369      0.053     9.4192     92.252     27.479  21.667355     2.0507      6.946   328.7991 4.7533e+01     1.1641      5.265      7.637    14.4133   999.2255 0.0000e+00
      5.383      0.054     9.4109     92.057     27.459  21.620715     2.1054      6.946   329.1566 4.7419e+01     1.1387      5.279      7.656    14.3540   999.2341 0.0000e+00
      5.395      0.056     9.4201     91.897     27.494  21.579885     2.1967      6.946   329.6837 4.7308e+01     1.1869      5.290      7.673    14.3272   999.2379 0.0000e+00
      5.408      0.057     9.4298     91.708     27.560  21.554167     2.2440      6.946   330.0958 4.7192e+01     1.2233      5.302      7.689    14.4030   999.2270 0.0000e+00
      5.424      0.058     9.4342     91.504     27.659  21.563377     2.2431      6.947   330.2682 4.7003e+01     1.2173      5.318      7.714    14.4616   999.2188 0.0000e+00
      5.441      0.060     9.4329     91.295     27.730  21.564305     2.2292      6.948   330.3910 4.6792e+01     1.1813      5.337      7.741    14.3927   999.2287 0.0000e+00
      5.457      0.060     9.4297     91.107     27.787  21.565328     2.1630      6.947   330.4623 4.6640e+01     1.1477      5.353      7.763    14.2438   999.2500 0.0000e+00
      5.471      0.060     9.4297     90.970     27.849  21.575700     2.0499      6.947   330.5269 4.6495e+01     1.1382      5.366      7.782    14.0915   999.2715 0.0000e+00
      5.486      0.060     9.4302     90.850     27.877  21.562823     1.9894      6.947   330.7427 4.6350e+01     1.1317      5.380      7.803    13.9677   999.2890 0.0000e+00
      5.501      0.059     9.4306     90.732     27.887  21.536442     1.9851      6.947   331.0928 4.6183e+01     1.1350      5.395      7.824    13.8722   999.3022 0.0000e+00
      5.516      0.059     9.4353     90.661     27.895  21.510399     1.9547      6.947   331.3182 4.5991e+01     1.2442      5.409      7.845    13.7979   999.3124 0.0000e+00
      5.532      0.059     9.4415     90.610     27.924  21.501607     1.8996      6.947   331.3172 4.5816e+01     1.4362      5.425      7.868    13.7320   999.3215 0.0000e+00
      5.547      0.060     9.4442     90.531     27.951  21.493529     1.8741      6.946   331.3390 4.5604e+01     1.5228      5.441      7.892    13.6705   999.3299 0.0000e+00
      5.562      0.061     9.4443     90.431     27.965  21.476119     1.8716      6.946   331.4955 4.5416e+01     1.5043      5.454      7.912    13.6099   999.3381 0.0000e+00
      5.577      0.061     9.4435     90.323     28.009  21.481354     1.8264      6.946   331.6601 4.5243e+01     1.5075      5.468      7.930    13.5510   999.3460 0.0000e+00
      5.592      0.060     9.4431     90.223     28.059  21.493365     1.7432      6.947   331.7808 4.4973e+01     1.5618      5.484      7.953    13.4961   999.3534 0.0000e+00
      5.610      0.059     9.4448     90.151     28.093  21.494465     1.6902      6.947   331.8363 4.4662e+01     1.6036      5.502      7.980    13.4449   999.3603 0.0000e+00
      5.626      0.058     9.4496     90.114     28.124  21.494619     1.6701      6.946   331.9007 4.4402e+01     1.6194      5.520      8.006    13.3941   999.3670 0.0000e+00
      5.641      0.057     9.4615     90.146     28.154  21.495201     1.6480      6.945   331.9575 4.4182e+01     1.6548      5.532      8.024    13.3442   999.3737 0.0000e+00
      5.653      0.056     9.4775     90.213     28.194  21.501484     1.6222      6.944   331.8351 4.3930e+01     1.7042      5.544      8.040    13.2959   999.3801 0.0000e+00
      5.666      0.056     9.4834     90.176     28.235  21.507129     1.6177      6.944   331.7111 4.3632e+01     1.7257      5.556      8.058    13.2511   999.3860 0.0000e+00
      5.680      0.057     9.4810     90.058     28.261  21.500003     1.6287      6.944   331.8351 4.3319e+01     1.6852      5.569      8.077    13.2110   999.3912 0.0000e+00
      5.696      0.058     9.4771     89.931     28.266  21.478723     1.6337      6.944   332.1297 4.2970e+01     1.6407      5.584      8.100    13.1716   999.3963 0.0000e+00
      5.712      0.060     9.4592     89.680     28.246  21.440081     1.6789      6.944   332.3486 4.2602e+01     1.6467      5.601      8.124    13.1300   999.4018 0.0000e+00
      5.728      0.060     9.4262     89.294     28.237  21.413316     1.7669      6.944   332.4157 4.2238e+01     1.6586      5.617      8.146    13.0831   999.4079 0.0000e+00
      5.743      0.060     9.3875     88.859     28.257  21.408791     1.8132      6.943   332.4250 4.1877e+01     1.6537      5.632      8.169    13.0345   999.4141 0.0000e+00
      5.757      0.060     9.3440     88.374     28.254  21.385351     1.8052      6.943   332.3753 4.1546e+01     1.6531      5.646      8.189    12.9890   999.4200 0.0000e+00
      5.772      0.061     9.2998     87.874     28.199  21.320163     1.7483      6.942   332.2454 4.1195e+01     1.6840      5.660      8.208    12.9474   999.4253 0.0000e+00
      5.787      0.062     9.2622     87.430     28.146  21.254853     1.6630      6.941   332.1452 4.0741e+01     1.7654      5.675      8.230    12.9127   999.4297 0.0000e+00
      5.803      0.065     9.2311     87.046     28.148  21.229920     1.6232      6.940   332.2821 4.0265e+01     1.8503      5.691      8.254    12.8803   999.4339 0.0000e+00
      5.819      0.067     9.2063     86.722     28.155  21.208956     1.6146      6.940   332.6097 3.9821e+01     1.8918      5.707      8.277    12.8434   999.4385 0.0000e+00
      5.837      0.067     9.1895     86.476     28.165  21.191622     1.5679      6.940   332.8372 3.9367e+01     2.0039      5.724      8.302    12.8008   999.4439 0.0000e+00
      5.856      0.066     9.1811     86.315     28.222  21.210585     1.4916      6.940   332.8806 3.8901e+01     2.2230      5.742      8.329    12.7548   999.4496 0.0000e+00
      5.875      0.063     9.1828     86.262     28.298  21.247935     1.4466      6.939   332.8756 3.8443e+01     2.3455      5.761      8.356    12.7082   999.4555 0.0000e+00
      5.891      0.060     9.1976     86.366     28.331  21.262638     1.4397      6.939   332.7774 3.8066e+01     2.3378      5.778      8.380    12.6628   999.4611 0.0000e+00
      5.904      0.058     9.2336     86.712     28.327  21.261492     1.4945      6.939   332.5538 3.7731e+01     2.3598      5.790      8.398    12.6166   999.4668 0.0000e+00
      5.916      0.056     9.2995     87.333     28.374  21.297509     1.6065      6.938   332.4089 3.7340e+01     2.4472      5.801      8.414    12.5740   999.4722 0.0000e+00
      5.929      0.056     9.3957     88.185     28.505  21.380987     1.6760      6.938   332.4026 3.6920e+01     2.5096      5.815      8.434    12.5345   999.4770 0.0000e+00
      5.944      0.057     9.5131     89.191     28.628  21.446249     1.7020      6.937   332.3921 3.6490e+01     2.5248      5.829      8.454    12.5102   999.4800 0.0000e+00
      5.960      0.058     9.6329     90.216     28.673  21.452285     1.8682      6.936   332.3668 3.6054e+01     2.5973      5.844      8.476    12.5265   999.4780 0.0000e+00
      5.975      0.059     9.7385     91.137     28.700  21.453935     2.1683      6.936   332.4413 3.5638e+01     2.7309      5.861      8.500    12.5410   999.4764 0.0000e+00
      5.990      0.059     9.8210     91.875     28.730  21.466185     2.3306      6.935   332.6048 3.5242e+01     2.7639      5.875      8.520    12.5096   999.4803 0.0000e+00
      6.006      0.059     9.8724     92.315     28.755  21.473538     2.3479      6.935   332.7086 3.4885e+01     2.7340      5.890      8.543    12.4535   999.4872 0.0000e+00
      6.021      0.058     9.8860     92.365     28.791  21.479394     2.3690      6.935   332.6645 3.4570e+01     2.7632      5.904      8.564    12.3987   999.4938 0.0000e+00
      6.035      0.058     9.8624     92.051     28.818  21.473534     2.6206      6.934   332.6732 3.4236e+01     2.9852      5.919      8.584    12.3647   999.4979 0.0000e+00
      6.050      0.058     9.8089     91.465     28.840  21.466083     3.0926      6.933   332.7284 3.3906e+01     3.3870      5.933      8.606    12.3583   999.4988 0.0000e+00
      6.064      0.059     9.7362     90.718     28.848  21.452709     3.3500      6.932   332.6436 3.3656e+01     3.5901      5.946      8.625    12.3452   999.5003 0.0000e+00
      6.079      0.060     9.6569     89.928     28.848  21.438664     3.3663      6.931   332.5075 3.3471e+01     3.5724      5.961      8.646    12.3010   999.5056 0.0000e+00
      6.094      0.060     9.5806     89.173     28.845  21.423108     3.3684      6.930   332.3736 3.3299e+01     3.5988      5.976      8.667    12.2517   999.5115 0.0000e+00
      6.110      0.060     9.5167     88.525     28.823  21.391457     3.3844      6.929   332.3152 3.3120e+01     3.6804      5.992      8.690    12.2102   999.5165 0.0000e+00
      6.127      0.060     9.4717     88.046     28.822  21.373093     3.3949      6.927   332.3177 3.2919e+01     3.7075      6.009      8.715    12.1751   999.5207 0.0000e+00
      6.142      0.059     9.4462     87.757     28.867  21.391337     3.3914      6.926   332.3181 3.2704e+01     3.6641      6.024      8.737    12.1537   999.5232 0.0000e+00
      6.156      0.058     9.4386     87.657     28.919  21.421740     3.4449      6.926   332.4064 3.2510e+01     3.6801      6.036      8.756    12.1341   999.5256 0.0000e+00
      6.170      0.057     9.4486     87.735     28.928  21.423550     3.5652      6.926   332.5239 3.2300e+01     3.8018      6.050      8.775    12.1077   999.5287 0.0000e+00
      6.185      0.056     9.4791     87.985     28.926  21.413217     3.6413      6.926   332.6208 3.2050e+01     3.8904      6.065      8.797    12.0751   999.5324 0.0000e+00
      6.200      0.056     9.5257     88.354     28.966  21.423654     3.6633      6.926   332.7182 3.1812e+01     3.8990      6.081      8.819    12.0429   999.5362 0.0000e+00
      6.214      0.057     9.5744     88.720     28.997  21.422866     3.7785      6.924   332.7552 3.1567e+01     3.9386      6.094      8.839    12.0307   999.5377 0.0000e+00
      6.227      0.058     9.6108     88.969     29.004  21.403666     3.9937      6.923   332.8096 3.1249e+01     4.0418      6.107      8.857    12.0310   999.5378 0.0000e+00
      6.241      0.059     9.6259     89.034     29.004  21.381756     4.1149      6.923   333.1172 3.0874e+01     4.1307      6.121      8.877    12.0181   999.5392 0.0000e+00
      6.256      0.060     9.6143     88.862     28.984  21.348202     4.1343      6.922   333.5493 3.0474e+01     4.1937      6.135      8.898    11.9823   999.5434 0.0000e+00
      6.272      0.062     9.5722     88.411     28.964  21.315085     4.2194      6.920   333.8180 3.0063e+01     4.5097      6.151      8.921    11.9361   999.5488 0.0000e+00
      6.290      0.062     9.5001     87.684     28.965  21.298456     4.3815      6.919   333.9579 2.9629e+01     5.0995      6.168      8.947    11.8918   999.5538 0.0000e+00
      6.307      0.062     9.4006     86.717     28.951  21.273976     4.4724      6.918   334.1216 2.9185e+01     5.4589      6.186      8.972    11.8535   999.5583 0.0000e+00
      6.322      0.061     9.2838     85.607     28.876  21.209371     4.4775      6.918   334.3342 2.8764e+01     5.5123      6.200      8.993    11.8241   999.5616 0.0000e+00
      6.337      0.060     9.1663     84.483     28.814  21.151577     4.4864      6.917   334.4635 2.8363e+01     5.4829      6.215      9.013    11.7948   999.5650 0.0000e+00
      6.352      0.059     9.0591     83.432     28.833  21.146012     4.5800      6.917   334.4805 2.7997e+01     5.4967      6.229      9.035    11.7597   999.5689 0.0000e+00
      6.366      0.059     8.9679     82.515     28.859  21.142058     4.7429      6.917   334.5405 2.7655e+01     5.6137      6.243      9.055    11.7345   999.5718 0.0000e+00
      6.381      0.059     8.8997     81.812     28.838  21.103751     4.8256      6.917   334.6721 2.7288e+01     5.6851      6.258      9.076    11.7239   999.5730 0.0000e+00
      6.397      0.059     8.8579     81.372     28.807  21.063369     4.8343      6.917   334.6951 2.6908e+01     5.7050      6.273      9.098    11.7066   999.5749 0.0000e+00
      6.412      0.060     8.8403     81.185     28.777  21.034348     4.9514      6.915   334.5611 2.6550e+01     5.9852      6.288      9.119    11.6704   999.5790 0.0000e+00
      6.427      0.061     8.8440     81.205     28.746  21.006556     5.1754      6.915   334.4277 2.6226e+01     6.5172      6.302      9.140    11.6269   999.5839 0.0000e+00
      6.443      0.061     8.8671     81.378     28.727  20.981044     5.2970      6.914   334.4596 2.5902e+01     6.8280      6.318      9.163    11.5838   999.5887 0.0000e+00
      6.459      0.060     8.9071     81.673     28.755  20.979568     5.3388      6.912   334.5162 2.5537e+01     6.8925      6.334      9.185    11.5493   999.5925 0.0000e+00
      6.475      0.060     8.9623     82.089     28.805  20.988693     5.7668      6.912   334.5094 2.5188e+01     7.0662      6.349      9.208    11.5406   999.5934 0.0000e+00
      6.490      0.060     9.0296     82.629     28.805  20.964479     6.5542      6.911   334.6360 2.4888e+01     7.3547      6.364      9.230    11.5424   999.5933 0.0000e+00
      6.504      0.059     9.1060     83.289     28.788  20.940483     6.9956      6.911   334.8424 2.4578e+01     7.5301      6.379      9.251    11.5232   999.5955 0.0000e+00
      6.519      0.058     9.1885     84.039     28.805  20.952244     7.1581      6.911   334.9398 2.4235e+01     7.5807      6.393      9.271    11.4800   999.6002 0.0000e+00
      6.534      0.056     9.2726     84.809     28.843  20.979826     8.3975      6.911   334.8672 2.3898e+01     7.7373      6.408      9.293    11.4270   999.6059 0.0000e+00
      6.549      0.056     9.3566     85.550     28.910  21.020274    10.6585      6.911   334.7391 2.3603e+01     8.0144      6.423      9.315    11.3792   999.6111 0.0000e+00
      6.563      0.055     9.4355     86.203     28.992  21.060734    11.9095      6.910   334.7674 2.3355e+01     8.1783      6.436      9.335    11.3600   999.6131 0.0000e+00
      6.576      0.054     9.4946     86.655     29.066  21.088445    12.0628      6.910   334.9518 2.3101e+01     8.2448      6.449      9.353    11.3654   999.6126 0.0000e+00
      6.589      0.051     9.5203     86.813     29.115  21.101600    12.3991      6.910   335.1614 2.2808e+01     8.3590      6.462      9.371    11.3719   999.6120 0.0000e+00
      6.603      0.049     9.5024     86.598     29.124  21.092905    13.0016      6.909   335.2369 2.2498e+01     8.5105      6.475      9.391    11.3609   999.6133 0.0000e+00
      6.617      0.049     9.4355     85.946     29.165  21.110154    13.3313      6.907   335.1761 2.2229e+01     8.6024      6.489      9.412    11.3218   999.6175 0.0000e+00
      6.628      0.050     9.3233     84.870     29.289  21.183290    13.3594      6.905   335.2004 2.2032e+01     8.6504      6.501      9.429    11.2709   999.6230 0.0000e+00
      6.638      0.050     9.1670     83.371     29.454  21.279478    13.3241      6.905   335.2730 2.1818e+01     8.6982      6.509      9.440    11.2297   999.6274 0.0000e+00
      6.650      0.050     8.9631     81.433     29.637  21.385161    12.8960      6.905   335.2792 2.1518e+01     8.7864      6.520      9.457    11.2075   999.6297 0.0000e+00
      6.665      0.051     8.7124     79.080     29.844  21.509659    12.1191      6.905   335.3619 2.1162e+01     8.9635      6.536      9.480    11.1911   999.6315 0.0000e+00
      6.680      0.053     8.4071     76.242     30.061  21.643055    11.6996      6.904   335.5849 2.0835e+01     9.1023      6.551      9.501    11.1653   999.6343 0.0000e+00
      6.693      0.055     8.0340     72.795     30.212  21.729464    11.6299      6.903   335.7383 2.0570e+01     9.1542      6.563      9.520    11.1223   999.6388 0.0000e+00
      6.705      0.056     7.5802     68.633     30.239  21.729832    11.2064      6.903   335.7540 2.0279e+01     9.1977      6.575      9.536    11.0737   999.6439 0.0000e+00
      6.719      0.056     7.0247     63.584     30.222  21.710908    10.4286      6.902   335.7742 1.9930e+01     9.2668      6.589      9.556    11.0333   999.6482 0.0000e+00
      6.735      0.055     6.3498     57.485     30.277  21.754367    10.0113      6.901   335.8962 1.9581e+01     9.3345      6.605      9.580    10.9969   999.6520 0.0000e+00
      6.751      0.053     5.5424     50.177     30.357  21.811304    10.0185      6.900   336.1112 1.9283e+01     9.3620      6.622      9.604    10.9584   999.6560 0.0000e+00
      6.766      0.052     4.6064     41.681     30.404  21.828478    10.4549      6.900   336.3086 1.9045e+01     9.4017      6.636      9.625    10.9188   999.6601 0.0000e+00
      6.777      0.050     3.5825     32.385     30.454  21.835139    11.2651      6.899   336.4769 1.8848e+01     9.4868      6.646      9.640    10.9062   999.6613 0.0000e+00
      6.787      0.049     2.5594     23.110     30.488  21.828382    11.7256      6.897   336.6827 1.8686e+01     9.5389      6.656      9.654    10.9279   999.6593 0.0000e+00
      6.798      0.050     1.6384     14.778     30.503  21.810176    11.8704      6.896   336.9047 1.8526e+01     9.5407      6.668      9.669    10.9343   999.6587 0.0000e+00
      6.811      0.051     0.8646      7.792     30.530  21.805264    12.8428      6.895   337.0956 1.8341e+01     9.5407      6.679      9.687    10.9009   999.6621 0.0000e+00
      6.824      0.053     0.2438      2.197     30.597  21.832384    14.6042      6.894   337.2703 1.8126e+01     9.5390      6.692      9.706    10.8485   999.6674 0.0000e+00
      6.839      0.055    -0.2204     -1.981     30.697  21.884353    15.5764      6.892   337.4681 1.7887e+01     9.5523      6.707      9.728    10.7936   999.6728 0.0000e+00
      6.855      0.055    -0.5313     -4.775     30.780  21.926166    15.6848      6.891   337.7656 1.7633e+01     9.6028      6.722      9.750    10.7453   999.6777 0.0000e+00
      6.870      0.054    -0.7104     -6.381     30.845  21.957347    15.7753      6.890   338.2005 1.7378e+01     9.6262      6.737      9.771    10.7069   999.6816 0.0000e+00
      6.884      0.052    -0.8025     -7.205     30.933  22.007627    16.6802      6.889   338.5104 1.7114e+01     9.7368      6.750      9.791    10.6735   999.6849 0.0000e+00
      6.897      0.048    -0.8474     -7.606     31.063  22.090084    18.3462      6.888   338.5019 1.6847e+01    10.0549      6.763      9.809    10.6429   999.6879 0.0000e+00
      6.909      0.045    -0.8522     -7.647     31.311  22.256591    19.2461      6.886   338.3553 1.6626e+01    10.2943      6.776      9.828    10.6147   999.6907 0.0000e+00
      6.919      0.042    -0.8148     -7.309     31.846  22.625386    19.2374      6.884   338.2013 1.6448e+01    10.3047      6.786      9.843    10.5884   999.6933 0.0000e+00
      6.928      0.039    -0.7417     -6.649     32.476  23.060431    18.2677      6.883   338.1014 1.6262e+01    10.1797      6.794      9.854    10.5679   999.6954 0.0000e+00
      6.938      0.036    -0.6427     -5.759     32.786  23.266758    16.4682      6.883   338.0946 1.6061e+01    10.0278      6.804      9.868    10.5539   999.6968 0.0000e+00
      6.948      0.033    -0.5323     -4.769     32.733  23.217081    15.4792      6.881   338.2909 1.5861e+01     9.9766      6.814      9.882    10.5405   999.6981 0.0000e+00
      6.957      0.029    -0.4238     -3.795     32.479  23.030675    15.3871      6.879   338.6675 1.5671e+01     9.9863      6.822      9.895    10.5223   999.7001 0.0000e+00
      6.965      0.024    -0.3203     -2.868     32.125  22.789045    15.3285      6.878   338.9486 1.5533e+01     9.8506      6.831      9.907    10.5018   999.7024 0.0000e+00
      6.971      0.019    -0.2252     -2.018     31.795  22.579122    15.2207      6.877   339.1094 1.5481e+01     9.5155      6.837      9.917    10.4806   999.7046 0.0000e+00
      6.974      0.014    -0.1481     -1.328     31.678  22.522346    15.1504      6.876   339.3200 1.5476e+01     9.2776      6.839      9.920    10.4593   999.7065 0.0000e+00
      6.975      0.012    -0.0894     -0.803     31.866  22.673472    15.1205      6.875   339.5166 1.5501e+01     9.2677      6.840      9.920    10.4445   999.7078 0.0000e+00
      6.975      0.014    -0.0404     -0.363     32.414  23.074334    14.9019      6.874   339.5936 1.5526e+01     9.2981      6.840      9.920    10.4550   999.7067 0.0000e+00
      6.976      0.020     0.0069      0.062     33.283  23.690072    14.5016      6.872   339.7349 1.5473e+01     9.2846      6.840      9.920    10.5038   999.7019 0.0000e+00
      6.979      0.030     0.0611      0.548     34.153  24.282408    14.2952      6.872   339.9342 1.5281e+01     9.3011      6.842      9.924    10.5545   999.6971 0.0000e+00
      6.987      0.040     0.1277      1.144     35.001  24.844215    14.3388      6.870   340.0249 1.4900e+01     9.3989      6.850      9.935    10.5738   999.6953 0.0000e+00
      7.001      0.049     0.2027      1.814     35.937  25.471231    15.0811      6.868   340.1435 1.4348e+01    10.1065      6.865      9.956    10.5950   999.6935 0.0000e+00
      7.020      0.056     0.2783      2.488     36.591  25.900276    16.4645      6.866   340.3358 1.3786e+01    11.3682      6.885      9.985    10.6059   999.6930 0.0000e+00
      7.038      0.061     0.3444      3.076     37.186  26.288773    17.2190      6.865   340.4564 1.3346e+01    12.0358      6.904     10.013    10.5541   999.6983 0.0000e+00
      7.054      0.062     0.3901      3.482     38.228  26.996323    17.2856      6.863   340.4829 1.2963e+01    12.0837      6.918     10.033    10.4834   999.7053 0.0000e+00
      7.068      0.061     0.4101      3.657     39.305  27.730094    17.2698      6.860   340.4849 1.2560e+01    12.1116      6.931     10.053    10.4361   999.7102 0.0000e+00
      7.083      0.060     0.4032      3.593     40.166  28.308594    16.9585      6.857   340.4800 1.2150e+01    12.4708      6.946     10.075    10.3898   999.7149 0.0000e+00
      7.098      0.060     0.3729      3.320     40.703  28.661235    16.3740      6.854   340.3378 1.1723e+01    13.1489      6.961     10.097    10.3420   999.7193 0.0000e+00
      7.114      0.061     0.3290      2.927     41.042  28.884818    16.0470      6.851   339.8836 1.1276e+01    13.5265      6.976     10.119    10.3068   999.7232 0.0000e+00
      7.129      0.061     0.2835      2.522     41.640  29.298708    15.9602      6.849   339.1186 1.0839e+01    13.5632      6.992     10.140    10.2745   999.7266 0.0000e+00
      7.145      0.060     0.2431      2.162     42.275  29.731534    15.3597      6.846   338.3159 1.0414e+01    13.4287      7.007     10.163    10.2370   999.7303 0.0000e+00
      7.162      0.057     0.2108      1.874     42.686  29.993669    14.2659      6.842   337.6629 9.9831e+00    13.1132      7.024     10.187    10.1987   999.7342 0.0000e+00
      7.177      0.053     0.1874      1.664     43.000  30.183783    13.6673      6.838   336.9879 9.5962e+00    12.8941      7.039     10.210    10.1814   999.7358 0.0000e+00
      7.191      0.049     0.1715      1.522     43.498  30.507239    13.6016      6.834   336.1776 9.3011e+00    12.8773      7.053     10.230    10.1842   999.7359 0.0000e+00
      7.201      0.046     0.1630      1.445     44.307  31.049012    13.4632      6.831   335.4377 9.0690e+00    13.0410      7.063     10.244    10.1697   999.7375 0.0000e+00
      7.210      0.043     0.1605      1.422     45.215  31.657719    13.2161      6.826   334.7530 8.8268e+00    13.3009      7.071     10.256    10.1312   999.7411 0.0000e+00
      7.220      0.041     0.1586      1.405     46.052  32.219219    13.0847      6.821   333.4909 8.5320e+00    13.4311      7.079     10.269    10.0915   999.7447 0.0000e+00
      7.231      0.041     0.1561      1.382     46.852  32.761199    13.0627      6.817   330.9330 8.2146e+00    13.4355      7.090     10.284    10.0652   999.7473 0.0000e+00
      7.242      0.042     0.1571      1.390     47.497  33.197199    12.9936      6.813   327.3150 7.9096e+00    13.3530      7.102     10.302    10.0390   999.7500 0.0000e+00
      7.253      0.043     0.1603      1.417     47.766  33.365714    12.8902      6.809   323.7310 7.6197e+00    13.2202      7.113     10.316    10.0046   999.7535 0.0000e+00
      7.263      0.043     0.1643      1.452     47.762  33.339007    12.8362      6.804   320.8099 7.3371e+00    13.1742      7.123     10.331     9.9743   999.7565 0.0000e+00
      7.274      0.043     0.1684      1.487     47.668  33.255046    12.8084      6.799   318.4103 7.0368e+00    13.1565      7.132     10.345     9.9582   999.7581 0.0000e+00
      7.285      0.044     0.1710      1.510     47.654  33.239031    12.5544      6.793   316.3998 6.7200e+00    13.0066      7.144     10.361     9.9475   999.7594 0.0000e+00
      7.297      0.047     0.1740      1.537     47.884  33.399231    12.0974      6.787   314.7414 6.4119e+00    12.8031      7.156     10.380     9.9271   999.7613 0.0000e+00
      7.309      0.049     0.1756      1.552     48.364  33.732303    11.8601      6.782   313.3293 6.1109e+00    12.7288      7.167     10.396     9.8961   999.7640 0.0000e+00
      7.321      0.051     0.1741      1.538     48.996  34.156356    11.8361      6.776   312.1467 5.8025e+00    12.7306      7.178     10.411     9.8737   999.7659 0.0000e+00
      7.335      0.052     0.1717      1.515     49.672  34.591455    11.7291      6.770   311.0253 5.4755e+00    12.6940      7.192     10.431     9.8711   999.7663 0.0000e+00
      7.350      0.053     0.1677      1.478     50.311  34.994512    10.6533      6.764   309.9227 5.1541e+00    12.1218      7.208     10.454     9.8731   999.7662 0.0000e+00
      7.364      0.053     0.1638      1.443     50.871  35.348403     8.6943      6.759   308.9679 4.8795e+00    11.0553      7.222     10.474     9.8766   999.7661 0.0000e+00
      7.376      0.053     0.1635      1.438     51.324  35.633273     7.6200      6.753   308.0844 4.6420e+00    10.5158      7.234     10.491     9.8634   999.7676 0.0000e+00
      7.389      0.052     0.1638      1.440     51.654  35.836489     7.4870      6.747   307.2414 4.4123e+00    10.4827      7.246     10.509     9.8188   999.7717 0.0000e+00
      7.403      0.052     0.1638      1.440     52.049  36.091686     7.1815      6.742   306.4335 4.1933e+00    10.2289      7.260     10.529     9.7732   999.7759 0.0000e+00
      7.417      0.052     0.1642      1.444     52.558  36.433765     6.6410      6.736   305.6293 4.0080e+00     9.7734      7.275     10.549     9.7389   999.7790 0.0000e+00
      7.429      0.052     0.1632      1.434     52.907  36.671861     6.3350      6.730   304.8314 3.8538e+00     9.5301      7.286     10.567     9.7100   999.7817 0.0000e+00
      7.442      0.051     0.1608      1.413     53.293  36.939299     6.2988      6.725   303.7564 3.6933e+00     9.5156      7.297     10.583     9.6851   999.7839 0.0000e+00
      7.455      0.050     0.1578      1.386     53.944  37.382182     6.2732      6.720   301.5790 3.5358e+00     9.3701      7.311     10.604     9.6660   999.7857 0.0000e+00
      7.468      0.048     0.1525      1.339     54.636  37.837218     6.2256      6.715   297.4332 3.4011e+00     9.0487      7.324     10.624     9.6563   999.7869 0.0000e+00
      7.481      0.048     0.1469      1.289     55.551  38.441944     6.1903      6.709   291.6596 3.2679e+00     8.8733      7.335     10.639     9.6520   999.7874 0.0000e+00
      7.493      0.049     0.1439      1.262     57.009  39.424945     6.1409      6.703   285.7173 3.1466e+00     8.8224      7.349     10.659     9.6575   999.7870 0.0000e+00
      7.504      0.052     0.1415      1.241     58.722  40.580984     5.7584      6.697   280.5644 3.0352e+00     8.4994      7.360     10.674     9.6547   999.7877 0.0000e+00
      7.514      0.057     0.1409      1.235     60.006  41.436407     5.0688      6.692   276.1614 2.8950e+00     7.9169      7.366     10.684     9.6248   999.7904 0.0000e+00
      7.527      0.060     0.1430      1.252     60.443  41.704720     4.6869      6.686   272.1459 2.7101e+00     7.5476      7.378     10.701     9.5962   999.7930 0.0000e+00
      7.547      0.060     0.1446      1.266     60.061  41.412475     4.6258      6.681   268.1494 2.4993e+00     7.4752      7.400     10.733     9.5770   999.7952 0.0000e+00
      7.569      0.056     0.1456      1.274     59.415  40.950408     4.3735      6.677   263.8044 2.3232e+00     7.5011      7.425     10.769     9.5529   999.7981 0.0000e+00
      7.587      0.051     0.1444      1.263     59.404  40.943118     3.9172      6.672   259.0167 2.2228e+00     7.5327      7.443     10.795     9.5253   999.8009 0.0000e+00
      7.598      0.044     0.1409      1.233     60.042  41.387819     3.6607      6.667   253.8835 2.1753e+00     7.4966      7.453     10.809     9.4956   999.8035 0.0000e+00
      7.604      0.038     0.1383      1.210     60.858  41.946471     3.6296      6.661   248.6309 2.1573e+00     7.4579      7.457     10.816     9.4691   999.8055 0.0000e+00
      7.608      0.035     0.1370      1.198     61.849  42.618417     3.6104      6.655   243.8621 2.1269e+00     7.4255      7.459     10.818     9.4528   999.8063 0.0000e+00
      7.613      0.037     0.1342      1.173     62.755  43.226388     3.3934      6.650   240.0180 2.0590e+00     7.2028      7.465     10.826     9.4569   999.8061 0.0000e+00
      7.623      0.042     0.1315      1.149     63.491  43.709853     2.9833      6.645   236.9125 1.9893e+00     6.8301      7.475     10.841     9.4685   999.8056 0.0000e+00
      7.636      0.047     0.1317      1.150     64.256  44.209612     2.7442      6.639   234.1908 1.8952e+00     6.5901      7.487     10.859     9.4623   999.8063 0.0000e+00
      7.653      0.050     0.1315      1.148     64.807  44.570014     2.6962      6.633   231.5449 1.7742e+00     6.4627      7.505     10.885     9.4513   999.8077 0.0000e+00
      7.669      0.051     0.1313      1.145     65.288  44.892457     2.5414      6.628   228.8401 1.6839e+00     6.1751      7.520     10.909     9.4414   999.8089 0.0000e+00
      7.682      0.051     0.1324      1.155     66.274  45.568175     2.2686      6.622   226.1800 1.6334e+00     5.7346      7.534     10.927     9.4203   999.8109 0.0000e+00
      7.693      0.051     0.1311      1.144     67.753  46.580250     2.1289      6.616   223.7318 1.6006e+00     5.4964      7.545     10.943     9.3968   999.8132 0.0000e+00
      7.702      0.051     0.1287      1.123     69.720  47.921105     2.1176      6.611   221.6098 1.5446e+00     5.4246      7.552     10.954     9.3815   999.8146 0.0000e+00
      7.714      0.053     0.1275      1.113     72.255  49.649958     2.0630      6.605   219.6238 1.4716e+00     5.0302      7.562     10.968     9.3762   999.8151 0.0000e+00
      7.730      0.056     0.1253      1.093     74.468  51.160503     1.9719      6.599   217.6148 1.4136e+00     4.3982      7.580     10.994     9.3769   999.8155 0.0000e+00
      7.746      0.060     0.1228      1.071     75.361  51.766420     1.9254      6.592   215.7314 1.3503e+00     4.1084      7.597     11.018     9.3749   999.8163 0.0000e+00
      7.761      0.062     0.1223      1.066     75.377  51.767346     1.9346      6.585   214.0592 1.2772e+00     4.1150      7.611     11.039     9.3655   999.8177 0.0000e+00
      7.777      0.063     0.1211      1.056     75.551  51.870447     2.0226      6.577   212.5398 1.2110e+00     4.1172      7.627     11.062     9.3541   999.8198 0.0000e+00
      7.794      0.062     0.1195      1.042     75.671  51.933106     2.1657      6.570   211.0404 1.1531e+00     4.1037      7.644     11.087     9.3471   999.8215 0.0000e+00
      7.811      0.060     0.1182      1.031     75.451  51.762650     2.2340      6.564   209.3524 1.0991e+00     4.0818      7.660     11.110     9.3442   999.8220 0.0000e+00
      7.826      0.060     0.1157      1.008     75.226  51.588112     2.2333      6.557   207.4448 1.0467e+00     4.0819      7.675     11.132     9.3385   999.8222 0.0000e+00
      7.840      0.060     0.1146      0.998     74.814  51.283799     2.1743      6.550   205.5283 1.0140e+00     4.1040      7.689     11.152     9.3263   999.8234 0.0000e+00
      7.854      0.061     0.1152      1.003     74.630  51.132230     2.0584      6.542   203.5604 9.9544e-01     4.1197      7.701     11.171     9.3124   999.8247 0.0000e+00
      7.869      0.064     0.1161      1.010     74.980  51.343485     1.9940      6.534   201.3754 9.6564e-01     4.1089      7.716     11.192     9.2998   999.8255 0.0000e+00
      7.886      0.068     0.1177      1.023     75.137  51.424224     1.9850      6.526   199.0700 9.2524e-01     4.0723      7.733     11.215     9.2867   999.8267 0.0000e+00
      7.904      0.072     0.1182      1.028     75.059  51.346191     1.9500      6.520   196.8520 8.7219e-01     3.9392      7.751     11.242     9.2726   999.8277 0.0000e+00
      7.924      0.076     0.1172      1.019     74.919  51.225770     1.8914      6.515   194.8629 8.2536e-01     3.7114      7.769     11.269     9.2559   999.8288 0.0000e+00
      7.945      0.078     0.1157      1.005     74.791  51.111578     1.8657      6.509   193.0889 7.9746e-01     3.6119      7.790     11.299     9.2354   999.8309 0.0000e+00
      7.966      0.078     0.1137      0.988     74.827  51.108864     1.8644      6.502   191.5775 7.7845e-01     3.6542      7.812     11.332     9.2173   999.8324 0.0000e+00
      7.987      0.077     0.1121      0.974     74.895  51.129403     1.8495      6.496   190.2682 7.6050e-01     3.6654      7.832     11.360     9.2021   999.8336 0.0000e+00
      8.006      0.074     0.1116      0.969     74.987  51.169321     1.7980      6.492   189.0454 7.2600e-01     3.6486      7.851     11.387     9.1857   999.8349 0.0000e+00
      8.024      0.070     0.1114      0.966     75.262  51.337410     1.7282      6.487   187.8067 6.8864e-01     3.6481      7.869     11.413     9.1679   999.8363 0.0000e+00
      8.041      0.065     0.1115      0.966     75.727  51.637207     1.6982      6.482   186.4766 6.7375e-01     3.6265      7.887     11.439     9.1489   999.8379 0.0000e+00
      8.058      0.059     0.1110      0.962     76.094  51.872092     1.6952      6.478   185.2667 6.7135e-01     3.5838      7.902     11.461     9.1312   999.8393 0.0000e+00
      8.073      0.051     0.1079      0.935     76.326  52.017596     1.6837      6.475   184.1042 6.6646e-01     3.4593      7.917     11.482     9.1162   999.8405 0.0000e+00
      8.087      0.044     0.1051      0.911     77.059  52.507137     1.6730      6.472   182.6606 6.5638e-01     3.2684      7.930     11.502     9.1032   999.8417 0.0000e+00
      8.097      0.039     0.1057      0.916     78.669  53.598367     1.6689      6.469   181.0624 6.4478e-01     3.1773      7.941     11.519     9.0919   999.8428 0.0000e+00
      8.103      0.039     0.1067      0.924     80.334  54.729436     1.6778      6.466   179.5785 6.3049e-01     3.2103      7.948     11.527     9.0816   999.8438 0.0000e+00
      8.107      0.041     0.1080      0.936     81.298  55.382686     1.7288      6.463   178.1408 6.1875e-01     3.4044      7.949     11.529     9.0728   999.8444 0.0000e+00
      8.114      0.045     0.1091      0.946     82.445  56.160045     1.8087      6.459   176.4988 6.2256e-01     3.6890      7.954     11.537     9.0666   999.8451 0.0000e+00
      8.129      0.051     0.1081      0.938     84.726  57.711118     1.8552      6.456   174.6968 6.2474e-01     3.8330      7.969     11.559     9.0629   999.8463 0.0000e+00
      8.147      0.058     0.1076      0.933     86.076  58.632586     1.8569      6.453   173.1303 6.0622e-01     3.8667      7.991     11.590     9.0614   999.8472 0.0000e+00
      8.164      0.062     0.1074      0.931     85.082  57.960696     1.8116      6.450   171.7543 5.8171e-01     3.8345      8.007     11.613     9.0599   999.8475 0.0000e+00
      8.180      0.062     0.1050      0.910     83.982  57.212678     1.7325      6.447   170.3637 5.6531e-01     3.7059      8.021     11.634     9.0568   999.8478 0.0000e+00
      8.198      0.059     0.1020      0.884     83.901  57.150134     1.6807      6.445   168.9646 5.5056e-01     3.5903      8.039     11.661     9.0541   999.8495 0.0000e+00
      8.214      0.054     0.1000      0.866     84.093  57.268004     1.6618      6.441   167.5721 5.3609e-01     3.5511      8.057     11.686     9.0555   999.8504 0.0000e+00
      8.226      0.050     0.0978      0.847     84.074  57.239933     1.6351      6.437   166.1756 5.2579e-01     3.5921      8.068     11.701     9.0615   999.8489 0.0000e+00
      8.236      0.048     0.0983      0.851     83.837  57.064878     1.5917      6.435   164.7262 5.1988e-01     3.6607      8.076     11.713     9.0621   999.8484 0.0000e+00
      8.247      0.051     0.1024      0.886     83.844  57.057615     1.5612      6.432   163.3832 5.1912e-01     3.6925      8.088     11.730     9.0566   999.8490 0.0000e+00
      8.257      0.056     0.1044      0.904     84.379  57.406245     1.5534      6.427   162.1556 5.1986e-01     3.6817      8.098     11.745     9.0492   999.8498 0.0000e+00
      8.268      0.064     0.1039      0.900     85.054  57.848932     1.5499      6.423   160.9821 5.1591e-01     3.6280      8.106     11.756     9.0381   999.8507 0.0000e+00
      8.285      0.070     0.1039      0.900     85.711  58.279914     1.5532      6.419   159.8645 4.9094e-01     3.5350      8.122     11.780     9.0301   999.8512 0.0000e+00
      8.310      0.074     0.1040      0.900     86.408  58.741050     1.5757      6.417   158.7092 4.5751e-01     3.4425      8.149     11.820     9.0245   999.8517 0.0000e+00
      8.335      0.076     0.1027      0.888     86.485  58.785730     1.6042      6.415   157.5954 4.3356e-01     3.4265      8.177     11.860     9.0151   999.8528 0.0000e+00
      8.356      0.076     0.0992      0.858     85.890  58.375286     1.6208      6.412   156.6360 4.1108e-01     3.4396      8.196     11.888     9.0048   999.8540 0.0000e+00
      8.373      0.073     0.0954      0.824     85.036  57.781721     1.6290      6.408   155.8857 3.9594e-01     3.4691      8.211     11.908     8.9953   999.8548 0.0000e+00
      8.389      0.072     0.0948      0.819     83.939  57.010082     1.6339      6.405   155.1493 3.8525e-01     3.5547      8.226     11.931     8.9867   999.8559 0.0000e+00
      8.405      0.072     0.0978      0.844     83.400  56.606781     1.6283      6.402   154.0986 3.7585e-01     3.6222      8.242     11.954     8.9830   999.8563 0.0000e+00
      8.421      0.075     0.1003      0.866     83.530  56.654322     1.6218      6.399   152.8176 3.5623e-01     3.6626      8.257     11.976     8.9827   999.8561 0.0000e+00
      8.440      0.077     0.0996      0.860     83.551  56.631773     1.6502      6.396   151.4494 3.2353e-01     3.7160      8.276     12.003     8.9760   999.8565 0.0000e+00
      8.464      0.077     0.0992      0.856     83.531  56.588258     1.7036      6.394   149.9451 3.0143e-01     3.7758      8.300     12.038     8.9596   999.8571 0.0000e+00
      8.489      0.076     0.1002      0.864     83.636  56.636474     1.7306      6.392   148.3956 2.8505e-01     3.8278      8.327     12.078     8.9360   999.8589 0.0000e+00
      8.511      0.076     0.0990      0.853     84.039  56.897034     1.7326      6.390   147.0828 2.6647e-01     3.8536      8.349     12.109     8.9095   999.8612 0.0000e+00
      8.526      0.077     0.0965      0.832     85.514  57.896000     1.7199      6.387   146.1184 2.5312e-01     3.8586      8.362     12.128     8.8870   999.8628 0.0000e+00
      8.538      0.080     0.0957      0.825     87.595  59.310497     1.6975      6.384   145.2525 2.4354e-01     3.8879      8.370     12.141     8.8694   999.8641 0.0000e+00
      8.554      0.087     0.0946      0.815     88.830  60.146931     1.6876      6.382   144.1843 2.3552e-01     3.9126      8.386     12.163     8.8549   999.8653 0.0000e+00
      8.579      0.096     0.0933      0.804     89.285  60.447267     1.6699      6.380   142.9254 2.2014e-01     3.8958      8.411     12.200     8.8455   999.8660 0.0000e+00
      8.609      0.103     0.0956      0.824     89.234  60.399827     1.6223      6.378   141.7330 1.9811e-01     3.8483      8.441     12.243     8.8480   999.8666 0.0000e+00
      8.641      0.106     0.0986      0.850     88.791  60.081728     1.5710      6.374   140.6944 1.7413e-01     3.7978      8.474     12.290     8.8551   999.8674 0.0000e+00
      8.674      0.104     0.0977      0.842     88.468  59.842182     1.5610      6.372   139.7452 1.5436e-01     3.8092      8.509     12.341     8.8540   999.8678 0.0000e+00
      8.702      0.097     0.0943      0.812     88.326  59.727704     1.5715      6.371   138.8603 1.4712e-01     3.8545      8.536     12.380     8.8491   999.8685 0.0000e+00
      8.723      0.089     0.0891      0.767     88.230  59.650792     1.5423      6.368   137.9967 1.3587e-01     3.8537      8.555     12.408     8.8424   999.8691 0.0000e+00
      8.741      0.082     0.0860      0.741     88.086  59.547717     1.4934      6.365   137.2191 1.2511e-01     3.8332      8.572     12.433     8.8321   999.8696 0.0000e+00
      8.759      0.077     0.0885      0.762     87.736  59.307547     1.4749      6.363   136.5992 1.2378e-01     3.8367      8.589     12.457     8.8189   999.8706 0.0000e+00
      8.777      0.074     0.0917      0.790     87.251  58.971049     1.4825      6.360   136.0084 1.2337e-01     3.8294      8.607     12.484     8.8068   999.8715 0.0000e+00
      8.797      0.073     0.0924      0.795     86.902  58.720011     1.4812      6.357   135.2386 1.2332e-01     3.7125      8.626     12.511     8.8007   999.8721 0.0000e+00
      8.817      0.073     0.0936      0.805     86.688  58.559901     1.4593      6.356   134.2611 1.2332e-01     3.5378      8.647     12.540     8.7980   999.8723 0.0000e+00
      8.836      0.074     0.0950      0.817     86.522  58.433132     1.4349      6.355   133.2230 1.2340e-01     3.4541      8.666     12.568     8.7974   999.8723 0.0000e+00
      8.853      0.074     0.0946      0.814     86.490  58.394590     1.4205      6.354   132.3232 1.2342e-01     3.4207      8.682     12.593     8.7938   999.8724 0.0000e+00
      8.869      0.074     0.0940      0.809     86.638  58.475143     1.4235      6.353   131.5560 1.2339e-01     3.3965      8.697     12.613     8.7828   999.8731 0.0000e+00
      8.889      0.074     0.0931      0.801     86.915  58.644539     1.4364      6.352   130.7444 1.2339e-01     3.3579      8.716     12.640     8.7730   999.8739 0.0000e+00
      8.911      0.075     0.0929      0.799     87.058  58.727016     1.4473      6.352   129.9951 1.2336e-01     3.2814      8.739     12.675     8.7669   999.8743 0.0000e+00
      8.931      0.076     0.0933      0.802     87.144  58.773361     1.4512      6.351   129.2935 1.2333e-01     3.2249      8.759     12.704     8.7565   999.8752 0.0000e+00
      8.948      0.079     0.0909      0.782     87.517  59.014236     1.4480      6.350   128.5430 1.2336e-01     3.2004      8.775     12.727     8.7439   999.8762 0.0000e+00
      8.967      0.081     0.0889      0.764     87.843  59.224665     1.4692      6.349   127.9753 1.2336e-01     3.2473      8.792     12.751     8.7339   999.8771 0.0000e+00
      8.987      0.083     0.0901      0.774     87.848  59.220611     1.5175      6.348   127.5918 1.2332e-01     3.3654      8.813     12.782     8.7259   999.8778 0.0000e+00
      9.010      0.085     0.0907      0.779     87.760  59.155857     1.5455      6.348   127.0903 1.2332e-01     3.4487      8.835     12.814     8.7199   999.8782 0.0000e+00
      9.033      0.087     0.0893      0.767     87.746  59.140740     1.5487      6.347   126.2992 1.2330e-01     3.4675      8.858     12.847     8.7140   999.8790 0.0000e+00
      9.057      0.087     0.0877      0.753     87.795  59.164915     1.5472      6.345   125.2535 1.2321e-01     3.4947      8.882     12.882     8.7074   999.8798 0.0000e+00
      9.080      0.086     0.0868      0.745     87.851  59.193957     1.5453      6.345   124.1698 1.2324e-01     3.5807      8.906     12.917     8.7035   999.8801 0.0000e+00
      9.101      0.084     0.0879      0.755     87.928  59.237689     1.5513      6.344   123.2620 1.2334e-01     3.6561      8.926     12.946     8.7020   999.8803 0.0000e+00
      9.121      0.082     0.0889      0.763     88.050  59.312379     1.5589      6.343   122.6233 1.2333e-01     3.6856      8.943     12.971     8.6984   999.8806 0.0000e+00
      9.141      0.079     0.0875      0.752     88.187  59.398000     1.5586      6.342   122.2120 1.2334e-01     3.7400      8.964     13.001     8.6931   999.8811 0.0000e+00
      9.162      0.077     0.0865      0.742     88.268  59.446812     1.5564      6.341   121.8170 1.2337e-01     3.8224      8.985     13.032     8.6877   999.8815 0.0000e+00
      9.182      0.075     0.0888      0.762     88.293  59.457727     1.5497      6.340   121.2033 1.2335e-01     3.8625      9.004     13.060     8.6830   999.8821 0.0000e+00
      9.201      0.075     0.0910      0.781     88.314  59.466412     1.5382      6.340   120.3838 1.2333e-01     3.8325      9.023     13.087     8.6790   999.8825 0.0000e+00
      9.219      0.076     0.0898      0.771     88.355  59.488269     1.5565      6.339   119.5666 1.2330e-01     3.7543      9.041     13.113     8.6749   999.8828 0.0000e+00
      9.236      0.077     0.0891      0.765     88.427  59.531353     1.6064      6.337   118.8074 1.2329e-01     3.6703      9.057     13.136     8.6718   999.8832 0.0000e+00
      9.255      0.079     0.0891      0.765     88.547  59.606038     1.6300      6.337   118.1733 1.2331e-01     3.6036      9.074     13.161     8.6689   999.8835 0.0000e+00
      9.275      0.082     0.0891      0.765     88.684  59.692248     1.6250      6.337   117.7511 1.2332e-01     3.5703      9.095     13.191     8.6654   999.8839 0.0000e+00
      9.298      0.085     0.0884      0.758     88.776  59.747583     1.6238      6.336   117.3165 1.2335e-01     3.5625      9.119     13.225     8.6622   999.8842 0.0000e+00
      9.322      0.087     0.0863      0.740     88.815  59.766696     1.6244      6.334   116.7043 1.2336e-01     3.5750      9.143     13.261     8.6591   999.8846 0.0000e+00
      9.345      0.087     0.0857      0.736     88.870  59.796231     1.6237      6.334   116.0269 1.2332e-01     3.6232      9.165     13.293     8.6559   999.8849 0.0000e+00
      9.367      0.084     0.0859      0.737     88.961  59.850496     1.6246      6.334   115.3213 1.2331e-01     3.6533      9.185     13.321     8.6523   999.8854 0.0000e+00
      9.389      0.080     0.0852      0.731     89.065  59.914404     1.6256      6.333   114.5397 1.2333e-01     3.6445      9.207     13.353     8.6488   999.8857 0.0000e+00
      9.410      0.078     0.0852      0.730     89.195  59.996989     1.6196      6.333   113.7183 1.2334e-01     3.5823      9.230     13.387     8.6447   999.8861 0.0000e+00
      9.428      0.078     0.0862      0.739     89.337  60.086430     1.6122      6.332   112.9613 1.2334e-01     3.4901      9.246     13.411     8.6401   999.8865 0.0000e+00
      9.444      0.078     0.0850      0.729     89.472  60.169681     1.6145      6.331   112.3562 1.2331e-01     3.4478      9.261     13.432     8.6359   999.8870 0.0000e+00
      9.464      0.079     0.0829      0.711     89.588  60.240967     1.6212      6.331   111.8221 1.2329e-01     3.4313      9.280     13.460     8.6332   999.8872 0.0000e+00
      9.486      0.080     0.0827      0.709     89.705  60.312839     1.6406      6.330   111.2354 1.2327e-01     3.4547      9.303     13.492     8.6308   999.8876 0.0000e+00
      9.508      0.080     0.0820      0.703     89.848  60.403170     1.6668      6.329   110.5964 1.2327e-01     3.5345      9.324     13.523     8.6271   999.8880 0.0000e+00
      9.529      0.080     0.0800      0.686     90.011  60.506985     1.6778      6.328   110.0339 1.2329e-01     3.5764      9.345     13.554     8.6228   999.8885 0.0000e+00
      9.550      0.079     0.0791      0.678     90.180  60.614797     1.6792      6.328   109.5963 1.2329e-01     3.5676      9.368     13.587     8.6191   999.8889 0.0000e+00
      9.569      0.077     0.0801      0.687     90.299  60.689891     1.6829      6.328   109.1781 1.2331e-01     3.5920      9.385     13.613     8.6152   999.8892 0.0000e+00
      9.586      0.073     0.0820      0.703     90.344  60.715866     1.6876      6.327   108.7626 1.2335e-01     3.6422      9.400     13.633     8.6117   999.8896 0.0000e+00
      9.605      0.067     0.0859      0.736     90.385  60.738210     1.6842      6.327   108.2717 1.2337e-01     3.6509      9.418     13.660     8.6085   999.8901 0.0000e+00
      9.625      0.060     0.0892      0.764     90.438  60.769395     1.6774      6.326   107.6308 1.2340e-01     3.6315      9.440     13.692     8.6055   999.8904 0.0000e+00
      9.642      0.052     0.0898      0.769     90.453  60.775147     1.6741      6.325   106.9498 1.2340e-01     3.5705      9.459     13.719     8.6034   999.8906 0.0000e+00
      9.654      0.044     0.0893      0.765     90.410  60.744198     1.6796      6.325   106.3198 1.2335e-01     3.4715      9.470     13.735     8.6006   999.8909 0.0000e+00
      9.661      0.034     0.0868      0.743     90.362  60.712957     1.6914      6.325   105.6914 1.2330e-01     3.4178      9.475     13.742     8.5973   999.8911 0.0000e+00
      9.667      0.026     0.0839      0.718     90.353  60.715166     1.6952      6.324   105.1168 1.2330e-01     3.4124      9.480     13.749     8.5946   999.8913 0.0000e+00
      9.672      0.020     0.0836      0.717     90.328  60.707367     1.6741      6.323   104.6208 1.2334e-01     3.4070      9.487     13.759     8.5928   999.8916 0.0000e+00
      9.677      0.017     0.0839      0.720     90.287  60.682222     1.6347      6.323   104.0821 1.2337e-01     3.3851      9.490     13.764     8.5910   999.8917 0.0000e+00
      9.680      0.017     0.0829      0.710     90.360  60.728905     1.6179      6.322   103.4213 1.2343e-01     3.3762      9.492     13.767     8.5906   999.8917 0.0000e+00
      9.683      0.023     0.0829      0.710     90.605  60.890495     1.6181      6.322   102.7400 1.2344e-01     3.3985      9.497     13.774     8.5960   999.8914 0.0000e+00
      9.686      0.035     0.0847      0.726     90.848  61.047180     1.6116      6.321   102.1258 1.2336e-01     3.4255      9.499     13.777     8.6036   999.8908 0.0000e+00
      9.690      0.050     0.0870      0.746     90.936  61.098116     1.6251      6.320   101.4151 1.2329e-01     3.5387      9.500     13.778     8.6045   999.8908 0.0000e+00
      9.700      0.062     0.0890      0.762     90.983  61.125041     1.6607      6.318   100.6005 1.2331e-01     3.7507      9.506     13.788     8.6016   999.8910 0.0000e+00
      9.725      0.070     0.0871      0.746     91.072  61.182061     1.6697      6.317    99.7618 1.2335e-01     3.8588      9.532     13.824     8.6009   999.8913 0.0000e+00
      9.759      0.076     0.0822      0.704     91.317  61.342665     1.6641      6.316    99.1038 1.2333e-01     3.8627      9.574     13.886     8.5974   999.8919 0.0000e+00
      9.785      0.082     0.0787      0.674     91.811  61.668709     1.6794      6.315    98.7541 1.2334e-01     3.8305      9.604     13.928     8.5910   999.8924 0.0000e+00
      9.795      0.085     0.0777      0.665     92.334  62.010077     1.6899      6.314    98.4581 1.2334e-01     3.7312      9.605     13.931     8.5883   999.8926 0.0000e+00
      9.805      0.084     0.0782      0.669     92.781  62.292372     1.6874      6.314    98.0210 1.2330e-01     3.6774      9.608     13.936     8.5890   999.8926 0.0000e+00
      9.828      0.083     0.0775      0.664     93.273  62.603201     1.6836      6.314    97.4270 1.2333e-01     3.7050      9.636     13.976     8.5858   999.8930 0.0000e+00
      9.858      0.086     0.0765      0.655     93.845  62.971758     1.6614      6.314    96.7817 1.2340e-01     3.8025      9.669     14.026     8.5832   999.8935 0.0000e+00
      9.885      0.090     0.0763      0.653     94.285  63.252857     1.6279      6.314    96.2417 1.2336e-01     3.9716      9.696     14.063     8.5798   999.8941 0.0000e+00
      9.906      0.091     0.0775      0.664     94.328  63.268898     1.6246      6.312    95.8885 1.2323e-01     4.0783      9.716     14.092     8.5677   999.8952 0.0000e+00
      9.926      0.087     0.0805      0.689     94.188  63.165693     1.6382      6.310    95.6089 1.2321e-01     4.0764      9.733     14.117     8.5557   999.8963 0.0000e+00
      9.948      0.084     0.0811      0.694     94.544  63.403318     1.6630      6.310    95.1832 1.2331e-01     4.0475      9.755     14.149     8.5485   999.8971 0.0000e+00
      9.970      0.083     0.0795      0.681     95.501  64.044493     1.7083      6.309    94.6129 1.2335e-01     4.0570      9.778     14.183     8.5416   999.8979 0.0000e+00
      9.991      0.084     0.0785      0.672     96.287  64.561965     1.7342      6.308    94.0486 1.2332e-01     4.0920      9.798     14.211     8.5338   999.8985 0.0000e+00
     10.011      0.084     0.0789      0.675     96.715  64.829320     1.7421      6.306    93.5226 1.2327e-01     4.1104      9.817     14.238     8.5279   999.8989 0.0000e+00
     10.033      0.084     0.0801      0.685     97.269  65.179428     1.7441      6.306    93.0715 1.2325e-01     4.1164      9.838     14.268     8.5286   999.8990 0.0000e+00
     10.056      0.084     0.0796      0.681     98.043  65.680372     1.7402      6.306    92.6375 1.2321e-01     4.0979      9.862     14.304     8.5314   999.8994 0.0000e+00
     10.078      0.085     0.0786      0.671     98.814  66.182259     1.7382      6.305    92.1470 1.2321e-01     4.0508      9.885     14.337     8.5259   999.9002 0.0000e+00
     10.098      0.086     0.0791      0.676     99.373  66.543673     1.7372      6.304    91.7013 1.2328e-01     4.0379      9.904     14.364     8.5137   999.9012 0.0000e+00
     10.118      0.087     0.0803      0.687     99.503  66.617457     1.7887      6.303    91.2069 1.2330e-01     4.0737      9.922     14.390     8.5020   999.9023 0.0000e+00
     10.140      0.087     0.0807      0.690     99.246  66.438657     1.9020      6.301    90.5564 1.2328e-01     4.0906      9.944     14.422     8.4931   999.9033 0.0000e+00
     10.165      0.088     0.0804      0.687     99.395  66.543174     1.9790      6.299    89.9455 1.2330e-01     4.1109      9.969     14.458     8.4860   999.9042 0.0000e+00
     10.189      0.088     0.0801      0.685    100.437  67.245437     1.9915      6.297    89.5853 1.2335e-01     4.1549      9.992     14.492     8.4801   999.9049 0.0000e+00
     10.212      0.087     0.0804      0.687    101.676  68.063956     1.9840      6.295    89.3847 1.2340e-01     4.1316     10.015     14.526     8.4723   999.9056 0.0000e+00
     10.234      0.086     0.0803      0.687    102.541  68.620350     1.9589      6.294    89.1546 1.2341e-01     4.2226     10.036     14.556     8.4663   999.9059 0.0000e+00
     10.254      0.085     0.0787      0.672    103.165  69.013876     1.9297      6.292    88.8680 1.2336e-01     4.5341     10.057     14.585     8.4719   999.9055 0.0000e+00
     10.275      0.086     0.0774      0.661    103.756  69.388865     1.9255      6.291    88.5015 1.2333e-01     4.7518     10.076     14.614     8.4780   999.9058 0.0000e+00
     10.297      0.088     0.0772      0.659    104.468  69.848225     1.9261      6.289    88.1643 1.2335e-01     4.8230     10.097     14.645     8.4716   999.9068 0.0000e+00
     10.318      0.091     0.0776      0.662    105.278  70.371673     1.9200      6.288    87.8874 1.2336e-01     4.8377     10.118     14.676     8.4579   999.9081 0.0000e+00
     10.341      0.092     0.0787      0.672    105.886  70.758497     1.9210      6.287    87.6491 1.2338e-01     4.7987     10.139     14.706     8.4453   999.9093 0.0000e+00
     10.367      0.090     0.0789      0.673    106.035  70.837500     1.9206      6.285    87.5207 1.2339e-01     4.7772     10.166     14.743     8.4360   999.9102 0.0000e+00
     10.395      0.082     0.0768      0.656    105.841  70.691048     1.9147      6.283    87.2816 1.2335e-01     4.7741     10.194     14.786     8.4286   999.9111 0.0000e+00
     10.420      0.070     0.0766      0.653    105.781  70.640889     1.9105      6.282    86.9083 1.2331e-01     4.7278     10.220     14.823     8.4206   999.9121 0.0000e+00
     10.438      0.056     0.0799      0.681    105.935  70.739689     1.9132      6.281    86.5346 1.2329e-01     4.6435     10.240     14.852     8.4107   999.9131 0.0000e+00
     10.448      0.040     0.0826      0.705    105.748  70.613969     1.9214      6.280    86.0327 1.2331e-01     4.5745     10.249     14.866     8.4006   999.9139 0.0000e+00
     10.451      0.024     0.0826      0.705    105.128  70.201713     1.9149      6.280    85.4004 1.2334e-01     4.5172     10.250     14.865     8.3920   999.9143 0.0000e+00
     10.452      0.011     0.0809      0.690    104.834  70.015112     1.8766      6.280    84.8267 1.2333e-01     4.3767     10.249     14.866     8.3866   999.9147 0.0000e+00
     10.454      0.006     0.0799      0.681    105.178  70.265248     1.8236      6.279    84.2586 1.2332e-01     4.1867     10.254     14.872     8.3853   999.9149 0.0000e+00
     10.453      0.008     0.0803      0.685    105.676  70.619278     1.8023      6.279    83.6078 1.2337e-01     4.1200     10.253     14.871     8.3861   999.9148 0.0000e+00
     10.451      0.017     0.0800      0.683    106.129  70.925848     1.8183      6.278    83.1528 1.2340e-01     4.1278     10.247     14.863     8.3852   999.9144 0.0000e+00
     10.452      0.030     0.0780      0.665    106.718  71.301477     1.8441      6.277    82.8866 1.2337e-01     4.2148     10.248     14.863     8.3884   999.9140 0.0000e+00
     10.461      0.046     0.0756      0.645    107.680  71.918154     1.8632      6.276    82.5399 1.2336e-01     4.4184     10.256     14.875     8.4006   999.9135 0.0000e+00
     10.476      0.062     0.0750      0.639    109.012  72.786413     1.8591      6.274    82.2313 1.2336e-01     4.5247     10.271     14.897     8.4147   999.9128 0.0000e+00
     10.496      0.075     0.0761      0.649    110.152  73.533019     1.8544      6.274    81.9943 1.2332e-01     4.5169     10.292     14.927     8.4175   999.9129 0.0000e+00
     10.521      0.081     0.0770      0.656    110.700  73.886789     1.9185      6.273    81.6527 1.2330e-01     4.5534     10.316     14.963     8.4056   999.9140 0.0000e+00
     10.549      0.079     0.0768      0.655    110.710  73.884219     2.0362      6.271    81.3703 1.2331e-01     4.6056     10.346     15.006     8.3911   999.9154 0.0000e+00
     10.574      0.070     0.0763      0.651    110.330  73.629118     2.1071      6.270    81.1614 1.2334e-01     4.5916     10.373     15.044     8.3818   999.9168 0.0000e+00
     10.591      0.057     0.0767      0.653    110.081  73.473254     2.1162      6.269    80.7622 1.2335e-01     4.5475     10.389     15.067     8.3756   999.9177 0.0000e+00
     10.601      0.043     0.0757      0.645    110.612  73.843872     2.0947      6.268    80.3291 1.2333e-01     4.5312     10.397     15.079     8.3699   999.9182 0.0000e+00
     10.606      0.033     0.0730      0.622    112.413  75.057772     1.9955      6.268    79.9679 1.2329e-01     4.4606     10.401     15.086     8.3651   999.9187 0.0000e+00
     10.609      0.027     0.0731      0.623    114.778  76.639468     1.8347      6.267    79.4931 1.2329e-01     4.3490     10.404     15.090     8.3635   999.9185 0.0000e+00
     10.612      0.026     0.0748      0.637    116.564  77.831552     1.7547      6.266    78.9757 1.2331e-01     4.3287     10.406     15.092     8.3689   999.9180 0.0000e+00
     10.618      0.028     0.0745      0.635    120.656  80.566998     1.7569      6.266    78.3589 1.2331e-01     4.3465     10.411     15.100     8.3787   999.9175 0.0000e+00
     10.628      0.033     0.0750      0.639    127.132  84.902227     1.8085      6.266    77.5416 1.2333e-01     4.4323     10.422     15.115     8.3846   999.9177 0.0000e+00
     10.639      0.037     0.0755      0.644    129.369  86.413820     1.9113      6.266    76.7511 1.2337e-01     4.6123     10.433     15.133     8.3846   999.9193 0.0000e+00
     10.649      0.039     0.0731      0.624    128.809  86.056797     1.9676      6.266    76.1150 1.2337e-01     4.7209     10.443     15.147     8.3831   999.9194 0.0000e+00
     10.659      0.039     0.0708      0.604    133.276  89.048267     1.9689      6.266    75.6157 1.2335e-01     4.7292     10.452     15.160     8.3840   999.9203 0.0000e+00
     10.670      0.037     0.0703      0.600    141.177  94.325736     1.9704      6.266    75.2735 1.2327e-01     4.6795     10.463     15.176     8.3875   999.9244 0.0000e+00
     10.680      0.034     0.0698      0.595    144.386  96.465438     1.9861      6.265    74.8164 1.2320e-01     4.6124     10.474     15.192     8.3962   999.9243 0.0000e+00
     10.689      0.030     0.0709      0.604    140.665  93.977708     2.0022      6.265    74.0472 1.2321e-01     4.5724     10.483     15.205     8.4050   999.9216 0.0000e+00
     10.696      0.025     0.0749      0.639    134.451  89.836762     2.0003      6.264    73.3725 1.2322e-01     4.5247     10.490     15.214     8.4066   999.9238 0.0000e+00
     10.701      0.020     0.0776      0.662    129.705  86.688335     1.9810      6.263    72.9400 1.2322e-01     4.3303     10.495     15.221     8.4050   999.9284 0.0000e+00
     10.705      0.016     0.0782      0.667    126.573  84.612382     1.9511      6.262    72.6029 1.2325e-01     4.0245     10.498     15.226     8.4035   999.9299 0.0000e+00
     10.708      0.013     0.0778      0.663    123.678  82.680365     1.9332      6.261    72.3081 1.2333e-01     3.8748     10.501     15.231     8.4009   999.9279 0.0000e+00
     10.711      0.011     0.0768      0.655    121.285  81.079312     1.9204      6.259    71.8707 1.2336e-01     3.8642     10.504     15.235     8.4042   999.9248 0.0000e+00
     10.713      0.009     0.0773      0.660    120.344  80.459160     1.8921      6.259    71.3592 1.2332e-01     3.9293     10.506     15.239     8.4167   999.9223 0.0000e+00
     10.715      0.008     0.0771      0.658    120.218  80.398679     1.8684      6.259    70.9409 1.2332e-01     4.0719     10.508     15.241     8.4253   999.9209 0.0000e+00
     10.717      0.007     0.0754      0.644    119.907  80.220829     1.8675      6.258    70.5124 1.2337e-01     4.1464     10.510     15.244     8.4242   999.9198 0.0000e+00
     10.719      0.006     0.0737      0.630    119.861  80.217214     1.8731      6.256    70.1366 1.2343e-01     4.1414     10.512     15.246     8.4212   999.9189 0.0000e+00
     10.720      0.006     0.0731      0.625    120.320  80.545864     1.8839      6.254    70.0108 1.2346e-01     4.1757     10.512     15.247     8.4241   999.9185 0.0000e+00
     10.721      0.005     0.0740      0.632    120.903  80.950256     1.9019      6.254    69.9376 1.2339e-01     4.2659     10.514     15.249     8.4358   999.9181 0.0000e+00
     10.723      0.005     0.0746      0.637    121.213  81.162589     1.9099      6.254    69.8532 1.2331e-01     4.3140     10.516     15.252     8.4502   999.9167 0.0000e+00
     10.724 -9.990e-29 -9.990e-29 -9.990e-29 -9.990e-29 -9.990e-29 -9.990e-29 -9.990e-29 -9.990e-29 1.2332e-01 -9.990e-29     10.517     15.253     8.4615   999.9159 0.0000e+00
     10.724 -9.990e-29 -9.990e-29 -9.990e-29 -9.990e-29 -9.990e-29 -9.990e-29 -9.990e-29 -9.990e-29 1.2329e-01 -9.990e-29     10.517     15.253     8.4706   999.9156 0.0000e+00
     10.725 -9.990e-29 -9.990e-29 -9.990e-29 -9.990e-29 -9.990e-29 -9.990e-29 -9.990e-29 -9.990e-29 1.2324e-01 -9.990e-29     10.517     15.254     8.4767   999.9154 0.0000e+00
     10.725 -9.990e-29 -9.990e-29 -9.990e-29 -9.990e-29 -9.990e-29 -9.990e-29 -9.990e-29 -9.990e-29 1.2323e-01 -9.990e-29     10.518     15.255     8.4786   999.9155 0.0000e+00
