* Sea-Bird SBE19plus  Data File:
* FileName = C:\R\Reservoirs\Data\DataNotYetUploadedToEDI\Raw_CTD\RawDownloads\062623_fcr50_S8188_0018.hex
* Software version 2.8.0.119
* Temperature SN = 8188
* Conductivity SN = 8188
* System UpLoad Time = Jul 03 2023 16:34:58
* <ApplicationData>
* <Seaterm232>
* <SoftwareVersion>2.8.0.119</SoftwareVersion>
* <BuildDate>07-Nov-2018</BuildDate>
* </Seaterm232>
* </ApplicationData>
* <InstrumentState>
* <HardwareData DeviceType='SBE19plus' SerialNumber='01908188'>
*
*    <Manufacturer>Sea-Bird Electronics, Inc.</Manufacturer>
*
*    <FirmwareVersion>3.1.8</FirmwareVersion>
*
*    <FirmwareDate>Mar  9 2016 16:22:29</FirmwareDate>
*
*    <CommandSetVersion>1.4</CommandSetVersion>
*
*    <PCBAssembly PCBSerialNum='260079' AssemblyNum='41054K'/>
*
*    <PCBAssembly PCBSerialNum='260083' AssemblyNum='41059E'/>
*
*    <PCBAssembly PCBSerialNum='260085' AssemblyNum='41606B'/>
*
*    <PCBAssembly PCBSerialNum='260081' AssemblyNum='41967C'/>
*
*    <MfgDate>30 Mar 2022</MfgDate>
*
*    <InternalSensors>
*
*       <Sensor id='Main Temperature'>
*
*          <type>temperature0</type>
*
*          <SerialNumber>01908188</SerialNumber>
*
*       </Sensor>
*
*       <Sensor id='Main Conductivity'>
*
*          <type>conductivity-0</type>
*
*          <SerialNumber>01908188</SerialNumber>
*
*       </Sensor>
*
*       <Sensor id='Main Pressure'>
*
*          <type>strain-0</type>
*
*          <SerialNumber>12220741</SerialNumber>
*
*       </Sensor>
*
*    </InternalSensors>
*
*    <ExternalSensors>
*
*       <Sensor id='volt 0'>
*
*          <type>CHL</type>
*
*          <SerialNumber>FLNTURT-7096</SerialNumber>
*
*       </Sensor>
*
*       <Sensor id='volt 1'>
*
*          <type>NTU</type>
*
*          <SerialNumber>FLNTURT-7096</SerialNumber>
*
*       </Sensor>
*
*       <Sensor id='volt 2'>
*
*          <type>OXY</type>
*
*          <SerialNumber>43-4269</SerialNumber>
*
*       </Sensor>
*
*       <Sensor id='volt 3'>
*
*          <type>not assigned</type>
*
*          <SerialNumber>not assigned</SerialNumber>
*
*       </Sensor>
*
*       <Sensor id='volt 4'>
*
*          <type>PAR</type>
*
*          <SerialNumber>PARLOGICSW-2209</SerialNumber>
*
*       </Sensor>
*
*       <Sensor id='volt 5'>
*
*          <type>not assigned</type>
*
*          <SerialNumber>not assigned</SerialNumber>
*
*       </Sensor>
*
*       <Sensor id='serial'>
*
*          <type>WETLABS</type>
*
*          <SerialNumber>FL3-7350</SerialNumber>
*
*       </Sensor>
*
*    </ExternalSensors>
*
* </HardwareData>
* <StatusData DeviceType='SBE19plus' SerialNumber='01908188'>
*
*    <DateTime>2023-07-03T16:29:20</DateTime>
*
*    <LoggingState>not logging</LoggingState>
*
*    <EventSummary numEvents='0'/>
*
*    <Power>
*
*       <vMain>12.2</vMain>
*
*       <vLith>8.8</vLith>
*
*       <iMain>61.8</iMain>
*
*       <iPump>48.2</iPump>
*
*       <iExt01>22.4</iExt01>
*
*       <iExt2345>20.3</iExt2345>
*
*       <iSerial>45.4</iSerial>
*
*    </Power>
*
*    <MemorySummary>
*
*       <Bytes>665325</Bytes>
*
*       <Samples>26613</Samples>
*
*       <SamplesFree>2605312</SamplesFree>
*
*       <SampleLength>25</SampleLength>
*
*       <Profiles>25</Profiles>
*
*    </MemorySummary>
*
* </StatusData>
* <ConfigurationData DeviceType='SBE19plus' SerialNumber='01908188'>
*
*    <ProfileMode>
*
*       <ScansToAverage>1</ScansToAverage>
*
*       <MinimumCondFreq>5</MinimumCondFreq>
*
*       <PumpDelay>40</PumpDelay>
*
*       <AutoRun>no</AutoRun>
*
*       <IgnoreSwitch>no</IgnoreSwitch>
*
*    </ProfileMode>
*
*    <Battery>
*
*       <Type>alkaline</Type>
*
*       <CutOff>7.5</CutOff>
*
*    </Battery>
*
*    <DataChannels>
*
*       <ExtVolt0>yes</ExtVolt0>
*
*       <ExtVolt1>yes</ExtVolt1>
*
*       <ExtVolt2>yes</ExtVolt2>
*
*       <ExtVolt3>no</ExtVolt3>
*
*       <ExtVolt4>yes</ExtVolt4>
*
*       <ExtVolt5>no</ExtVolt5>
*
*       <SBE38>no</SBE38>
*
*       <WETLABS>yes</WETLABS>
*
*       <OPTODE>no</OPTODE>
*
*       <SBE63>no</SBE63>
*
*       <SeaFET>no</SeaFET>
*
*       <GTD>no</GTD>
*
*    </DataChannels>
*
*    <EchoCharacters>yes</EchoCharacters>
*
*    <OutputExecutedTag>yes</OutputExecutedTag>
*
*    <OutputFormat>raw HEX</OutputFormat>
*
* </ConfigurationData>
* <CalibrationCoefficients DeviceType='SBE19plus' SerialNumber='01908188'>
*
*    <Calibration format='TEMP1' id='Main Temperature'>
*
*       <SerialNum>01908188</SerialNum>
*
*       <CalDate>21-Aug-22</CalDate>
*
*       <TA0>1.265284e-03</TA0>
*
*       <TA1>2.691806e-04</TA1>
*
*       <TA2>-5.655711e-07</TA2>
*
*       <TA3>1.602369e-07</TA3>
*
*       <TOFFSET>0.000000e+00</TOFFSET>
*
*    </Calibration>
*
*    <Calibration format='WBCOND0' id='Main Conductivity'>
*
*       <SerialNum>01908188</SerialNum>
*
*       <CalDate>21-Aug-22</CalDate>
*
*       <G>-1.009562e+00</G>
*
*       <H>1.439229e-01</H>
*
*       <I>-4.343583e-04</I>
*
*       <J>5.328694e-05</J>
*
*       <CPCOR>-9.570000e-08</CPCOR>
*
*       <CTCOR>3.250000e-06</CTCOR>
*
*       <CSLOPE>1.000000e+00</CSLOPE>
*
*    </Calibration>
*
*    <Calibration format='STRAIN0' id='Main Pressure'>
*
*       <SerialNum>12220741</SerialNum>
*
*       <CalDate>11-Aug-22</CalDate>
*
*       <PA0>1.627942e-01</PA0>
*
*       <PA1>4.835849e-04</PA1>
*
*       <PA2>-3.975488e-12</PA2>
*
*       <PTCA0>5.244803e+05</PTCA0>
*
*       <PTCA1>2.817194e+01</PTCA1>
*
*       <PTCA2>-5.842684e-01</PTCA2>
*
*       <PTCB0>2.522087e+01</PTCB0>
*
*       <PTCB1>5.750000e-04</PTCB1>
*
*       <PTCB2>0.000000e+00</PTCB2>
*
*       <PTEMPA0>-5.709556e+01</PTEMPA0>
*
*       <PTEMPA1>5.248567e+01</PTEMPA1>
*
*       <PTEMPA2>-2.281498e-01</PTEMPA2>
*
*       <POFFSET>-4.700000e-02</POFFSET>
*
*       <PRANGE>1.600000e+02</PRANGE>
*
*    </Calibration>
*
*    <Calibration format='VOLT0' id='Volt 0'>
*
*       <OFFSET>-4.657200e-02</OFFSET>
*
*       <SLOPE>1.248989e+00</SLOPE>
*
*    </Calibration>
*
*    <Calibration format='VOLT0' id='Volt 1'>
*
*       <OFFSET>-4.600800e-02</OFFSET>
*
*       <SLOPE>1.249849e+00</SLOPE>
*
*    </Calibration>
*
*    <Calibration format='VOLT0' id='Volt 2'>
*
*       <OFFSET>-4.668000e-02</OFFSET>
*
*       <SLOPE>1.250379e+00</SLOPE>
*
*    </Calibration>
*
*    <Calibration format='VOLT0' id='Volt 3'>
*
*       <OFFSET>-4.643200e-02</OFFSET>
*
*       <SLOPE>1.251002e+00</SLOPE>
*
*    </Calibration>
*
*    <Calibration format='VOLT0' id='Volt 4'>
*
*       <OFFSET>-4.606100e-02</OFFSET>
*
*       <SLOPE>1.249962e+00</SLOPE>
*
*    </Calibration>
*
*    <Calibration format='VOLT0' id='Volt 5'>
*
*       <OFFSET>-4.642700e-02</OFFSET>
*
*       <SLOPE>1.248530e+00</SLOPE>
*
*    </Calibration>
*
*    <Calibration format='FREQ0' id='external frequency channel'>
*
*       <EXTFREQSF>1.000018e+00</EXTFREQSF>
*
*    </Calibration>
*
* </CalibrationCoefficients>
* <EventCounters DeviceType='SBE19plus' SerialNumber='01908188'>
*
*    <EventSummary numEvents='0'/>
*
* </EventCounters></InstrumentState>
* <Headers>
*
* cast  18 27 Jun 2023 15:50:22 samples 17183 to 17904, avg = 1, stop = mag switch
*
# nquan = 16
# nvalues = 722                         
# units = specified
# name 0 = depFM: Depth [fresh water, m]
# name 1 = dz/dtM: Descent Rate [m/s]
# name 2 = sbeox0Mg/L: Oxygen, SBE 43 [mg/l]
# name 3 = sbeox0PS: Oxygen, SBE 43 [% saturation]
# name 4 = specc: Specific Conductance [uS/cm]
# name 5 = c0uS/cm: Conductivity [uS/cm]
# name 6 = wetCDOM: Fluorescence, WET Labs CDOM [mg/m^3]
# name 7 = flECO-AFL: Fluorescence, WET Labs ECO-AFL/FL [mg/m^3]
# name 8 = flECO-AFL1: Fluorescence, WET Labs ECO-AFL/FL, 2 [mg/m^3]
# name 9 = flECO-AFL2: Fluorescence, WET Labs ECO-AFL/FL, 3 [mg/m^3]
# name 10 = par/sat/log: PAR/Logarithmic, Satlantic
# name 11 = turbWETntu0: Turbidity, WET Labs ECO [NTU]
# name 12 = prdM: Pressure, Strain Gauge [db]
# name 13 = prdE: Pressure, Strain Gauge [psi]
# name 14 = tv290C: Temperature [ITS-90, deg C]
# name 15 = flag:  0.000e+00
# span 0 =     -0.722,      8.773       
# span 1 =     -0.236,      0.181       
# span 2 =    -0.3211,    17.1955       
# span 3 =     -3.123,    197.588       
# span 4 =      6.557,    257.438       
# span 5 =   5.881210, 182.955011       
# span 6 =    -4.5000,     7.5600       
# span 7 =    -0.1422,     3.5734       
# span 8 =    -2.1300,     0.7242       
# span 9 =    -2.0304,    21.9114       
# span 10 = 1.1587e-01, 5.1213e+02      
# span 11 =    -0.5136,   334.5533      
# span 12 =     -0.708,      8.603      
# span 13 =     -1.027,     12.478      
# span 14 =    10.5139,    24.9534      
# span 15 = 0.0000e+00, 0.0000e+00      
# interval = seconds: 0.25
# start_time = Jun 27 2023 15:50:22 [Instrument's time stamp, header]
# bad_flag = -9.990e-29
# <Sensors count="10" >
#   <sensor Channel="1" >
#     <!-- Count, Temperature -->
#     <TemperatureSensor SensorID="58" >
#       <SerialNumber>8188</SerialNumber>
#       <CalibrationDate>21-Aug-22</CalibrationDate>
#       <A0>1.26528397e-003</A0>
#       <A1>2.69180636e-004</A1>
#       <A2>-5.65571102e-007</A2>
#       <A3>1.60236871e-007</A3>
#       <Slope>1.00000000</Slope>
#       <Offset>0.0000</Offset>
#     </TemperatureSensor>
#   </sensor>
#   <sensor Channel="2" >
#     <!-- Frequency 0, Conductivity -->
#     <ConductivitySensor SensorID="3" >
#       <SerialNumber>8188</SerialNumber>
#       <CalibrationDate>21-Aug-22</CalibrationDate>
#       <UseG_J>1</UseG_J>
#       <!-- Cell const and series R are applicable only for wide range sensors. -->
#       <SeriesR>0.0000</SeriesR>
#       <CellConst>2000.0000</CellConst>
#       <ConductivityType>0</ConductivityType>
#       <Coefficients equation="0" >
#         <A>0.00000000e+000</A>
#         <B>0.00000000e+000</B>
#         <C>0.00000000e+000</C>
#         <D>0.00000000e+000</D>
#         <M>0.0</M>
#         <CPcor>-9.57000000e-008</CPcor>
#       </Coefficients>
#       <Coefficients equation="1" >
#         <G>-1.00956200e+000</G>
#         <H>1.43922862e-001</H>
#         <I>-4.34358337e-004</I>
#         <J>5.32869425e-005</J>
#         <CPcor>-9.57000000e-008</CPcor>
#         <CTcor>3.2500e-006</CTcor>
#         <!-- WBOTC not applicable unless ConductivityType = 1. -->
#         <WBOTC>0.00000000e+000</WBOTC>
#       </Coefficients>
#       <Slope>1.00000000</Slope>
#       <Offset>0.00000</Offset>
#     </ConductivitySensor>
#   </sensor>
#   <sensor Channel="3" >
#     <!-- Count, Pressure, Strain Gauge -->
#     <PressureSensor SensorID="46" >
#       <SerialNumber>8188</SerialNumber>
#       <CalibrationDate>11-Aug-22</CalibrationDate>
#       <PA0>1.62794185e-001</PA0>
#       <PA1>4.83584930e-004</PA1>
#       <PA2>-3.97548787e-012</PA2>
#       <PTEMPA0>-5.70955636e+001</PTEMPA0>
#       <PTEMPA1>5.24856726e+001</PTEMPA1>
#       <PTEMPA2>-2.28149804e-001</PTEMPA2>
#       <PTCA0>5.24480263e+005</PTCA0>
#       <PTCA1>2.81719406e+001</PTCA1>
#       <PTCA2>-5.84268386e-001</PTCA2>
#       <PTCB0>2.52208750e+001</PTCB0>
#       <PTCB1>5.75000000e-004</PTCB1>
#       <PTCB2>0.00000000e+000</PTCB2>
#       <Offset>0.000000</Offset>
#     </PressureSensor>
#   </sensor>
#   <sensor Channel="4" >
#     <!-- A/D voltage 0, Fluorometer, WET Labs ECO-AFL/FL -->
#     <FluoroWetlabECO_AFL_FL_Sensor SensorID="20" >
#       <SerialNumber>FLNTURT-7096</SerialNumber>
#       <CalibrationDate>01-Sep-2022</CalibrationDate>
#       <ScaleFactor>5.00000000e+001</ScaleFactor>
#       <!-- Dark output -->
#       <Vblank>0.0680</Vblank>
#     </FluoroWetlabECO_AFL_FL_Sensor>
#   </sensor>
#   <sensor Channel="5" >
#     <!-- A/D voltage 1, Turbidity Meter, WET Labs, ECO-NTU -->
#     <TurbidityMeter SensorID="67" >
#       <SerialNumber>FLNTURT-7096</SerialNumber>
#       <CalibrationDate>01-Sep-2022</CalibrationDate>
#       <ScaleFactor>197.000000</ScaleFactor>
#       <!-- Dark output -->
#       <DarkVoltage>0.067000</DarkVoltage>
#     </TurbidityMeter>
#   </sensor>
#   <sensor Channel="6" >
#     <!-- A/D voltage 2, Oxygen, SBE 43 -->
#     <OxygenSensor SensorID="38" >
#       <SerialNumber>4269</SerialNumber>
#       <CalibrationDate>16-Aug-22</CalibrationDate>
#       <Use2007Equation>1</Use2007Equation>
#       <CalibrationCoefficients equation="0" >
#         <!-- Coefficients for Owens-Millard equation. -->
#         <Boc>0.0000</Boc>
#         <Soc>0.0000e+000</Soc>
#         <offset>0.0000</offset>
#         <Pcor>0.00e+000</Pcor>
#         <Tcor>0.0000</Tcor>
#         <Tau>0.0</Tau>
#       </CalibrationCoefficients>
#       <CalibrationCoefficients equation="1" >
#         <!-- Coefficients for Sea-Bird equation - SBE calibration in 2007 and later. -->
#         <Soc>4.2506e-001</Soc>
#         <offset>-0.4922</offset>
#         <A>-4.5893e-003</A>
#         <B> 1.8653e-004</B>
#         <C>-2.0781e-006</C>
#         <D0> 2.5826e+000</D0>
#         <D1> 1.92634e-004</D1>
#         <D2>-4.64803e-002</D2>
#         <E> 3.6000e-002</E>
#         <Tau20> 2.3100</Tau20>
#         <H1>-3.3000e-002</H1>
#         <H2> 5.0000e+003</H2>
#         <H3> 1.4500e+003</H3>
#       </CalibrationCoefficients>
#     </OxygenSensor>
#   </sensor>
#   <sensor Channel="7" >
#     <!-- A/D voltage 3, PAR/Logarithmic, Satlantic -->
#     <PARLog_SatlanticSensor SensorID="76" >
#       <SerialNumber>2209</SerialNumber>
#       <CalibrationDate>14-Jan-2022</CalibrationDate>
#       <a0>9.8861e-001</a0>
#       <a1>8.0845e-001</a1>
#       <Im>1.3589e+000</Im>
#       <Multiplier>1.0000e+000</Multiplier>
#     </PARLog_SatlanticSensor>
#   </sensor>
#   <sensor Channel="8" >
#     <!-- Serial RS-232, Fluorometer, WET Labs ECO-AFL/FL, 2 -->
#     <FluoroWetlabECO_AFL_FL_Sensor SensorID="20" >
#       <SerialNumber>FL3-7350</SerialNumber>
#       <CalibrationDate>10-Mar-2022</CalibrationDate>
#       <ScaleFactor>4.26000000e-002</ScaleFactor>
#       <!-- Dark output -->
#       <Vblank>50.0000</Vblank>
#     </FluoroWetlabECO_AFL_FL_Sensor>
#   </sensor>
#   <sensor Channel="9" >
#     <!-- Serial RS-232, Fluorometer, WET Labs ECO-AFL/FL, 3 -->
#     <FluoroWetlabECO_AFL_FL_Sensor SensorID="20" >
#       <SerialNumber>FL3-7350</SerialNumber>
#       <CalibrationDate>10-Mar-2022</CalibrationDate>
#       <ScaleFactor>4.23000000e-002</ScaleFactor>
#       <!-- Dark output -->
#       <Vblank>48.0000</Vblank>
#     </FluoroWetlabECO_AFL_FL_Sensor>
#   </sensor>
#   <sensor Channel="10" >
#     <!-- Serial RS-232, Fluorometer, WET Labs ECO CDOM -->
#     <FluoroWetlabCDOM_Sensor SensorID="19" >
#       <SerialNumber>FL3-7350</SerialNumber>
#       <CalibrationDate>10-Mar-2022</CalibrationDate>
#       <ScaleFactor>0.090</ScaleFactor>
#       <!-- Dark output -->
#       <Vblank>50.000</Vblank>
#     </FluoroWetlabCDOM_Sensor>
#   </sensor>
# </Sensors>
# datcnv_date = Jul 03 2023 16:59:43, 7.26.7.129 [datcnv_vars = 15]
# datcnv_in = C:\R\Reservoirs\Data\DataNotYetUploadedToEDI\Raw_CTD\RawDownloads\062723_fcrXX_S8188018.hex C:\R\Reservoirs\Data\DataNotYetUploadedToEDI\Raw_CTD\RawDownloads\SBE19plusV2_8188_start20221003.xmlcon
# datcnv_skipover = 0
# datcnv_ox_hysteresis_correction = yes
# datcnv_ox_tau_correction = yes
# filter_date = Jul 03 2023 17:00:15, 7.26.7.129
# filter_in = C:\R\Reservoirs\Data\DataNotYetUploadedToEDI\Raw_CTD\RawDownloads\062723_fcrXX_S8188018.cnv
# filter_low_pass_tc_A = 0.500
# filter_low_pass_tc_B = 1.000
# filter_low_pass_A_vars = sbeox0Mg/L sbeox0PS specc c0uS/cm tv290C
# filter_low_pass_B_vars = depFM dz/dtM prdM prdE
# alignctd_date = Jul 03 2023 17:00:42, 7.26.7.129
# alignctd_in = C:\R\Reservoirs\Data\DataNotYetUploadedToEDI\Raw_CTD\RawDownloads\062723_fcrXX_S8188018.cnv
# alignctd_adv = dz/dtM 1.000, sbeox0PS 1.000, specc 1.000, c0uS/cm 1.000, flECO-AFL 1.000, turbWETntu0 1.000                                                                                                                        
# file_type = ascii
*END*
     -0.722      0.000     8.4420     91.912      8.000   7.127928    -4.5000    -0.1117    -2.1300    -2.0304 9.6749e+01    -0.4084     -0.708     -1.027    19.4801 0.0000e+00
     -0.722      0.001     8.4410     91.928      9.503   8.472155    -4.5000    -0.1002    -2.1300    -2.0304 8.9216e+01    -0.4084     -0.708     -1.027    19.4855 0.0000e+00
     -0.722      0.001     8.4394     91.946     10.200   9.100361    -4.5000    -0.1117    -2.1300    -2.0304 1.0729e+02    -0.3933     -0.708     -1.027    19.4949 0.0000e+00
     -0.722      0.001     8.4376     91.963     10.204   9.112810     0.0000    -0.1041     0.0000     0.0423 1.1640e+02    -0.4384     -0.708     -1.027    19.5089 0.0000e+00
     -0.722      0.001     8.4352     91.981      9.491   8.483144     0.0000    -0.1155     0.0000     0.0423 1.1829e+02    -0.3783     -0.708     -1.027    19.5292 0.0000e+00
     -0.721      0.002     8.4314     92.001      8.395   7.510253     0.0000    -0.1117     0.0000     0.0423 1.5389e+02    -0.4835     -0.707     -1.026    19.5603 0.0000e+00
     -0.721      0.003     8.4258     92.020      7.446   6.666525     0.0000    -0.1079     0.0000     0.0423 1.3198e+02    -0.3783     -0.707     -1.025    19.6033 0.0000e+00
     -0.720      0.004     8.4192     92.036      6.815   6.106696     0.0000    -0.1155     0.0000     0.0423 9.9089e+01    -0.4084     -0.706     -1.024    19.6519 0.0000e+00
     -0.719      0.005     8.4132     92.049      6.557   5.881210     0.0000    -0.1155    -0.0426     0.0846 1.1123e+02    -0.3783     -0.705     -1.023    19.6973 0.0000e+00
     -0.718      0.006     8.4088     92.060      6.624   5.947733     0.0000    -0.1231    -0.0426     0.0846 1.0856e+02    -0.4384     -0.704     -1.022    19.7344 0.0000e+00
     -0.716      0.008     8.4058     92.071      6.733   6.055053     0.0000    -0.1117    -0.0426     0.0846 9.3992e+01    -0.4084     -0.703     -1.019    19.7633 0.0000e+00
     -0.715      0.010     8.4036     92.082      6.840   6.166532     0.0000    -0.1117    -0.0426     0.0846 8.2826e+01    -0.1829     -0.701     -1.017    19.7858 0.0000e+00
     -0.712      0.012     8.4016     92.093      7.296   6.598643     0.0000    -0.0850     0.1278     0.0423 7.6030e+01    -0.1829     -0.698     -1.013    19.8042 0.0000e+00
     -0.709      0.016     8.3998     92.101      8.456   7.678213     0.0000    -0.1346     0.1278     0.0423 1.1203e+02    -0.2280     -0.695     -1.009    19.8214 0.0000e+00
     -0.705      0.021     8.3975     92.107     10.269   9.366807     0.0000    -0.1231     0.1278     0.0423 1.5383e+02    -0.1378     -0.692     -1.003    19.8412 0.0000e+00
     -0.700      0.027     8.3942     92.113     12.496  11.469994     0.0000    -0.0926     0.1278     0.0423 2.3327e+02    -0.2130     -0.687     -0.995    19.8682 0.0000e+00
     -0.693      0.034     8.3890     92.123     15.559  14.392402     0.0000    -0.1079     0.0000    -0.0423 3.7649e+02    -0.1378     -0.680     -0.986    19.9065 0.0000e+00
     -0.685      0.044     8.3807     92.141     19.825  18.505788     0.0000    -0.1269     0.0000    -0.0423 4.4006e+02    -0.2280     -0.671     -0.973    19.9624 0.0000e+00
     -0.673      0.055     8.3673     92.168     25.244  23.809149     0.0000    -0.1422     0.0000    -0.0423 4.6706e+02    -0.0927     -0.660     -0.957    20.0494 0.0000e+00
     -0.659      0.068     8.3452     92.201     31.543  30.046426     0.0000     1.3227     0.0000    -0.0423 4.7483e+02    20.1228     -0.646     -0.937    20.1917 0.0000e+00
     -0.640      0.082     8.3081     92.242     37.397  35.941001     1.9800     1.2845     0.0426     3.9762 4.8148e+02    20.2431     -0.628     -0.911    20.4292 0.0000e+00
     -0.617      0.095     8.2483     92.295     41.660  40.367714     1.9800     1.2998     0.0426     3.9762 5.0462e+02    20.2280     -0.605     -0.878    20.8131 0.0000e+00
     -0.590      0.107     8.1660     92.364     44.410  43.352095     1.9800     1.2845     0.0426     3.9762 4.8643e+02    20.1529     -0.579     -0.839    21.3461 0.0000e+00
     -0.560      0.117     8.0741     92.458     46.089  45.277846     1.9800     2.0170     0.0426     3.9762 4.6362e+02    21.2350     -0.549     -0.796    21.9493 0.0000e+00
     -0.527      0.124     7.9861     92.598     47.057  46.470260     1.9800     2.0017     0.0426     3.9762 4.7103e+02    21.1449     -0.516     -0.749    22.5412 0.0000e+00
     -0.493      0.129     7.9080     92.819     47.572  47.166077     6.3900     2.0284     0.3834    14.9742 4.7391e+02    21.1449     -0.483     -0.700    23.0828 0.0000e+00
     -0.459      0.130     7.8427     93.170     47.800  47.529058     6.3900     2.0360     0.3834    14.9742 4.7763e+02    21.2200     -0.450     -0.652    23.5553 0.0000e+00
     -0.425      0.130     7.7918     93.703     47.844  47.665912     6.3900     2.2649     0.3834    14.9742 4.6141e+02    23.5948     -0.417     -0.605    23.9501 0.0000e+00
     -0.392      0.127     7.7570     94.468     47.794  47.678531     6.3900     2.2573     0.3834    14.9742 4.5012e+02    23.6248     -0.384     -0.557    24.2646 0.0000e+00
     -0.359      0.121     7.7408     95.499     47.749  47.671348     6.3900     2.2878     0.4686    15.4395 4.4303e+02    23.4745     -0.352     -0.511    24.5014 0.0000e+00
     -0.327      0.114     7.7453     96.825     47.751  47.695954     6.3900     2.2649     0.4686    15.4395 4.1688e+02    23.5347     -0.321     -0.465    24.6698 0.0000e+00
     -0.298      0.105     7.7728     98.497     47.790  47.747021     6.3900     2.3946     0.4686    15.4395 3.7356e+02    22.3022     -0.292     -0.423    24.7842 0.0000e+00
     -0.271      0.094     7.8253    100.586     47.834  47.796551     6.3900     2.3870     0.4686    15.4395 3.4582e+02    22.5276     -0.266     -0.386    24.8587 0.0000e+00
     -0.249      0.082     7.9039    103.128     47.852  47.814155     6.3000     2.3832     0.3834    16.9623 3.3466e+02    22.3773     -0.244     -0.354    24.9045 0.0000e+00
     -0.231      0.070     8.0097    106.094     47.841  47.798582     6.3000     2.4213     0.3834    16.9623 3.3148e+02    22.3022     -0.226     -0.328    24.9310 0.0000e+00
     -0.215      0.060     8.1459    109.347     47.818  47.769460     6.3000     2.2535     0.3834    16.9623 3.3299e+02    20.9645     -0.211     -0.306    24.9456 0.0000e+00
     -0.202      0.051     8.3176    112.643     47.786  47.730912     6.3000     2.2764     0.3834    16.9623 3.3205e+02    20.9194     -0.198     -0.288    24.9526 0.0000e+00
     -0.191      0.045     8.5277    115.749     47.734  47.674639     6.3000     2.2992     0.3834    16.9623 3.2365e+02    20.8443     -0.187     -0.272    24.9534 0.0000e+00
     -0.181      0.040     8.7737    118.500     47.651  47.589599     6.3900     2.2687     0.4260    17.0469 3.1157e+02    20.8893     -0.178     -0.258    24.9491 0.0000e+00
     -0.172      0.036     9.0438    120.745     47.521  47.459060     6.3900     2.1619     0.4260    17.0469 3.0660e+02    20.4835     -0.169     -0.245    24.9423 0.0000e+00
     -0.163      0.034     9.3175    122.335     47.345  47.279918     6.3900     2.1505     0.4260    17.0469 2.9793e+02    20.3934     -0.160     -0.233    24.9362 0.0000e+00
     -0.155      0.032     9.5751    123.139     47.173  47.103484     6.3900     2.1428     0.4260    17.0469 2.8938e+02    20.4384     -0.152     -0.221    24.9322 0.0000e+00
     -0.147      0.029     9.8031    123.096     47.074  46.997640     6.3900     2.1428     0.3834    17.2161 2.7762e+02    20.3182     -0.144     -0.209    24.9301 0.0000e+00
     -0.139      0.024     9.9890    122.268     47.071  46.985685     6.3900     2.6578     0.3834    17.2161 1.8714e+02    22.1819     -0.136     -0.197    24.9284 0.0000e+00
     -0.131      0.018    10.1211    120.799     47.174  47.080281     6.3900     2.6502     0.3834    17.2161 1.4023e+02    22.1819     -0.129     -0.187    24.9255 0.0000e+00
     -0.126      0.009    10.1886    118.870     47.360  47.259096     6.3900     2.6578     0.3834    17.2161 1.0844e+02    22.1519     -0.123     -0.179    24.9201 0.0000e+00
     -0.124      0.001    10.1864    116.695     47.542  47.435063     6.4800     2.6464     0.4260    17.3853 1.0629e+02    22.1519     -0.122     -0.177    24.9125 0.0000e+00
     -0.127     -0.007    10.1195    114.507     47.658  47.546118     6.4800     2.3565     0.4260    17.3853 1.2604e+02    21.1449     -0.124     -0.180    24.9038 0.0000e+00
     -0.132     -0.014     9.9995    112.517     47.710  47.596112     6.4800     2.3336     0.4260    17.3853 1.9116e+02    21.2050     -0.129     -0.188    24.8952 0.0000e+00
     -0.138     -0.018     9.8412    110.887     47.725  47.612250     6.4800     2.3450     0.4260    17.3853 2.1427e+02    21.1148     -0.135     -0.197    24.8877 0.0000e+00
     -0.144     -0.020     9.6622    109.706     47.723  47.612705     6.4800     2.3221     0.4686    17.3007 2.3566e+02    21.1749     -0.141     -0.205    24.8814 0.0000e+00
     -0.149     -0.020     9.4819    108.997     47.714  47.605528     6.4800     2.2001     0.4686    17.3007 2.6391e+02    20.2431     -0.146     -0.213    24.8766 0.0000e+00
     -0.154     -0.018     9.3175    108.754     47.704  47.596730     6.4800     2.1924     0.4686    17.3007 2.7206e+02    20.1529     -0.151     -0.220    24.8744 0.0000e+00
     -0.159     -0.015     9.1824    108.938     47.697  47.587930     6.4800     2.2039     0.4686    17.3007 2.6691e+02    20.1829     -0.156     -0.227    24.8752 0.0000e+00
     -0.163     -0.012     9.0841    109.459     47.699  47.584707     6.4800     2.2115     0.4686    17.3007 2.7527e+02    20.1679     -0.160     -0.232    24.8779 0.0000e+00
     -0.165     -0.010     9.0249    110.212     47.715  47.594128     6.3900     2.1924     0.4260    17.5545 2.7593e+02    20.4535     -0.162     -0.235    24.8808 0.0000e+00
     -0.167     -0.007     9.0047    111.118     47.733  47.606815     6.3900     2.2153     0.4260    17.5545 2.7336e+02    20.2731     -0.164     -0.238    24.8821 0.0000e+00
     -0.168     -0.006     9.0203    112.090     47.740  47.610297     6.3900     2.2191     0.4260    17.5545 2.7123e+02    20.4384     -0.165     -0.239    24.8801 0.0000e+00
     -0.169     -0.005     9.0643    113.043     47.734  47.601539     6.3900     2.2191     0.4260    17.5545 2.6871e+02    20.4986     -0.166     -0.241    24.8746 0.0000e+00
     -0.170     -0.004     9.1279    113.910     47.714  47.578206     6.4800     2.3412     0.4686    17.3853 2.6720e+02    21.0397     -0.167     -0.242    24.8677 0.0000e+00
     -0.171     -0.004     9.2038    114.635     47.683  47.542003     6.4800     2.3374     0.4686    17.3853 2.6668e+02    21.1749     -0.168     -0.244    24.8620 0.0000e+00
     -0.172     -0.004     9.2850    115.177     47.651  47.503092     6.4800     2.3565     0.4686    17.3853 2.7070e+02    21.1599     -0.169     -0.246    24.8582 0.0000e+00
     -0.173     -0.004     9.3644    115.538     47.636  47.480820     6.4800     2.3527     0.4686    17.3853 2.7200e+02    21.1298     -0.170     -0.247    24.8553 0.0000e+00
     -0.174     -0.003     9.4369    115.749     47.650  47.487083     6.4800     2.3374     0.4260    17.3430 2.7224e+02    20.7240     -0.171     -0.248    24.8517 0.0000e+00
     -0.175     -0.003     9.4979    115.835     47.673  47.501753     6.4800     2.3603     0.4260    17.3430 2.7360e+02    20.7240     -0.172     -0.249    24.8464 0.0000e+00
     -0.176     -0.002     9.5441    115.804     47.684  47.502980     6.4800     2.3717     0.4260    17.3430 2.7438e+02    20.7090     -0.172     -0.250    24.8392 0.0000e+00
     -0.176     -0.001     9.5754    115.632     47.682  47.491091     6.4800     2.3336     0.4260    17.3430 2.7587e+02    20.6038     -0.173     -0.251    24.8311 0.0000e+00
     -0.177     -0.000     9.5943    115.289     47.672  47.470841     6.5700     2.3298     0.4260    17.7660 2.7762e+02    21.1148     -0.173     -0.251    24.8227 0.0000e+00
     -0.177      0.001     9.6030    114.798     47.655  47.444757     6.5700     2.3298     0.4260    17.7660 2.7888e+02    21.2050     -0.173     -0.251    24.8140 0.0000e+00
     -0.176      0.001     9.6022    114.240     47.633  47.413809     6.5700     2.3221     0.4260    17.7660 2.7828e+02    21.1900     -0.173     -0.251    24.8043 0.0000e+00
     -0.176      0.002     9.5898    113.713     47.609  47.381634     6.5700     2.3450     0.4260    17.7660 2.7713e+02    21.1900     -0.173     -0.250    24.7936 0.0000e+00
     -0.175      0.003     9.5632    113.307     47.590  47.355504     6.5700     2.3374     0.4260    17.7660 2.7539e+02    21.6559     -0.172     -0.249    24.7829 0.0000e+00
     -0.174      0.003     9.5242    113.094     47.581  47.340342     6.5700     2.3336     0.4260    17.8083 2.7432e+02    21.6559     -0.171     -0.248    24.7729 0.0000e+00
     -0.174      0.003     9.4795    113.108     47.579  47.332103     6.5700     2.3298     0.4260    17.8083 2.7224e+02    21.5657     -0.170     -0.247    24.7638 0.0000e+00
     -0.173      0.003     9.4373    113.326     47.573  47.320663     6.5700     2.3374     0.4260    17.8083 2.7118e+02    21.5807     -0.170     -0.246    24.7556 0.0000e+00
     -0.172      0.002     9.4049    113.671     47.562  47.302973     6.5700     2.4022     0.4260    17.8083 2.7065e+02    22.9034     -0.169     -0.245    24.7481 0.0000e+00
     -0.171      0.002     9.3884    114.053     47.549  47.282242     6.4800     2.3717     0.4686    17.3007 2.7059e+02    22.8884     -0.168     -0.244    24.7413 0.0000e+00
     -0.171      0.001     9.3906    114.413     47.534  47.258884     6.4800     2.3755     0.4686    17.3007 2.7112e+02    22.9635     -0.167     -0.243    24.7351 0.0000e+00
     -0.170      0.001     9.4098    114.738     47.511  47.228652     6.4800     2.4022     0.4686    17.3007 2.7094e+02    22.9184     -0.167     -0.243    24.7288 0.0000e+00
     -0.170      0.000     9.4398    115.034     47.475  47.187449     6.4800     2.4595     0.4686    17.3007 2.7159e+02    23.5196     -0.167     -0.243    24.7216 0.0000e+00
     -0.171      0.000     9.4729    115.300     47.432  47.138156     6.3900     2.4595     0.4260    17.3007 2.7182e+02    23.5647     -0.168     -0.243    24.7134 0.0000e+00
     -0.171      0.000     9.5043    115.518     47.387  47.085465     6.3900     2.4518     0.4260    17.3007 2.7218e+02    23.6248     -0.168     -0.243    24.7050 0.0000e+00
     -0.171      0.000     9.5327    115.670     47.342  47.031176     6.3900     2.4785     0.4260    17.3007 2.7271e+02    23.5497     -0.167     -0.243    24.6974 0.0000e+00
     -0.170      0.000     9.5584    115.740     47.294  46.972703     6.3900     2.8638     0.4260    17.3007 2.7242e+02    22.6028     -0.167     -0.243    24.6908 0.0000e+00
     -0.170      0.000     9.5817    115.706     47.244  46.910303     6.3900     2.8943     0.4260    17.3007 2.7094e+02    22.6930     -0.167     -0.243    24.6841 0.0000e+00
     -0.171      0.000     9.6012    115.528     47.201  46.855080     6.5700     2.8829     0.4260    17.3007 2.7041e+02    22.6178     -0.167     -0.243    24.6759 0.0000e+00
     -0.171      0.000     9.6156    115.167     47.172  46.814104     6.5700     2.8791     0.4260    17.3007 2.7018e+02    22.6930     -0.167     -0.243    24.6658 0.0000e+00
     -0.171     -0.001     9.6236    114.610     47.152  46.782392     6.5700     2.9363     0.4260    17.3007 2.7018e+02    23.6098     -0.168     -0.243    24.6540 0.0000e+00
     -0.171     -0.001     9.6231    113.866     47.132  46.751488     6.5700     2.9554     0.4260    17.3007 2.7094e+02    23.5647     -0.168     -0.243    24.6410 0.0000e+00
     -0.171     -0.001     9.6107    112.955     47.105  46.715130     6.6600     2.9668     0.4260    17.4276 2.7177e+02    23.4445     -0.168     -0.243    24.6276 0.0000e+00
     -0.171     -0.001     9.5830    111.895     47.068  46.669569     6.6600     2.9439     0.4260    17.4276 2.7242e+02    23.6248     -0.168     -0.244    24.6143 0.0000e+00
     -0.172     -0.001     9.5388    110.713     47.021  46.614543     6.6600     2.7608     0.4260    17.4276 2.7248e+02    22.5577     -0.169     -0.244    24.6019 0.0000e+00
     -0.172     -0.001     9.4788    109.439     46.969  46.555194     6.6600     2.7646     0.4260    17.4276 2.7378e+02    22.6328     -0.169     -0.245    24.5907 0.0000e+00
     -0.173     -0.001     9.4047    108.107     46.926  46.503438     6.5700     2.7761     0.4260    17.6814 2.7420e+02    22.6930     -0.169     -0.245    24.5808 0.0000e+00
     -0.173     -0.001     9.3180    106.749     46.900  46.469251     6.5700     2.7456     0.4260    17.6814 2.7319e+02    22.6178     -0.169     -0.246    24.5715 0.0000e+00
     -0.173     -0.001     9.2211    105.403     46.883  46.443517     6.5700     2.7761     0.4260    17.6814 2.7212e+02    22.5727     -0.169     -0.246    24.5624 0.0000e+00
     -0.173     -0.001     9.1166    104.105     46.855  46.407483     6.5700     2.7723     0.4260    17.6814 2.7112e+02    22.6629     -0.170     -0.246    24.5533 0.0000e+00
     -0.173     -0.001     9.0072    102.878     46.814  46.359466     6.3900     2.7646     0.4260    17.3007 2.7065e+02    22.5577     -0.170     -0.246    24.5439 0.0000e+00
     -0.173     -0.002     8.8956    101.731     46.773  46.310439     6.3900     2.7646     0.4260    17.3007 2.7018e+02    22.5878     -0.170     -0.247    24.5346 0.0000e+00
     -0.174     -0.003     8.7849    100.671     46.733  46.263182     6.3900     2.7913     0.4260    17.3007 2.7035e+02    22.8583     -0.171     -0.248    24.5255 0.0000e+00
     -0.175     -0.004     8.6781     99.706     46.687  46.209054     6.3900     2.7570     0.4260    17.3007 2.7082e+02    22.8884     -0.172     -0.249    24.5169 0.0000e+00
     -0.176     -0.006     8.5772     98.831     46.621  46.135604     6.3900     2.7570     0.4260    17.3007 2.7029e+02    22.9184     -0.173     -0.251    24.5084 0.0000e+00
     -0.178     -0.008     8.4829     98.041     46.535  46.043058     6.4800     2.7761     0.4260    16.6239 2.7041e+02    22.7381     -0.174     -0.253    24.4997 0.0000e+00
     -0.180     -0.010     8.3959     97.327     46.457  45.958257     6.4800     2.7036     0.4260    16.6239 2.6971e+02    22.3773     -0.176     -0.256    24.4909 0.0000e+00
     -0.182     -0.013     8.3168     96.696     46.410  45.904163     6.4800     2.7227     0.4260    16.6239 2.7159e+02    22.3322     -0.179     -0.259    24.4821 0.0000e+00
     -0.186     -0.016     8.2452     96.175     46.376  45.864368     6.4800     2.6807     0.4260    16.6239 2.7635e+02    22.3172     -0.182     -0.264    24.4734 0.0000e+00
     -0.190     -0.019     8.1806     95.812     46.350  45.832222     6.4800     2.6883     0.4260    17.0892 2.8775e+02    22.3773     -0.187     -0.271    24.4648 0.0000e+00
     -0.196     -0.021     8.1223     95.680     46.350  45.824913     6.4800     2.4976     0.4260    17.0892 3.0421e+02    20.6489     -0.192     -0.279    24.4566 0.0000e+00
     -0.202     -0.021     8.0708     95.895     46.338  45.802843     6.4800     2.4595     0.4260    17.0892 3.1593e+02    20.6940     -0.198     -0.287    24.4490 0.0000e+00
     -0.209     -0.021     8.0284     96.604     46.266  45.714553     6.4800     2.4366     0.4260    17.0892 3.2435e+02    20.7240     -0.205     -0.297    24.4421 0.0000e+00
     -0.215     -0.019     7.9992     97.923     46.183  45.601888     6.4800     2.4595     0.4686    16.5393 3.3343e+02    20.6038     -0.211     -0.306    24.4353 0.0000e+00
     -0.220     -0.017     7.9894     99.899     46.161  45.529914     6.4800     2.4709     0.4686    16.5393 3.3663e+02    20.6489     -0.216     -0.313    24.4276 0.0000e+00
     -0.224     -0.014     8.0092    102.500     46.191  45.493307     6.4800     2.4137     0.4686    16.5393 3.2633e+02    21.6258     -0.220     -0.318    24.4170 0.0000e+00
     -0.226     -0.011     8.0716    105.584     46.230  45.466447     6.4800     2.3984     0.4686    16.5393 3.1987e+02    21.6108     -0.222     -0.321    24.3985 0.0000e+00
     -0.228     -0.009     8.1872    108.892     46.256  45.446130     6.4800     2.3717     0.4686    16.7931 3.1959e+02    21.7160     -0.224     -0.324    24.3652 0.0000e+00
     -0.230     -0.006     8.3611    112.115     46.257  45.426933     6.4800     2.3870     0.4686    16.7931 3.2626e+02    21.7461     -0.226     -0.327    24.3114 0.0000e+00
     -0.232     -0.004     8.5905    114.959     46.250  45.411665     6.4800     2.4061     0.4686    16.7931 3.3502e+02    21.4004     -0.228     -0.331    24.2398 0.0000e+00
     -0.234     -0.001     8.8605    117.226     46.257  45.404183     6.4800     2.4022     0.4686    16.7931 3.3670e+02    21.4154     -0.230     -0.333    24.1687 0.0000e+00
     -0.233      0.001     9.1460    118.879     46.266  45.382679     6.4800     2.3946     0.4686    16.7931 3.2896e+02    21.4004     -0.229     -0.332    24.1195 0.0000e+00
     -0.232      0.002     9.4202    119.987     46.266  45.341415     6.4800     2.3832     0.3834    16.7508 3.1779e+02    21.4304     -0.228     -0.330    24.0972 0.0000e+00
     -0.230      0.003     9.6605    120.644     46.265  45.303068     6.4800     2.3336     0.3834    16.7508 3.0914e+02    21.3853     -0.226     -0.327    24.0882 0.0000e+00
     -0.229      0.004     9.8537    120.922     46.259  45.275243     6.4800     2.3298     0.3834    16.7508 3.1772e+02    21.4154     -0.225     -0.326    24.0730 0.0000e+00
     -0.228      0.003     9.9987    120.826     46.242  45.250518     6.4800     2.3374     0.3834    16.7508 3.2322e+02    21.2952     -0.224     -0.325    24.0403 0.0000e+00
     -0.228      0.003    10.1002    120.313     46.217  45.224282     6.4800     2.3374     0.4260    17.2161 3.2477e+02    21.3853     -0.224     -0.325    23.9953 0.0000e+00
     -0.228      0.003    10.1631    119.343     46.187  45.191522     6.4800     2.3450     0.4260    17.2161 3.2119e+02    21.0847     -0.223     -0.324    23.9548 0.0000e+00
     -0.227      0.002    10.1909    117.909     46.150  45.147465     6.4800     2.3145     0.4260    17.2161 3.1758e+02    21.0847     -0.222     -0.323    23.9310 0.0000e+00
     -0.226      0.002    10.1844    116.053     46.114  45.100176     6.4800     2.3298     0.4260    17.2161 3.1586e+02    21.1148     -0.222     -0.321    23.9224 0.0000e+00
     -0.225      0.002    10.1414    113.880     46.086  45.060821     6.3900     2.3298     0.4260    17.1738 3.1676e+02    21.1148     -0.221     -0.321    23.9201 0.0000e+00
     -0.225      0.001    10.0602    111.546     46.063  45.026831     6.3900     2.3565     0.4260    17.1738 3.1897e+02    20.6789     -0.221     -0.320    23.9166 0.0000e+00
     -0.225      0.001     9.9410    109.216     46.043  44.997066     6.3900     2.3374     0.4260    17.1738 3.1980e+02    20.6639     -0.221     -0.320    23.9080 0.0000e+00
     -0.225      0.001     9.7868    107.029     46.031  44.975477     6.3900     2.3412     0.4260    17.1738 3.1869e+02    20.7541     -0.220     -0.320    23.8950 0.0000e+00
     -0.225      0.001     9.6059    105.074     46.023  44.960270     6.3900     2.3336     0.4260    17.1738 3.1793e+02    20.6038     -0.220     -0.319    23.8814 0.0000e+00
     -0.225      0.001     9.4111    103.382     46.014  44.947389     6.3900     2.3450     0.3834    16.6662 3.1758e+02    20.4384     -0.220     -0.319    23.8693 0.0000e+00
     -0.224      0.001     9.2165    101.944     46.002  44.933398     6.3900     2.3641     0.3834    16.6662 3.1710e+02    20.4685     -0.220     -0.319    23.8582 0.0000e+00
     -0.224      0.001     9.0337    100.721     45.983  44.914568     6.3900     2.3450     0.3834    16.6662 3.1779e+02    20.4535     -0.219     -0.318    23.8481 0.0000e+00
     -0.224      0.001     8.8701     99.660     45.959  44.889839     6.3900     2.2954     0.3834    16.6662 3.1807e+02    20.4685     -0.219     -0.318    23.8401 0.0000e+00
     -0.224      0.001     8.7281     98.714     45.936  44.864506     6.3900     2.3336     0.4260    16.7085 3.1752e+02    21.4004     -0.219     -0.318    23.8354 0.0000e+00
     -0.223      0.001     8.6070     97.852     45.917  44.843701     6.3900     2.3145     0.4260    16.7085 3.1532e+02    21.3703     -0.219     -0.317    23.8333 0.0000e+00
     -0.223      0.001     8.5040     97.058     45.900  44.825840     6.3900     2.3641     0.4260    16.7085 3.1504e+02    21.4304     -0.219     -0.317    23.8321 0.0000e+00
     -0.223      0.001     8.4147     96.321     45.886  44.810120     6.3900     2.3374     0.4260    16.7085 3.1538e+02    21.4304     -0.218     -0.316    23.8305 0.0000e+00
     -0.222      0.001     8.3352     95.630     45.878  44.800278     6.3900     2.3221     0.4260    16.2855 3.1552e+02    21.5657     -0.218     -0.316    23.8283 0.0000e+00
     -0.222      0.001     8.2627     94.975     45.874  44.793687     6.3900     2.3336     0.4260    16.2855 3.1538e+02    21.6258     -0.218     -0.316    23.8261 0.0000e+00
     -0.222      0.001     8.1959     94.350     45.867  44.784627     6.3900     2.3145     0.4260    16.2855 3.1545e+02    21.5807     -0.218     -0.316    23.8241 0.0000e+00
     -0.222      0.001     8.1340     93.759     45.860  44.774646     6.3900     2.3259     0.4260    16.2855 3.1484e+02    21.5958     -0.217     -0.315    23.8222 0.0000e+00
     -0.221      0.002     8.0760     93.216     45.856  44.767025     6.3000     2.3450     0.4260    16.5816 3.1525e+02    22.1519     -0.217     -0.315    23.8198 0.0000e+00
     -0.221      0.002     8.0211     92.723     45.853  44.761714     6.3000     2.3221     0.4260    16.5816 3.1490e+02    22.1519     -0.216     -0.314    23.8170 0.0000e+00
     -0.220      0.003     7.9688     92.276     45.851  44.757295     6.3000     2.3221     0.4260    16.5816 3.1504e+02    22.0467     -0.216     -0.313    23.8137 0.0000e+00
     -0.220      0.004     7.9194     91.875     45.851  44.754571     6.3000     2.3145     0.4260    16.5816 3.1552e+02    22.1519     -0.215     -0.312    23.8105 0.0000e+00
     -0.219      0.005     7.8740     91.538     45.853  44.754799     6.3000     2.3794     0.4260    16.5816 3.1504e+02    21.6559     -0.214     -0.311    23.8073 0.0000e+00
     -0.217      0.006     7.8328     91.276     45.861  44.762001     6.3900     2.3641     0.3834    16.6239 3.1449e+02    21.6108     -0.213     -0.309    23.8044 0.0000e+00
     -0.216      0.008     7.7954     91.107     45.880  44.782060     6.3900     2.4022     0.3834    16.6239 3.1477e+02    21.5958     -0.211     -0.307    23.8015 0.0000e+00
     -0.214      0.010     7.7619     91.067     45.916  44.820325     6.3900     2.3832     0.3834    16.6239 3.1395e+02    21.6258     -0.210     -0.304    23.7989 0.0000e+00
     -0.211      0.012     7.7336     91.223     45.980  44.890963     6.3900     2.3336     0.3834    16.6239 3.1313e+02    21.9264     -0.207     -0.300    23.7970 0.0000e+00
     -0.208      0.015     7.7116     91.689     46.088  45.012810     6.4800     2.3221     0.4260    16.7085 3.1232e+02    21.8513     -0.204     -0.296    23.7961 0.0000e+00
     -0.204      0.019     7.6970     92.657     46.266  45.214397     6.4800     2.3221     0.4260    16.7085 3.1191e+02    21.8513     -0.200     -0.290    23.7969 0.0000e+00
     -0.199      0.023     7.6928     94.419     46.565  45.553442     6.4800     2.3374     0.4260    16.7085 3.0807e+02    21.9264     -0.195     -0.283    23.8006 0.0000e+00
     -0.193      0.026     7.7043     97.407     47.072  46.120358     6.4800     2.3870     0.4260    16.7085 3.0092e+02    23.0687     -0.189     -0.274    23.8090 0.0000e+00
     -0.185      0.029     7.7405    102.252     47.713  46.850338     6.3900     2.3870     0.4260    16.9200 2.7925e+02    23.0537     -0.182     -0.264    23.8254 0.0000e+00
     -0.176      0.030     7.8169    109.734     48.228  47.484273     6.3900     2.3565     0.4260    16.9200 2.2108e+02    22.9485     -0.173     -0.251    23.8547 0.0000e+00
     -0.167      0.030     7.9567    120.282     48.519  47.903889     6.3900     2.3717     0.4260    16.9200 1.6751e+02    23.0837     -0.164     -0.238    23.9029 0.0000e+00
     -0.159      0.029     8.1950    133.376     48.660  48.159660     6.3900     2.3107     0.4260    16.9200 1.8893e+02    22.0316     -0.156     -0.226    23.9769 0.0000e+00
     -0.152      0.027     8.5832    147.634     48.715  48.303945     6.6600     2.3527     0.4260    17.0046 1.8775e+02    22.1068     -0.149     -0.217    24.0835 0.0000e+00
     -0.146      0.025     9.1867    161.402     48.729  48.379187     6.6600     2.3298     0.4260    17.0046 2.0730e+02    22.1068     -0.144     -0.208    24.2175 0.0000e+00
     -0.141      0.024    10.0437    173.218     48.722  48.409416     6.6600     2.3298     0.4260    17.0046 2.2017e+02    22.2120     -0.138     -0.201    24.3561 0.0000e+00
     -0.136      0.023    11.1137    182.027     48.698  48.402694     6.6600     2.3717     0.4260    17.0046 1.9196e+02    22.3773     -0.133     -0.194    24.4770 0.0000e+00
     -0.130      0.024    12.2834    187.279     48.667  48.373082     6.6600     2.4137     0.4260    17.0046 2.6443e+02    22.4675     -0.128     -0.186    24.5699 0.0000e+00
     -0.124      0.026    13.4164    188.978     48.649  48.344391     6.3000     2.3794     0.4260    16.9623 2.5639e+02    22.3172     -0.122     -0.177    24.6339 0.0000e+00
     -0.117      0.028    14.3913    187.715     48.646  48.324822     6.3000     2.3717     0.4260    16.9623 2.0149e+02    22.3022     -0.115     -0.167    24.6726 0.0000e+00
     -0.110      0.030    15.1207    184.508     48.644  48.305193     6.3000     2.5777     0.4260    16.9623 2.1557e+02    22.9034     -0.108     -0.157    24.6905 0.0000e+00
     -0.102      0.033    15.5583    180.421     48.636  48.278287     6.3000     2.5854     0.4260    16.9623 2.2296e+02    22.9184     -0.100     -0.145    24.6914 0.0000e+00
     -0.093      0.036    15.7035    176.252     48.624  48.244855     6.4800     2.5739     0.4260    17.0469 2.0135e+02    22.8433     -0.091     -0.133    24.6805 0.0000e+00
     -0.084      0.039    15.6037    172.456     48.607  48.201925     6.4800     2.5701     0.4260    17.0469 1.9005e+02    22.7982     -0.082     -0.120    24.6641 0.0000e+00
     -0.074      0.042    15.3425    169.236     48.589  48.153904     6.4800     2.6426     0.4260    17.0469 1.7840e+02    23.0537     -0.072     -0.105    24.6458 0.0000e+00
     -0.063      0.045    15.0081    166.641     48.591  48.119692     6.4800     2.6349     0.4260    17.0469 2.0843e+02    23.0236     -0.061     -0.090    24.6263 0.0000e+00
     -0.050      0.048    14.6674    164.651     48.611  48.102053     6.4800     2.6121     0.4260    17.3007 1.5731e+02    23.2341     -0.049     -0.072    24.6043 0.0000e+00
     -0.037      0.049    14.3586    163.223     48.635  48.092318     6.4800     2.6655     0.4260    17.3007 1.4078e+02    23.1288     -0.036     -0.053    24.5780 0.0000e+00
     -0.023      0.051    14.0988    162.308     48.648  48.079962     6.4800     2.8333     0.4260    17.3007 1.3567e+02    23.6248     -0.023     -0.033    24.5461 0.0000e+00
     -0.010      0.052    13.8923    161.835     48.630  48.045835     6.4800     2.8409     0.4260    17.3007 1.2081e+02    23.5948     -0.010     -0.014    24.5093 0.0000e+00
      0.003      0.053    13.7363    161.689     48.571  47.972910     6.4800     2.8333     0.4260    17.3007 1.2800e+02    23.5347      0.003      0.004    24.4708 0.0000e+00
      0.015      0.056    13.6262    161.696     48.459  47.833815     6.6600     2.8333     0.4686    18.0198 1.1875e+02    23.6248      0.015      0.022    24.4357 0.0000e+00
      0.028      0.061    13.5566    161.670     48.261  47.579571     6.6600     2.8791     0.4686    18.0198 1.2813e+02    22.5727      0.028      0.040    24.4093 0.0000e+00
      0.043      0.068    13.5218    161.455     47.943  47.154268     6.6600     2.8905     0.4686    18.0198 1.2612e+02    22.5126      0.042      0.061    24.3916 0.0000e+00
      0.060      0.078    13.5138    160.968     47.497  46.527723     6.6600     2.8867     0.4686    18.0198 1.1676e+02    22.6328      0.059      0.086    24.3749 0.0000e+00
      0.081      0.090    13.5221    160.223     47.060  45.828106     6.6600     2.8829     0.4686    18.1467 1.0799e+02    22.6028      0.079      0.115    24.3447 0.0000e+00
      0.105      0.101    13.5360    159.401     46.829  45.277030     6.6600     3.4551     0.4686    18.1467 1.0616e+02    27.1569      0.103      0.150    24.2814 0.0000e+00
      0.134      0.111    13.5483    158.903     46.778  44.897929     6.6600     3.4284     0.4686    18.1467 8.1842e+01    27.1118      0.131      0.190    24.1619 0.0000e+00
      0.166      0.119    13.5582    159.143     46.761  44.587709     6.6600     3.4322     0.4686    18.1467 5.9671e+01    27.2321      0.162      0.236    23.9625 0.0000e+00
      0.200      0.123    13.5686    160.292     46.709  44.297313     7.2900     3.4284     0.4686    20.3886 4.8583e+01    27.0968      0.196      0.284    23.6754 0.0000e+00
      0.233      0.124    13.5877    162.239     46.567  43.975051     7.2900     3.5581     0.4686    20.3886 4.0991e+01    27.4275      0.229      0.332    23.3298 0.0000e+00
      0.266      0.122    13.6363    164.669     46.265  43.542906     7.2900     3.5581     0.4686    20.3886 3.6843e+01    27.5477      0.261      0.378    22.9791 0.0000e+00
      0.296      0.119    13.7396    167.146     45.751  42.935169     7.2900     3.5734     0.4686    20.3886 3.4189e+01    27.3974      0.291      0.421    22.6653 0.0000e+00
      0.325      0.117    13.9079    169.165     45.014  42.120541     7.5600     3.5657     0.4686    21.9114 3.2735e+01    27.3824      0.319      0.463    22.4066 0.0000e+00
      0.353      0.116    14.1319    170.194     44.132  41.161135     7.5600     3.0965     0.4686    21.9114 3.1166e+01    24.3012      0.346      0.502    22.2029 0.0000e+00
      0.381      0.117    14.3875    169.746     43.190  40.133939     7.5600     3.1385     0.4686    21.9114 2.8195e+01    24.3162      0.374      0.543    22.0413 0.0000e+00
      0.410      0.119    14.6423    167.466     42.170  39.026524     7.5600     3.1118     0.4686    21.9114 2.6745e+01    24.3463      0.403      0.584    21.9010 0.0000e+00
      0.441      0.122    14.8577    163.164     41.137  37.894192     7.5600     3.1270     0.4686    21.9114 2.3748e+01    24.3763      0.432      0.627    21.7598 0.0000e+00
      0.473      0.126    14.9907    156.753     40.240  36.876693     7.2900     2.6578     0.4260    20.3040 2.1405e+01    15.0877      0.464      0.673    21.6033 0.0000e+00
      0.506      0.129    14.9983    148.218     39.559  36.053263     7.2900     2.6311     0.4260    20.3040 1.8961e+01    14.9675      0.496      0.719    21.4284 0.0000e+00
      0.539      0.131    14.8478    137.630     39.102  35.441977     7.2900     2.6273     0.4260    20.3040 1.6169e+01    15.0877      0.529      0.767    21.2356 0.0000e+00
      0.573      0.133    14.5216    125.202     38.833  35.022409     7.2900     2.6235     0.4260    20.3040 1.4807e+01    14.9825      0.562      0.816    21.0213 0.0000e+00
      0.607      0.135    14.0098    111.356     38.703  34.751983     6.4800     2.4595     0.3408    15.0165 1.3219e+01     8.3843      0.596      0.864    20.7853 0.0000e+00
      0.642      0.137    13.3060     96.708     38.681  34.602148     6.4800     2.4671     0.3408    15.0165 1.1646e+01     8.2941      0.630      0.913    20.5381 0.0000e+00
      0.677      0.139    12.4097     82.006     38.750  34.552747     6.4800     2.4671     0.3408    15.0165 1.0307e+01     8.3392      0.664      0.963    20.2961 0.0000e+00
      0.712      0.142    11.3347     68.017     38.884  34.574761     6.4800     2.4595     0.3408    15.0165 9.1560e+00     8.4143      0.698      1.013    20.0751 0.0000e+00
      0.749      0.145    10.1169     55.413     39.054  34.638409     5.4900     2.9783     0.2130     7.6140 8.0351e+00     7.2420      0.734      1.065    19.8829 0.0000e+00
      0.786      0.148     8.8128     44.682     39.230  34.715112     5.4900     2.9516     0.2130     7.6140 6.9043e+00     7.1217      0.771      1.118    19.7187 0.0000e+00
      0.825      0.150     7.4926     36.052     39.400  34.791653     5.4900     2.9516     0.2130     7.6140 5.8152e+00     7.1518      0.809      1.174    19.5781 0.0000e+00
      0.864      0.151     6.2287     29.492     39.574  34.876558     5.4900     2.9592     0.2130     7.6140 4.7511e+00     7.2720      0.848      1.230    19.4551 0.0000e+00
      0.904      0.151     5.0852     24.774     39.747  34.962760     4.9500     2.1428     0.1704     4.4838 3.8902e+00     5.3332      0.887      1.286    19.3441 0.0000e+00
      0.943      0.150     4.1088     21.579     39.900  35.031652     4.9500     2.1505     0.1704     4.4838 3.5041e+00     5.2730      0.925      1.341    19.2426 0.0000e+00
      0.981      0.149     3.3219     19.551     40.018  35.071898     4.9500     2.1390     0.1704     4.4838 3.2034e+00     5.2881      0.962      1.395    19.1496 0.0000e+00
      1.018      0.147     2.7229     18.335     40.093  35.076402     4.9500     2.1505     0.1704     4.4838 2.9966e+00     5.2730      0.998      1.448    19.0629 0.0000e+00
      1.055      0.146     2.2921     17.648     40.125  35.044382     4.9500     1.6393     0.1704     4.4838 2.7406e+00     3.5596      1.035      1.500    18.9790 0.0000e+00
      1.092      0.145     2.0009     17.321     40.126  34.985123     4.7700     1.6355     0.1278     2.3265 2.5114e+00     3.6648      1.071      1.553    18.8965 0.0000e+00
      1.129      0.145     1.8168     17.288     40.114  34.914507     4.7700     1.6431     0.1278     2.3265 2.2913e+00     3.6648      1.107      1.605    18.8167 0.0000e+00
      1.166      0.144     1.7074     17.543     40.096  34.841426     4.7700     1.6584     0.1278     2.3265 2.1453e+00     3.6798      1.143      1.658    18.7400 0.0000e+00
      1.203      0.144     1.6467     18.087     40.081  34.774118     4.7700     1.4714     0.1278     2.3265 1.9986e+00     2.8983      1.179      1.711    18.6647 0.0000e+00
      1.239      0.143     1.6192     18.914     40.071  34.716415     4.6800     1.4791     0.1278     1.3536 1.9169e+00     3.0185      1.216      1.763    18.5895 0.0000e+00
      1.276      0.142     1.6191     20.014     40.063  34.664812     4.6800     1.4791     0.1278     1.3536 1.7839e+00     2.9283      1.251      1.815    18.5149 0.0000e+00
      1.312      0.141     1.6457     21.364     40.052  34.615448     4.6800     1.4600     0.1278     1.3536 1.6951e+00     2.9133      1.287      1.866    18.4429 0.0000e+00
      1.348      0.140     1.6994     22.915     40.036  34.563079     4.6800     1.3494     0.1278     1.3536 1.6279e+00     2.4925      1.322      1.917    18.3755 0.0000e+00
      1.383      0.139     1.7795     24.586     40.023  34.513544     4.6800     1.3379     0.0852     1.0152 1.5202e+00     2.5526      1.357      1.968    18.3138 0.0000e+00
      1.419      0.138     1.8853     26.282     40.026  34.473438     4.6800     1.3494     0.0852     1.0152 1.4692e+00     2.5977      1.391      2.018    18.2583 0.0000e+00
      1.454      0.137     2.0147     27.908     40.029  34.428101     4.6800     1.3379     0.0852     1.0152 1.3988e+00     2.4925      1.426      2.068    18.2083 0.0000e+00
      1.488      0.136     2.1630     29.381     40.016  34.365444     4.6800     0.8763     0.0852     1.0152 1.2880e+00     2.1017      1.460      2.117    18.1609 0.0000e+00
      1.523      0.136     2.3231     30.623     39.991  34.288559     4.5900     0.8687     0.0852     0.8037 1.2660e+00     2.0716      1.494      2.166    18.1122 0.0000e+00
      1.557      0.135     2.4860     31.567     39.958  34.202687     4.5900     0.8496     0.0852     0.8037 1.2249e+00     2.0265      1.527      2.215    18.0589 0.0000e+00
      1.592      0.135     2.6430     32.167     39.925  34.116614     4.5900     0.8496     0.0852     0.8037 1.1869e+00     1.9965      1.561      2.264    17.9996 0.0000e+00
      1.626      0.134     2.7860     32.411     39.899  34.037089     4.5900     0.7009     0.0852     0.8037 1.1524e+00     1.7560      1.595      2.313    17.9347 0.0000e+00
      1.661      0.134     2.9078     32.325     39.876  33.962707     4.5900     0.6856     0.0852     0.8037 1.1017e+00     1.7860      1.629      2.362    17.8656 0.0000e+00
      1.695      0.133     3.0016     31.958     39.852  33.889474     4.5000     0.6742     0.0426     0.6345 1.0834e+00     1.6959      1.662      2.411    17.7937 0.0000e+00
      1.728      0.131     3.0629     31.376     39.820  33.813702     4.5000     0.6742     0.0426     0.6345 1.0624e+00     1.8462      1.695      2.458    17.7209 0.0000e+00
      1.761      0.130     3.0904     30.643     39.778  33.731028     4.5000     0.6284     0.0426     0.6345 1.0342e+00     1.2750      1.728      2.506    17.6494 0.0000e+00
      1.794      0.130     3.0863     29.827     39.717  33.635244     4.5000     0.6513     0.0426     0.6345 1.0080e+00     1.3351      1.760      2.553    17.5806 0.0000e+00
      1.827      0.129     3.0552     28.982     39.637  33.522593     4.4100     0.6208     0.0426     0.5076 9.3844e-01     1.1999      1.792      2.599    17.5150 0.0000e+00
      1.860      0.129     3.0032     28.153     39.551  33.402638     4.4100     0.6169     0.0426     0.5076 9.6009e-01     1.3351      1.824      2.645    17.4530 0.0000e+00
      1.892      0.129     2.9365     27.375     39.473  33.284978     4.4100     0.5483     0.0426     0.5076 9.2729e-01     1.3051      1.856      2.692    17.3944 0.0000e+00
      1.926      0.129     2.8615     26.673     39.396  33.161999     4.4100     0.5712     0.0426     0.5076 9.0953e-01     1.3201      1.888      2.739    17.3379 0.0000e+00
      1.959      0.129     2.7837     26.054     39.318  33.030608     4.2300     0.5445     0.0426     0.3384 8.1606e-01     1.3201      1.921      2.787    17.2813 0.0000e+00
      1.993      0.127     2.7073     25.513     39.255  32.903293     4.2300     0.5673     0.0426     0.3384 7.9627e-01     1.2901      1.954      2.834    17.2218 0.0000e+00
      2.026      0.125     2.6361     25.026     39.216  32.789667     4.2300     0.4987     0.0426     0.3384 7.8289e-01     1.2901      1.986      2.881    17.1568 0.0000e+00
      2.058      0.121     2.5724     24.554     39.194  32.687150     4.2300     0.5063     0.0426     0.3384 7.3523e-01     1.2299      2.018      2.927    17.0834 0.0000e+00
      2.088      0.117     2.5171     24.044     39.180  32.590183     4.2300     0.5101     0.0426     0.3384 7.0996e-01     1.2450      2.048      2.970    16.9991 0.0000e+00
      2.117      0.112     2.4696     23.438     39.176  32.500629     4.1400     0.4949     0.0426     0.2115 6.8495e-01     1.3051      2.076      3.012    16.9042 0.0000e+00
      2.145      0.106     2.4277     22.695     39.181  32.422326     4.1400     0.4415     0.0426     0.2115 7.0703e-01     1.5907      2.103      3.051    16.8017 0.0000e+00
      2.172      0.100     2.3872     21.789     39.195  32.358154     4.1400     0.4376     0.0426     0.2115 6.9424e-01     1.6508      2.129      3.089    16.6950 0.0000e+00
      2.197      0.094     2.3428     20.712     39.222  32.316738     4.1400     0.4643     0.0426     0.2115 7.0734e-01     1.4854      2.154      3.125    16.5861 0.0000e+00
      2.220      0.088     2.2890     19.505     39.253  32.289014     4.0500     0.4376     0.0426     0.1269 6.8644e-01     1.5155      2.177      3.158    16.4767 0.0000e+00
      2.242      0.083     2.2212     18.250     39.258  32.249763     4.0500     0.4567     0.0426     0.1269 6.6385e-01     1.7259      2.198      3.189    16.3709 0.0000e+00
      2.262      0.078     2.1367     17.042     39.250  32.204361     4.0500     0.4300     0.0426     0.1269 6.3094e-01     1.5756      2.218      3.217    16.2749 0.0000e+00
      2.280      0.074     2.0346     15.965     39.261  32.176342     4.0500     0.4262     0.0426     0.1269 6.1537e-01     1.5155      2.236      3.243    16.1931 0.0000e+00
      2.298      0.072     1.9187     15.078     39.295  32.164176     3.8700     0.4491     0.0426     0.1692 6.5611e-01     1.5907      2.253      3.268    16.1258 0.0000e+00
      2.315      0.071     1.7974     14.408     39.329  32.148773     3.8700     0.4491     0.0426     0.1692 6.4354e-01     1.5305      2.270      3.292    16.0702 0.0000e+00
      2.332      0.072     1.6802     13.939     39.363  32.129987     3.8700     0.4300     0.0426     0.1692 6.6169e-01     1.5606      2.287      3.317    16.0213 0.0000e+00
      2.350      0.076     1.5757     13.616     39.413  32.122608     3.8700     0.4224     0.0426     0.1692 6.4719e-01     1.6508      2.305      3.343    15.9738 0.0000e+00
      2.369      0.081     1.4898     13.350     39.483  32.128626     3.8700     0.4491     0.0426     0.2538 6.4354e-01     1.5907      2.324      3.370    15.9233 0.0000e+00
      2.390      0.087     1.4253     13.041     39.570  32.141725     3.8700     0.3652     0.0426     0.2538 6.7096e-01     1.7860      2.344      3.399    15.8683 0.0000e+00
      2.412      0.094     1.3807     12.604     39.669  32.157475     3.8700     0.3881     0.0426     0.2538 6.3589e-01     1.9514      2.366      3.431    15.8100 0.0000e+00
      2.437      0.101     1.3504     11.990     39.778  32.176112     3.8700     0.4148     0.0426     0.2538 6.5539e-01     1.6959      2.390      3.467    15.7490 0.0000e+00
      2.465      0.108     1.3258     11.179     39.904  32.202605     3.8700     0.3728     0.0426     0.2538 6.4326e-01     1.7109      2.417      3.506    15.6840 0.0000e+00
      2.494      0.114     1.2970     10.177     40.055  32.244015     3.8700     0.3881     0.0426     0.2961 6.2616e-01     2.1768      2.446      3.548    15.6117 0.0000e+00
      2.525      0.118     1.2555      9.020     40.247  32.311382     3.8700     0.3919     0.0426     0.2961 6.2643e-01     2.2820      2.476      3.591    15.5313 0.0000e+00
      2.556      0.120     1.1963      7.760     40.477  32.404846     3.8700     0.4224     0.0426     0.2961 5.8207e-01     2.2971      2.507      3.636    15.4437 0.0000e+00
      2.587      0.120     1.1172      6.443     40.713  32.501800     3.8700     0.3804     0.0426     0.2961 5.9966e-01     2.3873      2.537      3.680    15.3495 0.0000e+00
      2.618      0.120     1.0189      5.105     40.924  32.582551     3.8700     0.6284     0.0426     0.2115 6.0832e-01     2.9133      2.568      3.725    15.2490 0.0000e+00
      2.650      0.118     0.9047      3.772     41.108  32.648824     3.8700     0.6360     0.0426     0.2115 5.4380e-01     3.0185      2.599      3.769    15.1419 0.0000e+00
      2.680      0.116     0.7798      2.462     41.270  32.706410     3.8700     0.6169     0.0426     0.2115 5.8410e-01     3.0786      2.628      3.812    15.0295 0.0000e+00
      2.709      0.115     0.6486      1.198     41.421  32.762740     3.8700     0.6131     0.0426     0.2115 5.5033e-01     2.9133      2.657      3.853    14.9165 0.0000e+00
      2.737      0.115     0.5148      0.010     41.590  32.836795     3.8700     0.6208     0.0852     0.3807 5.6096e-01     3.1087      2.684      3.893    14.8089 0.0000e+00
      2.765      0.115     0.3807     -1.054     41.790  32.934459     3.8700     0.6436     0.0852     0.3807 5.3921e-01     3.1989      2.712      3.933    14.7112 0.0000e+00
      2.794      0.117     0.2485     -1.936     41.982  33.024345     3.8700     0.6284     0.0852     0.3807 5.6721e-01     3.0786      2.740      3.974    14.6248 0.0000e+00
      2.824      0.118     0.1203     -2.587     42.112  33.065070     3.8700     0.6284     0.0852     0.3807 5.3061e-01     3.2139      2.770      4.017    14.5477 0.0000e+00
      2.856      0.119    -0.0004     -2.983     42.159  33.045709     3.8700     0.4491     0.0852     0.5076 4.9896e-01     3.9203      2.801      4.062    14.4755 0.0000e+00
      2.888      0.118    -0.1088     -3.123     42.141  32.982880     3.8700     0.4376     0.0852     0.5076 5.1864e-01     3.9053      2.832      4.107    14.4035 0.0000e+00
      2.918      0.116    -0.1990     -3.030     42.083  32.899432     3.8700     0.4453     0.0852     0.5076 4.7474e-01     3.9354      2.862      4.151    14.3299 0.0000e+00
      2.948      0.113    -0.2658     -2.756     42.017  32.816678     3.8700     0.4529     0.0852     0.5076 5.2831e-01     3.7550      2.891      4.193    14.2566 0.0000e+00
      2.976      0.110    -0.3066     -2.358     41.964  32.748196     3.8700     0.4567     0.0852     0.5076 5.1092e-01     3.8903      2.918      4.232    14.1887 0.0000e+00
      3.003      0.107    -0.3211     -1.889     41.933  32.697505     3.9600     0.4262     0.0852     0.4230 4.7453e-01     3.8752      2.945      4.271    14.1314 0.0000e+00
      3.029      0.105    -0.3118     -1.389     41.933  32.666931     3.9600     0.4224     0.0852     0.4230 4.6879e-01     3.8903      2.970      4.309    14.0856 0.0000e+00
      3.055      0.104    -0.2836     -0.883     41.956  32.646339     3.9600     0.4643     0.0852     0.4230 4.8665e-01     3.9203      2.996      4.345    14.0483 0.0000e+00
      3.081      0.104    -0.2428     -0.387     41.976  32.608455     3.9600     0.3728     0.0852     0.4230 4.7145e-01     4.1458      3.021      4.382    14.0158 0.0000e+00
      3.107      0.105    -0.1945      0.090     42.003  32.549116     3.9600     0.3652     0.1278     0.2961 4.6951e-01     4.1608      3.047      4.419    13.9843 0.0000e+00
      3.134      0.107    -0.1429      0.540     42.093  32.502004     3.9600     0.3652     0.1278     0.2961 4.4827e-01     4.0857      3.073      4.457    13.9487 0.0000e+00
      3.162      0.108    -0.0907      0.952     42.274  32.494156     3.9600     0.3423     0.1278     0.2961 4.6282e-01     4.1458      3.101      4.497    13.9033 0.0000e+00
      3.190      0.108    -0.0394      1.325     42.503  32.515552     3.9600     0.3346     0.1278     0.2961 4.2254e-01     5.0927      3.128      4.537    13.8407 0.0000e+00
      3.218      0.107     0.0102      1.659     42.719  32.540204     4.0500     0.3003     0.1278     0.2115 4.2781e-01     5.0476      3.156      4.577    13.7464 0.0000e+00
      3.246      0.105     0.0571      1.954     42.894  32.558838     4.0500     0.3232     0.1278     0.2115 4.0352e-01     5.0927      3.183      4.617    13.6083 0.0000e+00
      3.273      0.102     0.1004      2.208     43.056  32.592261     4.0500     0.3308     0.1278     0.2115 3.8235e-01     5.1227      3.210      4.655    13.4351 0.0000e+00
      3.298      0.100     0.1398      2.413     43.237  32.661267     4.0500     0.3385     0.1278     0.2115 4.0536e-01     5.1378      3.235      4.691    13.2534 0.0000e+00
      3.323      0.098     0.1753      2.569     43.465  32.776333     4.0500     0.3156     0.0852     0.2115 3.6119e-01     5.0175      3.258      4.726    13.0886 0.0000e+00
      3.346      0.097     0.2068      2.685     43.764  32.946362     4.0500     0.3346     0.0852     0.2115 3.7649e-01     5.0476      3.282      4.759    12.9535 0.0000e+00
      3.370      0.098     0.2340      2.775     44.100  33.139460     4.0500     0.3423     0.0852     0.2115 3.4583e-01     5.1378      3.305      4.793    12.8496 0.0000e+00
      3.395      0.100     0.2560      2.839     44.404  33.306122     4.0500     0.3156     0.0852     0.2115 3.1918e-01     5.8292      3.329      4.828    12.7702 0.0000e+00
      3.421      0.101     0.2728      2.882     44.645  33.429399     4.0500     0.3156     0.0852     0.2115 3.2754e-01     5.7540      3.354      4.865    12.7048 0.0000e+00
      3.448      0.101     0.2855      2.908     44.807  33.504534     4.0500     0.3156     0.1278     0.1269 2.9471e-01     5.8893      3.381      4.904    12.6417 0.0000e+00
      3.475      0.099     0.2953      2.927     44.887  33.533738     4.0500     0.3499     0.1278     0.1269 2.9529e-01     5.8141      3.408      4.943    12.5737 0.0000e+00
      3.502      0.095     0.3026      2.947     44.917  33.542621     4.0500     0.2164     0.1278     0.1269 3.1382e-01     6.0245      3.434      4.980    12.5034 0.0000e+00
      3.525      0.090     0.3076      2.970     44.950  33.567217     4.0500     0.2851     0.1278     0.1269 2.9969e-01     6.0095      3.457      5.014    12.4386 0.0000e+00
      3.547      0.086     0.3108      2.990     45.024  33.625970     4.1400     0.2355     0.1704     0.1692 2.8957e-01     6.0847      3.479      5.045    12.3863 0.0000e+00
      3.567      0.082     0.3130      3.003     45.142  33.708803     4.1400     0.2622     0.1704     0.1692 2.5617e-01     6.1598      3.498      5.073    12.3514 0.0000e+00
      3.586      0.081     0.3152      3.010     45.278  33.790278     4.1400     0.2355     0.1704     0.1692 2.9826e-01     6.0245      3.517      5.100    12.3360 0.0000e+00
      3.605      0.083     0.3176      3.010     45.411  33.858451     4.1400     0.2584     0.1704     0.1692 3.0474e-01     5.9494      3.536      5.128    12.3360 0.0000e+00
      3.626      0.086     0.3197      3.000     45.542  33.923581     4.1400     0.2584     0.1704     0.1692 2.4453e-01     6.1147      3.556      5.157    12.3397 0.0000e+00
      3.648      0.090     0.3211      2.982     45.685  33.999071     4.1400     0.2469     0.1704     0.1692 2.9491e-01     5.9193      3.578      5.189    12.3338 0.0000e+00
      3.672      0.095     0.3220      2.954     45.836  34.081287     4.1400     0.2507     0.1704     0.1692 2.7414e-01     6.9564      3.602      5.223    12.3118 0.0000e+00
      3.698      0.099     0.3223      2.916     45.984  34.156506     4.1400     0.2469     0.1704     0.1692 2.3819e-01     7.0316      3.626      5.259    12.2780 0.0000e+00
      3.724      0.104     0.3215      2.875     46.127  34.219038     4.1400     0.2469     0.1704     0.1269 2.2311e-01     6.9865      3.652      5.297    12.2421 0.0000e+00
      3.750      0.109     0.3198      2.842     46.250  34.253873     4.1400     0.2355     0.1704     0.1269 2.3571e-01     6.9564      3.678      5.334    12.2087 0.0000e+00
      3.778      0.114     0.3171      2.825     46.336  34.248511     4.1400     0.2164     0.1704     0.1269 2.2320e-01     7.9033      3.705      5.373    12.1755 0.0000e+00
      3.807      0.119     0.3132      2.850     46.386  34.209442     4.1400     0.2088     0.1704     0.1269 2.4152e-01     7.8582      3.733      5.415    12.1377 0.0000e+00
      3.838      0.123     0.3092      2.959     46.403  34.144069     4.1400     0.2164     0.1704     0.1269 1.9780e-01     7.9183      3.764      5.459    12.0903 0.0000e+00
      3.872      0.126     0.3062      3.215     46.401  34.066643     4.2300     0.1821     0.1704     0.1692 2.0294e-01     7.9033      3.797      5.507    12.0289 0.0000e+00
      3.906      0.128     0.3050      3.710     46.394  33.990182     4.2300     0.1897     0.1704     0.1692 1.9175e-01     7.2270      3.831      5.556    11.9544 0.0000e+00
      3.940      0.129     0.3083      4.564     46.377  33.914097     4.2300     0.2126     0.1704     0.1692 1.8722e-01     7.1819      3.864      5.604    11.8723 0.0000e+00
      3.972      0.128     0.3209      5.890     46.351  33.837902     4.2300     0.1973     0.1704     0.1692 1.8722e-01     7.1969      3.896      5.650    11.7882 0.0000e+00
      4.004      0.128     0.3495      7.772     46.309  33.757119     4.0500     0.2011     0.1704     0.1692 1.7586e-01     7.1368      3.927      5.696    11.7058 0.0000e+00
      4.036      0.127     0.4043     10.249     46.245  33.664067     4.0500     0.1439     0.1704     0.1692 1.8256e-01     7.4674      3.958      5.741    11.6289 0.0000e+00
      4.068      0.128     0.4982     13.313     46.155  33.553736     4.0500     0.1210     0.1704     0.1692 1.6164e-01     7.4674      3.990      5.786    11.5598 0.0000e+00
      4.100      0.130     0.6438     16.921     46.044  33.426409     4.0500     0.1439     0.1704     0.1692 1.6063e-01     7.4073      4.021      5.832    11.4985 0.0000e+00
      4.133      0.133     0.8505     21.005     45.933  33.295659     4.0500     0.1363     0.1704     0.0846 1.7056e-01     7.4223      4.053      5.879    11.4441 0.0000e+00
      4.168      0.136     1.1227     25.481     45.833  33.168206     4.0500     0.1363     0.1704     0.0846 1.4415e-01     6.8362      4.087      5.928    11.3941 0.0000e+00
      4.203      0.138     1.4597     30.282     45.747  33.049668     4.0500     0.1172     0.1704     0.0846 1.3999e-01     6.7610      4.122      5.978    11.3454 0.0000e+00
      4.239      0.139     1.8571     35.383     45.696  32.957940     4.0500     0.1210     0.1704     0.0846 1.3215e-01     6.6258      4.157      6.030    11.2948 0.0000e+00
      4.276      0.139     2.3077     40.803     45.673  32.892323     4.0500     0.1210     0.1704     0.0846 1.2811e-01     6.7761      4.193      6.082    11.2398 0.0000e+00
      4.311      0.139     2.8028     46.569     45.657  32.839277     3.9600     0.1439     0.1704     0.1269 1.4017e-01     5.7540      4.228      6.132    11.1803 0.0000e+00
      4.346      0.139     3.3350     52.660     45.646  32.796539     3.9600     0.1286     0.1704     0.1269 1.2368e-01     5.8442      4.262      6.182    11.1187 0.0000e+00
      4.380      0.139     3.9012     58.970     45.637  32.760632     3.9600     0.1668     0.1704     0.1269 1.2648e-01     5.8742      4.296      6.231    11.0593 0.0000e+00
      4.415      0.140     4.5033     65.303     45.620  32.721979     3.9600     0.1668     0.1704     0.1269 1.2200e-01     5.8292      4.330      6.280    11.0058 0.0000e+00
      4.451      0.142     5.1441     71.402     45.598  32.680174     3.8700     0.1134     0.1278     0.1269 1.1681e-01     5.6037      4.365      6.331    10.9603 0.0000e+00
      4.487      0.145     5.8211     76.990     45.585  32.643871     3.8700     0.1286     0.1278     0.1269 1.1617e-01     5.5586      4.401      6.383    10.9223 0.0000e+00
      4.525      0.146     6.5226     81.839     45.586  32.617252     3.8700     0.1439     0.1278     0.1269 1.1617e-01     5.5286      4.438      6.436    10.8901 0.0000e+00
      4.563      0.148     7.2271     85.819     45.600  32.601136     3.8700     0.1401     0.1278     0.1269 1.1625e-01     5.5736      4.475      6.491    10.8610 0.0000e+00
      4.602      0.148     7.9066     88.938     45.619  32.591227     3.8700     0.1363     0.1278     0.1269 1.1617e-01     5.3332      4.513      6.546    10.8323 0.0000e+00
      4.640      0.148     8.5307     91.318     45.626  32.576959     3.8700     0.1325     0.1278     0.1269 1.1620e-01     5.2580      4.550      6.600    10.8029 0.0000e+00
      4.677      0.147     9.0736     93.135     45.617  32.554527     3.8700     0.1592     0.1278     0.1269 1.1605e-01     5.2881      4.587      6.653    10.7731 0.0000e+00
      4.715      0.147     9.5207     94.553     45.605  32.533790     3.8700     0.1515     0.1278     0.1269 1.1617e-01     5.3332      4.624      6.706    10.7445 0.0000e+00
      4.752      0.146     9.8720     95.685     45.607  32.525062     3.7800     0.1515     0.1278     0.1269 1.1623e-01     5.3181      4.660      6.758    10.7189 0.0000e+00
      4.789      0.146    10.1408     96.582     45.619  32.526014     3.7800     0.1401     0.1278     0.1269 1.1623e-01     5.3632      4.696      6.811    10.6975 0.0000e+00
      4.826      0.146    10.3463     97.239     45.632  32.528979     3.7800     0.1401     0.1278     0.1269 1.1597e-01     5.2430      4.733      6.864    10.6801 0.0000e+00
      4.863      0.145    10.5069     97.608     45.635  32.526826     3.7800     0.1401     0.1278     0.1269 1.1623e-01     5.2279      4.769      6.917    10.6664 0.0000e+00
      4.901      0.143    10.6351     97.642     45.628  32.518981     3.7800     0.1477     0.1278     0.1269 1.1610e-01     5.3632      4.806      6.971    10.6556 0.0000e+00
      4.938      0.139    10.7369     97.330     45.620  32.511272     3.7800     0.1592     0.1278     0.0846 1.1625e-01     5.3933      4.843      7.024    10.6469 0.0000e+00
      4.975      0.133    10.8114     96.706     45.615  32.505605     3.7800     0.1134     0.1278     0.0846 1.1605e-01     5.4384      4.879      7.076    10.6403 0.0000e+00
      5.009      0.124    10.8537     95.838     45.610  32.500468     3.7800     0.1439     0.1278     0.0846 1.1615e-01     5.3482      4.912      7.125    10.6356 0.0000e+00
      5.040      0.113    10.8583     94.790     45.602  32.494492     3.7800     0.1668     0.1278     0.0846 1.1612e-01     5.0476      4.943      7.170    10.6323 0.0000e+00
      5.069      0.100    10.8241     93.630     45.594  32.490043     3.7800     0.1477     0.0852     0.0846 1.1607e-01     5.1829      4.971      7.210    10.6298 0.0000e+00
      5.093      0.086    10.7553     92.432     45.595  32.493855     3.7800     0.1515     0.0852     0.0846 1.1628e-01     5.0476      4.994      7.244    10.6276 0.0000e+00
      5.112      0.073    10.6591     91.244     45.609  32.506947     3.7800     0.1401     0.0852     0.0846 1.1628e-01     5.1829      5.013      7.271    10.6263 0.0000e+00
      5.128      0.060    10.5425     90.095     45.622  32.520926     3.7800     0.1515     0.0852     0.0846 1.1628e-01     5.3933      5.029      7.294    10.6263 0.0000e+00
      5.140      0.050    10.4132     88.991     45.626  32.527641     3.7800     0.1134     0.1278     0.1269 1.1615e-01     5.3181      5.041      7.312    10.6277 0.0000e+00
      5.151      0.042    10.2793     87.929     45.617  32.524920     3.7800     0.1286     0.1278     0.1269 1.1602e-01     5.3332      5.051      7.326    10.6305 0.0000e+00
      5.160      0.035    10.1463     86.911     45.602  32.515999     3.7800     0.1134     0.1278     0.1269 1.1615e-01     5.3632      5.060      7.339    10.6344 0.0000e+00
      5.167      0.031    10.0174     85.944     45.586  32.506420     3.7800     0.1286     0.1278     0.1269 1.1610e-01     5.0626      5.068      7.350    10.6389 0.0000e+00
      5.174      0.028     9.8936     85.027     45.572  32.497591     3.7800     0.1515     0.1278     0.0846 1.1630e-01     5.0476      5.074      7.359    10.6434 0.0000e+00
      5.181      0.027     9.7747     84.160     45.562  32.491116     3.7800     0.1325     0.1278     0.0846 1.1610e-01     5.0927      5.081      7.369    10.6472 0.0000e+00
      5.187      0.027     9.6610     83.364     45.560  32.489229     3.7800     0.1286     0.1278     0.0846 1.1617e-01     5.0776      5.087      7.377    10.6497 0.0000e+00
      5.193      0.029     9.5531     82.666     45.559  32.487466     3.7800     0.1515     0.1278     0.0846 1.1625e-01     5.0776      5.093      7.387    10.6514 0.0000e+00
      5.200      0.031     9.4509     82.078     45.558  32.485359     3.7800     0.1210     0.1278     0.0846 1.1623e-01     5.0476      5.100      7.397    10.6525 0.0000e+00
      5.208      0.035     9.3545     81.600     45.562  32.486305     3.7800     0.1515     0.1278     0.0846 1.1623e-01     5.0476      5.108      7.408    10.6531 0.0000e+00
      5.217      0.040     9.2659     81.232     45.571  32.490556     3.7800     0.1439     0.1278     0.0846 1.1625e-01     5.1378      5.116      7.421    10.6529 0.0000e+00
      5.227      0.046     9.1886     80.968     45.587  32.499246     3.7800     0.1630     0.1278     0.0846 1.1630e-01     4.9875      5.126      7.435    10.6519 0.0000e+00
      5.239      0.054     9.1236     80.792     45.609  32.510732     3.7800     0.1286     0.1278     0.0846 1.1600e-01     5.1378      5.138      7.452    10.6503 0.0000e+00
      5.253      0.063     9.0708     80.679     45.630  32.520155     3.7800     0.1515     0.1278     0.1269 1.1612e-01     5.0927      5.151      7.471    10.6484 0.0000e+00
      5.270      0.073     9.0304     80.603     45.640  32.522106     3.7800     0.1592     0.1278     0.1269 1.1625e-01     5.1378      5.168      7.495    10.6461 0.0000e+00
      5.290      0.082     9.0018     80.551     45.639  32.517107     3.7800     0.1325     0.1278     0.1269 1.1623e-01     5.3031      5.188      7.525    10.6429 0.0000e+00
      5.314      0.090     8.9832     80.525     45.636  32.511743     3.7800     0.1286     0.1278     0.1269 1.1638e-01     5.3482      5.211      7.558    10.6381 0.0000e+00
      5.339      0.096     8.9719     80.529     45.634  32.508547     3.7800     0.1554     0.1278     0.0846 1.1612e-01     5.3031      5.236      7.594    10.6320 0.0000e+00
      5.365      0.100     8.9647     80.561     45.627  32.502704     3.7800     0.1515     0.1278     0.0846 1.1617e-01     5.3031      5.262      7.631    10.6261 0.0000e+00
      5.391      0.104     8.9599     80.619     45.613  32.492656     3.7800     0.1363     0.1278     0.0846 1.1633e-01     5.3933      5.287      7.668    10.6215 0.0000e+00
      5.417      0.106     8.9576     80.697     45.601  32.483646     3.7800     0.1363     0.1278     0.0846 1.1605e-01     5.2279      5.313      7.705    10.6184 0.0000e+00
      5.444      0.109     8.9584     80.784     45.593  32.477231     3.7800     0.1363     0.0852     0.0846 1.1612e-01     5.2580      5.339      7.743    10.6166 0.0000e+00
      5.472      0.112     8.9622     80.865     45.592  32.475661     3.7800     0.1477     0.0852     0.0846 1.1612e-01     5.3782      5.366      7.783    10.6155 0.0000e+00
      5.501      0.115     8.9687     80.925     45.597  32.478518     3.7800     0.1210     0.0852     0.0846 1.1605e-01     5.3782      5.395      7.825    10.6149 0.0000e+00
      5.532      0.118     8.9775     80.956     45.599  32.478641     3.7800     0.1286     0.0852     0.0846 1.1620e-01     5.0776      5.425      7.868    10.6143 0.0000e+00
      5.562      0.121     8.9874     80.957     45.596  32.476065     3.7800     0.1363     0.0852     0.0846 1.1615e-01     5.0776      5.455      7.911    10.6136 0.0000e+00
      5.593      0.123     8.9966     80.940     45.600  32.478022     3.7800     0.1248     0.1278     0.0846 1.1612e-01     5.0476      5.485      7.955    10.6129 0.0000e+00
      5.625      0.124     9.0035     80.919     45.611  32.485036     3.7800     0.1286     0.1278     0.0846 1.1623e-01     5.0025      5.516      8.001    10.6120 0.0000e+00
      5.658      0.125     9.0071     80.898     45.620  32.491053     3.7800     0.1210     0.1278     0.0846 1.1630e-01     5.1378      5.548      8.047    10.6110 0.0000e+00
      5.690      0.125     9.0074     80.873     45.624  32.493720     3.7800     0.1439     0.1278     0.0846 1.1615e-01     5.0476      5.580      8.093    10.6100 0.0000e+00
      5.722      0.125     9.0057     80.846     45.625  32.493746     3.7800     0.1172     0.1278     0.0846 1.1623e-01     5.0776      5.611      8.138    10.6092 0.0000e+00
      5.753      0.126     9.0035     80.816     45.621  32.491140     3.7800     0.1439     0.1278     0.0846 1.1635e-01     5.0326      5.642      8.183    10.6085 0.0000e+00
      5.785      0.127     9.0012     80.783     45.619  32.489166     3.7800     0.1325     0.1278     0.0846 1.1617e-01     5.1979      5.673      8.228    10.6079 0.0000e+00
      5.817      0.128     8.9986     80.745     45.622  32.491259     3.7800     0.1363     0.1278     0.0846 1.1602e-01     5.2430      5.704      8.273    10.6076 0.0000e+00
      5.850      0.130     8.9955     80.697     45.620  32.490055     3.7800     0.1592     0.1278     0.2115 1.1628e-01     5.1829      5.736      8.320    10.6074 0.0000e+00
      5.883      0.133     8.9923     80.640     45.608  32.481273     3.7800     0.1286     0.1278     0.2115 1.1610e-01     4.9574      5.769      8.367    10.6073 0.0000e+00
      5.917      0.135     8.9887     80.576     45.594  32.470492     3.7800     0.1363     0.1278     0.2115 1.1610e-01     4.9875      5.802      8.416    10.6072 0.0000e+00
      5.952      0.136     8.9844     80.519     45.578  32.458798     3.7800     0.1286     0.1278     0.2115 1.1612e-01     5.0476      5.837      8.466    10.6070 0.0000e+00
      5.988      0.136     8.9792     80.478     45.567  32.450993     3.7800     0.1363     0.0852     0.0423 1.1628e-01     5.0776      5.872      8.517    10.6068 0.0000e+00
      6.023      0.135     8.9729     80.454     45.571  32.452917     3.7800     0.1515     0.0852     0.0423 1.1638e-01     5.0776      5.907      8.567    10.6064 0.0000e+00
      6.058      0.132     8.9659     80.449     45.577  32.457163     3.7800     0.1401     0.0852     0.0423 1.1610e-01     4.9875      5.941      8.617    10.6059 0.0000e+00
      6.092      0.128     8.9597     80.463     45.577  32.456940     3.7800     0.1325     0.0852     0.0423 1.1615e-01     5.1077      5.974      8.665    10.6054 0.0000e+00
      6.124      0.124     8.9552     80.494     45.576  32.456151     3.7800     0.1592     0.0852     0.0423 1.1612e-01     4.9875      6.005      8.710    10.6050 0.0000e+00
      6.154      0.120     8.9527     80.532     45.579  32.458545     3.7800     0.1286     0.1278     0.1269 1.1623e-01     5.1227      6.035      8.754    10.6046 0.0000e+00
      6.184      0.118     8.9521     80.567     45.583  32.460801     3.7800     0.1592     0.1278     0.1269 1.1623e-01     5.1678      6.064      8.795    10.6042 0.0000e+00
      6.212      0.117     8.9538     80.595     45.576  32.455599     3.7800     0.1210     0.1278     0.1269 1.1610e-01     5.0776      6.092      8.835    10.6040 0.0000e+00
      6.241      0.117     8.9572     80.618     45.562  32.445511     3.7800     0.1134     0.1278     0.1269 1.1620e-01     5.0776      6.120      8.876    10.6040 0.0000e+00
      6.271      0.117     8.9614     80.638     45.555  32.439730     3.7800     0.1210     0.1278     0.1269 1.1612e-01     5.0476      6.149      8.919    10.6040 0.0000e+00
      6.302      0.116     8.9654     80.650     45.556  32.440673     3.7800     0.1134     0.1278     0.1269 1.1628e-01     5.1077      6.180      8.963    10.6039 0.0000e+00
      6.333      0.114     8.9686     80.654     45.567  32.448594     3.7800     0.1286     0.1278     0.1269 1.1625e-01     5.0776      6.210      9.008    10.6036 0.0000e+00
      6.363      0.110     8.9712     80.654     45.580  32.457682     3.7800     0.1477     0.1278     0.1269 1.1605e-01     4.9875      6.240      9.051    10.6031 0.0000e+00
      6.392      0.104     8.9735     80.649     45.581  32.458481     3.7800     0.1286     0.0852     0.1692 1.1617e-01     5.1378      6.268      9.091    10.6027 0.0000e+00
      6.417      0.097     8.9749     80.642     45.570  32.451202     3.7800     0.1210     0.0852     0.1692 1.1623e-01     4.9875      6.293      9.127    10.6024 0.0000e+00
      6.440      0.090     8.9753     80.631     45.556  32.441826     3.7800     0.1134     0.0852     0.1692 1.1600e-01     5.0476      6.316      9.160    10.6024 0.0000e+00
      6.461      0.084     8.9752     80.617     45.541  32.431814     3.7800     0.1515     0.0852     0.1692 1.1617e-01     5.1077      6.336      9.190    10.6025 0.0000e+00
      6.481      0.081     8.9747     80.610     45.526  32.422455     3.7800     0.1668     0.0852     0.1692 1.1617e-01     5.0776      6.356      9.218    10.6028 0.0000e+00
      6.500      0.080     8.9739     80.614     45.520  32.419175     3.7800     0.1325     0.1278     0.2115 1.1628e-01     5.3782      6.374      9.245    10.6032 0.0000e+00
      6.519      0.082     8.9725     80.619     45.528  32.425061     3.7800     0.1401     0.1278     0.2115 1.1615e-01     5.2430      6.393      9.272    10.6039 0.0000e+00
      6.539      0.086     8.9706     80.612     45.541  32.433761     3.7800     0.1325     0.1278     0.2115 1.1623e-01     5.2580      6.412      9.301    10.6049 0.0000e+00
      6.561      0.092     8.9696     80.588     45.551  32.439674     3.7800     0.1248     0.1278     0.2115 1.1625e-01     5.2730      6.434      9.332    10.6062 0.0000e+00
      6.585      0.097     8.9698     80.550     45.559  32.444375     3.7800     0.1897     0.1278     0.0846 1.1620e-01     5.3332      6.458      9.367    10.6073 0.0000e+00
      6.612      0.103     8.9703     80.504     45.567  32.449119     3.7800     0.2355     0.1278     0.0846 1.1612e-01     5.3332      6.484      9.405    10.6075 0.0000e+00
      6.640      0.107     8.9698     80.457     45.577  32.455171     3.7800     0.2126     0.1278     0.0846 1.1623e-01     5.3031      6.512      9.444    10.6067 0.0000e+00
      6.668      0.111     8.9673     80.422     45.585  32.460184     3.7800     0.1897     0.1278     0.0846 1.1617e-01     5.2881      6.539      9.484    10.6055 0.0000e+00
      6.697      0.114     8.9633     80.410     45.587  32.461533     3.7800     0.1439     0.1278     0.0846 1.1617e-01     5.3332      6.567      9.525    10.6043 0.0000e+00
      6.726      0.116     8.9584     80.422     45.585  32.459580     3.7800     0.1592     0.1278     0.0846 1.1612e-01     5.3782      6.596      9.567    10.6033 0.0000e+00
      6.756      0.118     8.9534     80.458     45.582  32.457764     3.7800     0.1439     0.1278     0.0846 1.1625e-01     5.3632      6.625      9.609    10.6025 0.0000e+00
      6.786      0.120     8.9496     80.512     45.585  32.459560     3.7800     0.1515     0.1278     0.0846 1.1612e-01     5.2580      6.654      9.652    10.6019 0.0000e+00
      6.817      0.122     8.9483     80.573     45.587  32.461488     3.7800     0.1668     0.1278     0.1692 1.1612e-01     5.3332      6.685      9.696    10.6015 0.0000e+00
      6.849      0.123     8.9497     80.632     45.585  32.460100     3.7800     0.1439     0.1278     0.1692 1.1615e-01     5.2881      6.716      9.741    10.6013 0.0000e+00
      6.881      0.124     8.9538     80.681     45.584  32.458987     3.7800     0.1210     0.1278     0.1692 1.1615e-01     5.3332      6.747      9.786    10.6012 0.0000e+00
      6.912      0.124     8.9597     80.717     45.583  32.457853     3.7800     0.1210     0.1278     0.1692 1.1612e-01     5.4083      6.778      9.831    10.6012 0.0000e+00
      6.944      0.124     8.9665     80.743     45.575  32.452434     3.7800     0.1439     0.1278     0.1692 1.1617e-01     5.4233      6.809      9.876    10.6013 0.0000e+00
      6.975      0.124     8.9731     80.766     45.565  32.445246     3.8700     0.1019     0.1278     0.1269 1.1625e-01     5.3332      6.840      9.921    10.6012 0.0000e+00
      7.007      0.124     8.9785     80.783     45.556  32.438333     3.8700     0.1248     0.1278     0.1269 1.1612e-01     5.4083      6.871      9.966    10.6010 0.0000e+00
      7.038      0.125     8.9826     80.794     45.555  32.437773     3.8700     0.1134     0.1278     0.1269 1.1607e-01     5.2881      6.902     10.011    10.6008 0.0000e+00
      7.070      0.125     8.9856     80.800     45.574  32.451336     3.8700     0.1363     0.1278     0.1269 1.1623e-01     5.4534      6.933     10.056    10.6007 0.0000e+00
      7.102      0.125     8.9881     80.800     45.601  32.470758     3.7800     0.1096     0.1278     0.0846 1.1600e-01     5.3482      6.965     10.102    10.6006 0.0000e+00
      7.134      0.124     8.9901     80.792     45.621  32.485377     3.7800     0.1286     0.1278     0.0846 1.1620e-01     5.2730      6.996     10.147    10.6006 0.0000e+00
      7.166      0.124     8.9913     80.776     45.624  32.487208     3.7800     0.1363     0.1278     0.0846 1.1617e-01     5.3482      7.028     10.193    10.6006 0.0000e+00
      7.197      0.124     8.9919     80.757     45.604  32.472779     3.7800     0.1439     0.1278     0.0846 1.1628e-01     5.2580      7.058     10.237    10.6007 0.0000e+00
      7.228      0.125     8.9919     80.735     45.583  32.458046     3.8700     0.1439     0.1278     0.1692 1.1633e-01     5.3482      7.088     10.281    10.6007 0.0000e+00
      7.259      0.126     8.9910     80.712     45.579  32.454921     3.8700     0.1286     0.1278     0.1692 1.1617e-01     5.3632      7.119     10.325    10.6008 0.0000e+00
      7.292      0.128     8.9892     80.700     45.584  32.458612     3.8700     0.1248     0.1278     0.1692 1.1607e-01     5.3332      7.151     10.371    10.6008 0.0000e+00
      7.325      0.129     8.9870     80.700     45.589  32.462180     3.8700     0.1286     0.1278     0.1692 1.1623e-01     5.3632      7.183     10.418    10.6008 0.0000e+00
      7.359      0.131     8.9846     80.702     45.589  32.462618     3.7800     0.1286     0.1278     0.1692 1.1610e-01     5.3332      7.216     10.466    10.6008 0.0000e+00
      7.392      0.132     8.9821     80.696     45.585  32.460041     3.7800     0.1325     0.1278     0.1692 1.1617e-01     5.3332      7.249     10.514    10.6006 0.0000e+00
      7.426      0.132     8.9808     80.677     45.581  32.457722     3.7800     0.1286     0.1278     0.1692 1.1633e-01     5.3632      7.282     10.562    10.6005 0.0000e+00
      7.459      0.132     8.9808     80.654     45.582  32.459005     3.7800     0.1439     0.1278     0.1692 1.1612e-01     5.3332      7.315     10.609    10.6006 0.0000e+00
      7.493      0.132     8.9810     80.635     45.583  32.460270     3.7800     0.1439     0.1278     0.1692 1.1612e-01     5.3782      7.348     10.658    10.6008 0.0000e+00
      7.528      0.132     8.9802     80.623     45.584  32.461856     3.7800     0.1515     0.0852     0.1269 1.1605e-01     5.3482      7.382     10.707    10.6012 0.0000e+00
      7.561      0.133     8.9780     80.622     45.586  32.464184     3.7800     0.1439     0.0852     0.1269 1.1617e-01     5.3482      7.415     10.754    10.6017 0.0000e+00
      7.593      0.136     8.9753     80.643     45.585  32.463915     3.7800     0.1172     0.0852     0.1269 1.1612e-01     5.3031      7.446     10.800    10.6024 0.0000e+00
      7.626      0.140     8.9730     80.688     45.587  32.464938     3.7800     0.1363     0.0852     0.1269 1.1602e-01     5.3632      7.479     10.847    10.6031 0.0000e+00
      7.661      0.146     8.9715     80.747     45.592  32.467527     3.7800     0.1515     0.0852     0.1269 1.1628e-01     5.3933      7.513     10.897    10.6040 0.0000e+00
      7.699      0.153     8.9713     80.800     45.594  32.468410     3.7800     0.1325     0.0852     0.1269 1.1612e-01     5.3933      7.550     10.951    10.6049 0.0000e+00
      7.741      0.159     8.9735     80.830     45.600  32.471784     3.7800     0.1401     0.0852     0.1269 1.1607e-01     5.3031      7.591     11.010    10.6052 0.0000e+00
      7.784      0.164     8.9786     80.831     45.610  32.478548     3.7800     0.1363     0.0852     0.1269 1.1612e-01     5.4083      7.633     11.071    10.6050 0.0000e+00
      7.827      0.167     8.9853     80.801     45.617  32.482586     3.8700     0.1439     0.1278     0.1269 1.1617e-01     5.3332      7.675     11.133    10.6044 0.0000e+00
      7.871      0.169     8.9913     80.744     45.621  32.484972     3.8700     0.1439     0.1278     0.1269 1.1628e-01     5.3632      7.718     11.194    10.6036 0.0000e+00
      7.914      0.170     8.9949     80.671     45.629  32.490306     3.8700     0.1401     0.1278     0.1269 1.1638e-01     5.3632      7.761     11.256    10.6027 0.0000e+00
      7.957      0.172     8.9951     80.595     45.638  32.496047     3.8700     0.1401     0.1278     0.1269 1.1602e-01     5.3482      7.803     11.317    10.6020 0.0000e+00
      8.000      0.173     8.9919     80.524     45.661  32.511649     3.8700     0.1210     0.1278     0.1692 1.1625e-01     5.3332      7.845     11.378    10.6014 0.0000e+00
      8.044      0.176     8.9857     80.468     45.731  32.561073     3.8700     0.1096     0.1278     0.1692 1.1628e-01     5.2580      7.888     11.441    10.6008 0.0000e+00
      8.089      0.178     8.9777     80.435     45.861  32.653540     3.8700     0.1210     0.1278     0.1692 1.1617e-01     5.3031      7.932     11.505    10.6002 0.0000e+00
      8.135      0.181     8.9693     80.427     46.064  32.797865     3.8700     0.1668     0.1278     0.1692 1.1602e-01     5.4384      7.978     11.570    10.5996 0.0000e+00
      8.182      0.181     8.9616     80.439     46.388  33.028573     3.8700     0.1248     0.1278     0.1692 1.1623e-01     5.3632      8.024     11.638    10.5990 0.0000e+00
      8.230      0.181     8.9555     80.465     46.920  33.407188     3.8700     0.1439     0.1278     0.0846 1.1605e-01     5.3332      8.071     11.705    10.5984 0.0000e+00
      8.277      0.179     8.9519     80.502     47.813  34.042593     3.8700     0.1515     0.1278     0.0846 1.1610e-01     5.3031      8.117     11.772    10.5981 0.0000e+00
      8.323      0.176     8.9510     80.542     49.310  35.108193     3.8700     0.1515     0.1278     0.0846 1.1633e-01     5.3181      8.162     11.837    10.5981 0.0000e+00
      8.367      0.172     8.9522     80.572     51.796  36.876264     3.8700     0.1134     0.1278     0.0846 1.1623e-01     5.3482      8.205     11.900    10.5982 0.0000e+00
      8.409      0.167     8.9550     80.586     55.928  39.814331     3.7800     0.1554     0.1278     0.1269 1.1630e-01     5.1979      8.246     11.960    10.5986 0.0000e+00
      8.451      0.161     8.9590     80.579     62.813  44.709840     3.7800     0.1935     0.1278     0.1269 1.1620e-01    11.7510      8.288     12.020    10.5990 0.0000e+00
      8.493      0.155     8.9634     80.549     74.285  52.868259     3.7800     0.1782     0.1278     0.1269 1.1617e-01    11.6759      8.328     12.079    10.5992 0.0000e+00
      8.533      0.147     8.9668     80.485     93.332  66.413679     3.7800     0.2164     0.1278     0.1269 1.1625e-01    11.6759      8.368     12.136    10.5988 0.0000e+00
      8.570      0.137     8.9685     80.375    121.762  86.629471     3.7800     0.2011     0.1278     0.1269 1.1617e-01    11.6909      8.405     12.190    10.5975 0.0000e+00
      8.605      0.125     8.9680     80.194    154.049 109.578706     3.7800     1.2082     0.1278     0.1269 1.1633e-01   334.4631      8.438     12.238    10.5955 0.0000e+00
      8.635      0.113     8.9648     79.900    180.942 128.677495     3.7800     1.2120     0.1278     0.1269 1.1617e-01   334.5533      8.468     12.282    10.5928 0.0000e+00
      8.662      0.100     8.9581     79.430    199.800 142.053231     3.7800     1.2235     0.1278     0.1269 1.1638e-01   334.4030      8.494     12.320    10.5888 0.0000e+00
      8.685      0.087     8.9464     78.710    212.748 151.225097     0.7200     1.2426     0.2982     2.4957 1.1612e-01   334.3879      8.517     12.353    10.5827 0.0000e+00
      8.705      0.076     8.9272     77.692    221.596 157.485219     0.7200    -0.1308     0.2982     2.4957 1.1605e-01     1.6057      8.537     12.382    10.5739 0.0000e+00
      8.723      0.065     8.8960     76.365    227.694 161.795449     0.7200    -0.0888     0.2982     2.4957 1.1617e-01     1.6508      8.554     12.407    10.5632 0.0000e+00
      8.738      0.054     8.8454     74.766    231.981 164.822820     0.7200    -0.1079     0.2982     2.4957 1.1625e-01     1.6207      8.569     12.428    10.5524 0.0000e+00
      8.750      0.043     8.7669     72.965    235.105 167.027781     0.7200    -0.1422     0.2982     2.4957 1.1623e-01     1.5606      8.581     12.446    10.5428 0.0000e+00
      8.760      0.033     8.6547     71.064    237.483 168.707265     0.0000    -0.1041     0.0000     0.0000 1.1623e-01     2.0566      8.590     12.460    10.5349 0.0000e+00
      8.767      0.022     8.5081     69.174    239.359 170.032022     0.0000    -0.1079     0.0000     0.0000 1.1623e-01     2.0416      8.597     12.470    10.5286 0.0000e+00
      8.772      0.011     8.3307     67.389    240.810 171.058252     0.0000    -0.1117     0.0000     0.0000 1.1628e-01     2.0115      8.602     12.476    10.5239 0.0000e+00
      8.773     -0.001     8.1307     65.767    241.890 171.822353     0.0000    -0.1193     0.0000     0.0000 1.1600e-01     2.1017      8.603     12.478    10.5204 0.0000e+00
      8.772     -0.012     7.9193     64.331    242.731 172.418423     0.0000    -0.0926    -0.0426     0.0423 1.1600e-01     2.5977      8.602     12.476    10.5178 0.0000e+00
      8.767     -0.024     7.7090     63.075    243.445 172.925656     0.0000    -0.1002    -0.0426     0.0423 1.1602e-01     2.5826      8.597     12.469    10.5161 0.0000e+00
      8.759     -0.037     7.5102     61.971    244.082 173.379617     0.0000    -0.0964    -0.0426     0.0423 1.1623e-01     2.7029      8.590     12.459    10.5149 0.0000e+00
      8.749     -0.050     7.3295     60.990    244.678 173.805650     0.0000    -0.1079    -0.0426     0.0423 1.1617e-01     2.6277      8.580     12.443    10.5142 0.0000e+00
      8.735     -0.063     7.1696     60.107    245.275 174.233615     0.0000    -0.1308     0.0000     0.0846 1.1612e-01    21.7160      8.566     12.423    10.5139 0.0000e+00
      8.717     -0.077     7.0296     59.311    245.912 174.689897     0.0000    -0.1002     0.0000     0.0846 1.1612e-01    21.6559      8.549     12.399    10.5139 0.0000e+00
      8.696     -0.090     6.9065     58.601    246.600 175.182509     0.0000    -0.1346     0.0000     0.0846 1.1630e-01    21.6559      8.528     12.369    10.5142 0.0000e+00
      8.671     -0.101     6.7969     57.979    247.336 175.709205     0.0000    -0.1117     0.0000     0.0846 1.1623e-01    21.7912      8.504     12.333    10.5147 0.0000e+00
      8.642     -0.110     6.6985     57.446    248.110 176.262869     0.0000     0.2240     0.0000     0.0846 1.1605e-01   137.0873      8.475     12.292    10.5154 0.0000e+00
      8.610     -0.115     6.6097     57.003    248.919 176.841575     0.0000     0.1973     0.0000     0.0423 1.1615e-01   137.1324      8.444     12.246    10.5162 0.0000e+00
      8.577     -0.118     6.5304     56.653    249.757 177.440100     0.0000     0.1897     0.0000     0.0423 1.1623e-01   137.1625      8.411     12.200    10.5170 0.0000e+00
      8.546     -0.121     6.4610     56.394    250.545 178.004651     0.0000     0.2164     0.0000     0.0423 1.1617e-01   137.1775      8.381     12.155    10.5178 0.0000e+00
      8.518     -0.125     6.4014     56.219    251.186 178.464393     0.0000     0.4338     0.0000     0.0423 1.1610e-01    56.7813      8.353     12.115    10.5186 0.0000e+00
      8.490     -0.134     6.3519     56.124    251.663 178.808293     0.0000     0.4300     0.0000     0.1692 1.1628e-01    56.7513      8.326     12.076    10.5193 0.0000e+00
      8.459     -0.148     6.3128     56.096    252.034 179.076199     0.0000     0.4529     0.0000     0.1692 1.1617e-01    56.7813      8.296     12.032    10.5201 0.0000e+00
      8.422     -0.165     6.2838     56.114    252.353 179.305648     0.0000     0.4376     0.0000     0.1692 1.1620e-01    56.7513      8.259     11.979    10.5210 0.0000e+00
      8.377     -0.182     6.2642     56.157    252.628 179.503972     0.0000     0.4300     0.0000     0.1692 1.1607e-01    59.9677      8.215     11.914    10.5219 0.0000e+00
      8.324     -0.195     6.2534     56.208    252.834 179.652251     0.0000     0.4796     0.2982     0.5076 1.1602e-01    59.8926      8.163     11.839    10.5228 0.0000e+00
      8.266     -0.203     6.2502     56.260    252.944 179.732184     0.0000     0.4491     0.2982     0.5076 1.1638e-01    59.8625      8.107     11.758    10.5236 0.0000e+00
      8.209     -0.205     6.2521     56.311    252.965 179.749128     0.0000     0.4186     0.2982     0.5076 1.1612e-01    59.9527      8.050     11.676    10.5243 0.0000e+00
      8.156     -0.203     6.2568     56.355    252.945 179.737522     0.0000     0.1859     0.2982     0.5076 1.1617e-01    13.1338      7.998     11.600    10.5248 0.0000e+00
      8.107     -0.200     6.2624     56.384    252.982 179.766076     0.0000     0.1821     0.2982     0.5076 1.1615e-01    13.1188      7.950     11.531    10.5252 0.0000e+00
      8.060     -0.196     6.2681     56.403    253.167 179.900250     2.2500     0.2088     0.7242     1.0575 1.1605e-01    13.1639      7.904     11.464    10.5255 0.0000e+00
      8.012     -0.192     6.2738     56.413    253.527 180.157873     2.2500     0.2164     0.7242     1.0575 1.1617e-01    13.1188      7.857     11.395    10.5259 0.0000e+00
      7.961     -0.188     6.2786     56.410    254.026 180.513897     2.2500     0.1668     0.7242     1.0575 1.1628e-01    12.3522      7.807     11.323    10.5264 0.0000e+00
      7.911     -0.185     6.2817     56.391    254.591 180.917650     2.2500     0.1897     0.7242     1.0575 1.1600e-01    12.4725      7.757     11.251    10.5270 0.0000e+00
      7.862     -0.183     6.2837     56.351    255.155 181.321215     4.0500     0.1821     0.5964     0.6768 1.1628e-01    12.4274      7.710     11.183    10.5274 0.0000e+00
      7.818     -0.182     6.2848     56.291    255.676 181.694570     4.0500     0.1706     0.5964     0.6768 1.1607e-01    12.4274      7.667     11.120    10.5278 0.0000e+00
      7.777     -0.184     6.2844     56.220    256.135 182.023572     4.0500     0.2355     0.5964     0.6768 1.1617e-01    17.6879      7.626     11.061    10.5281 0.0000e+00
      7.734     -0.189     6.2822     56.142    256.538 182.312175     4.0500     0.2584     0.5964     0.6768 1.1638e-01    17.6729      7.584     11.000    10.5284 0.0000e+00
      7.686     -0.196     6.2777     56.057    256.898 182.569513     4.2300     0.2355     0.4260     0.4230 1.1617e-01    17.7030      7.537     10.931    10.5290 0.0000e+00
      7.632     -0.201     6.2710     55.974    257.193 182.780425     4.2300     0.2431     0.4260     0.4230 1.1630e-01    17.6428      7.485     10.855    10.5296 0.0000e+00
      7.575     -0.203     6.2630     55.895    257.386 182.917366     4.2300     0.1973     0.4260     0.4230 1.1617e-01    10.5937      7.429     10.774    10.5301 0.0000e+00
      7.518     -0.201     6.2541     55.815    257.438 182.955011     4.2300     0.1821     0.4260     0.4230 1.1612e-01    10.5336      7.373     10.694    10.5306 0.0000e+00
      7.465     -0.196     6.2447     55.739    257.298 182.855520     4.3200     0.1935     0.3834     0.2961 1.1617e-01    10.5486      7.321     10.618    10.5309 0.0000e+00
      7.418     -0.190     6.2354     55.667    256.898 182.572410     4.3200     0.2088     0.3834     0.2961 1.1600e-01    10.6087      7.275     10.551    10.5311 0.0000e+00
      7.375     -0.186     6.2266     55.598    256.155 182.046148     4.3200     0.1897     0.3834     0.2961 1.1628e-01     9.8873      7.232     10.490    10.5312 0.0000e+00
      7.333     -0.187     6.2177     55.528    254.948 181.190260     4.3200     0.1782     0.3834     0.2961 1.1623e-01     9.7971      7.191     10.430    10.5313 0.0000e+00
      7.288     -0.191     6.2092     55.462    253.027 179.826385     4.3200     0.2011     0.3834     0.2961 1.1612e-01     9.7971      7.147     10.365    10.5314 0.0000e+00
      7.238     -0.196     6.2012     55.407    249.841 177.564889     4.1400     0.1935     0.3834     0.3384 1.1617e-01     9.9023      7.098     10.295    10.5317 0.0000e+00
      7.183     -0.199     6.1934     55.349    244.391 173.694976     4.1400     0.1248     0.3834     0.3384 1.1623e-01     6.4153      7.044     10.217    10.5321 0.0000e+00
      7.127     -0.197     6.1855     55.272    235.034 167.051005     4.1400     0.1439     0.3834     0.3384 1.1597e-01     6.5656      6.989     10.137    10.5325 0.0000e+00
      7.072     -0.190     6.1781     55.168    220.093 156.439664     4.1400     0.1210     0.3834     0.3384 1.1620e-01     6.4003      6.936     10.059    10.5331 0.0000e+00
      7.023     -0.179     6.1719     55.031    199.024 141.473896     4.1400     0.1515     0.4260     0.4230 1.1612e-01     6.4304      6.887      9.989    10.5339 0.0000e+00
      6.980     -0.167     6.1654     54.854    172.274 122.469508     4.1400     0.1363     0.4260     0.4230 1.1607e-01     5.4083      6.845      9.929    10.5352 0.0000e+00
      6.943     -0.157     6.1567     54.622    141.105 100.321489     4.1400     0.1286     0.4260     0.4230 1.1612e-01     5.2730      6.809      9.876    10.5372 0.0000e+00
      6.909     -0.153     6.1449     54.309    110.084  78.278918     4.1400     0.1286     0.4260     0.4230 1.1615e-01     5.3181      6.776      9.828    10.5402 0.0000e+00
      6.875     -0.154     6.1296     53.868     85.676  60.937771     4.1400     0.1515     0.2556     0.2115 1.1607e-01     5.3782      6.742      9.779    10.5442 0.0000e+00
      6.837     -0.157     6.1096     53.181     69.834  49.687312     4.1400     0.1439     0.2556     0.2115 1.1615e-01     5.4083      6.704      9.724    10.5493 0.0000e+00
      6.793     -0.160     6.0834     52.015     60.208  42.854802     4.1400     0.1363     0.2556     0.2115 1.1602e-01     5.3332      6.662      9.662    10.5558 0.0000e+00
      6.747     -0.162     6.0479     50.223     54.395  38.729140     4.1400     0.1363     0.2556     0.2115 1.1620e-01     5.2580      6.617      9.597    10.5645 0.0000e+00
      6.702     -0.161     5.9976     48.112     50.893  36.243812     4.1400     0.1859     0.2556     0.2115 1.1615e-01     5.3782      6.573      9.533    10.5759 0.0000e+00
      6.662     -0.160     5.9196     46.463     48.792  34.751908     3.9600     0.1592     0.2130     0.1692 1.1620e-01     5.2730      6.533      9.475    10.5885 0.0000e+00
      6.625     -0.161     5.7885     46.170     47.535  33.859548     3.9600     0.1515     0.2130     0.1692 1.1617e-01     5.2730      6.497      9.422    10.5996 0.0000e+00
      6.589     -0.167     5.5882     47.858     46.786  33.328768     3.9600     0.1515     0.2130     0.1692 1.1623e-01     5.3632      6.461      9.371    10.6075 0.0000e+00
      6.550     -0.177     5.3528     51.733     46.341  33.014066     3.9600     0.1286     0.2130     0.1692 1.1610e-01     5.3933      6.423      9.316    10.6121 0.0000e+00
      6.505     -0.192     5.1691     57.605     46.070  32.823602     4.0500     0.1210     0.1704     0.2538 1.1615e-01     5.3782      6.379      9.252    10.6145 0.0000e+00
      6.453     -0.206     5.1362     64.957     45.902  32.706585     4.0500     0.1554     0.1704     0.2538 1.1625e-01     5.2430      6.328      9.178    10.6158 0.0000e+00
      6.394     -0.216     5.3238     72.964     45.799  32.635772     4.0500     0.1172     0.1704     0.2538 1.1615e-01     5.4083      6.271      9.095    10.6172 0.0000e+00
      6.332     -0.218     5.7545     80.629     45.737  32.592278     4.0500     0.1592     0.1704     0.2538 1.1612e-01     5.3181      6.209      9.006    10.6191 0.0000e+00
      6.270     -0.214     6.4072     87.096     45.698  32.564506     4.0500     0.1248     0.2130     0.1269 1.1612e-01     5.3181      6.149      8.918    10.6217 0.0000e+00
      6.213     -0.204     7.2245     91.907     45.667  32.541088     4.0500     0.1554     0.2130     0.1269 1.1628e-01     5.8592      6.093      8.837    10.6246 0.0000e+00
      6.164     -0.192     8.1147     95.018     45.639  32.519741     4.0500     0.1248     0.2130     0.1269 1.1602e-01     5.8141      6.045      8.767    10.6268 0.0000e+00
      6.121     -0.182     8.9670     96.655     45.628  32.510615     4.0500     0.1363     0.2130     0.1269 1.1610e-01     5.7540      6.003      8.706    10.6278 0.0000e+00
      6.081     -0.175     9.6864     97.142     45.635  32.515235     3.8700     0.1515     0.1704     0.1692 1.1595e-01     5.7540      5.963      8.649    10.6275 0.0000e+00
      6.040     -0.173    10.2218     96.806     45.645  32.522953     3.8700     0.1134     0.1704     0.1692 1.1610e-01     7.2420      5.923      8.592    10.6262 0.0000e+00
      5.997     -0.173    10.5682     95.931     45.646  32.523945     3.8700     0.1363     0.1704     0.1692 1.1607e-01     7.2420      5.881      8.529    10.6246 0.0000e+00
      5.950     -0.173    10.7506     94.743     45.637  32.518477     3.8700     0.1210     0.1704     0.1692 1.1628e-01     7.2420      5.834      8.462    10.6233 0.0000e+00
      5.901     -0.169    10.8049     93.402     45.630  32.513010     3.8700     0.1286     0.1704     0.1692 1.1617e-01     7.3021      5.787      8.394    10.6229 0.0000e+00
      5.855     -0.163    10.7674     92.021     45.627  32.510047     3.8700     0.1782     0.1704     0.1269 1.1605e-01     7.0316      5.742      8.328    10.6232 0.0000e+00
      5.814     -0.156    10.6700     90.674     45.628  32.508799     3.8700     0.1973     0.1704     0.1269 1.1590e-01     7.0466      5.701      8.269    10.6240 0.0000e+00
      5.778     -0.149    10.5376     89.407     45.630  32.508933     3.8700     0.2088     0.1704     0.1269 1.1630e-01     7.0616      5.666      8.219    10.6246 0.0000e+00
      5.745     -0.147    10.3885     88.243     45.634  32.510484     3.8700     0.1973     0.1704     0.1269 1.1623e-01     6.9264      5.634      8.172    10.6244 0.0000e+00
      5.712     -0.150    10.2352     87.184     45.633  32.509905     3.8700     0.1286     0.1704     0.1269 1.1587e-01     7.2119      5.602      8.125    10.6232 0.0000e+00
      5.676     -0.158    10.0858     86.232     45.628  32.507042     3.8700     0.1210     0.1704     0.1269 1.1623e-01     7.2420      5.567      8.074    10.6214 0.0000e+00
      5.635     -0.167     9.9453     85.389     45.623  32.505092     3.8700     0.1554     0.1704     0.1269 1.1605e-01     7.1217      5.526      8.016    10.6196 0.0000e+00
      5.589     -0.176     9.8161     84.649     45.618  32.503534     3.8700     0.1325     0.1704     0.1269 1.1620e-01     7.2119      5.481      7.949    10.6184 0.0000e+00
      5.539     -0.180     9.6983     84.003     45.619  32.505916     3.8700     0.1401     0.1278     0.0846 1.1628e-01     6.7310      5.432      7.878    10.6183 0.0000e+00
      5.488     -0.178     9.5922     83.440     45.628  32.512871     3.8700     0.1325     0.1278     0.0846 1.1628e-01     6.7610      5.381      7.805    10.6194 0.0000e+00
      5.439     -0.172     9.4980     82.952     45.637  32.518334     3.8700     0.1325     0.1278     0.0846 1.1620e-01     6.6408      5.334      7.737    10.6213 0.0000e+00
      5.396     -0.163     9.4152     82.532     45.641  32.519800     3.8700     0.1401     0.1278     0.0846 1.1628e-01     6.7911      5.292      7.675    10.6235 0.0000e+00
      5.359     -0.157     9.3430     82.169     45.640  32.517660     3.8700     0.1515     0.1278     0.2538 1.1617e-01     6.5506      5.255      7.622    10.6251 0.0000e+00
      5.325     -0.155     9.2803     81.858     45.638  32.515305     3.8700     0.1286     0.1278     0.2538 1.1612e-01     6.5356      5.222      7.574    10.6254 0.0000e+00
      5.290     -0.160     9.2262     81.599     45.633  32.512106     3.8700     0.1363     0.1278     0.2538 1.1597e-01     6.5055      5.188      7.525    10.6246 0.0000e+00
      5.252     -0.172     9.1798     81.386     45.619  32.503250     3.8700     0.1134     0.1278     0.2538 1.1630e-01     6.4905      5.151      7.471    10.6231 0.0000e+00
      5.208     -0.187     9.1398     81.209     45.604  32.494295     3.8700     0.1172     0.1278     0.2538 1.1602e-01     5.9193      5.107      7.408    10.6217 0.0000e+00
      5.156     -0.200     9.1054     81.059     45.595  32.490776     3.7800     0.1210     0.1278     0.0846 1.1612e-01     5.7690      5.057      7.334    10.6208 0.0000e+00
      5.098     -0.207     9.0766     80.942     45.594  32.491755     3.7800     0.1286     0.1278     0.0846 1.1638e-01     5.9344      5.000      7.252    10.6207 0.0000e+00
      5.038     -0.207     9.0527     80.855     45.590  32.489571     3.7800     0.1325     0.1278     0.0846 1.1612e-01     5.7540      4.941      7.166    10.6217 0.0000e+00
      4.979     -0.200     9.0325     80.789     45.577  32.479683     3.7800     0.1325     0.1278     0.0846 1.1625e-01     5.8442      4.883      7.082    10.6240 0.0000e+00
      4.927     -0.188     9.0153     80.731     45.568  32.471333     3.8700     0.1592     0.1278     0.1692 1.1615e-01     5.8292      4.832      7.008    10.6267 0.0000e+00
      4.883     -0.174     9.0018     80.670     45.569  32.470217     3.8700     0.1401     0.1278     0.1692 1.1617e-01     5.7991      4.789      6.946    10.6288 0.0000e+00
      4.846     -0.164     8.9921     80.605     45.579  32.476037     3.8700     0.1439     0.1278     0.1692 1.1625e-01     5.7390      4.752      6.892    10.6295 0.0000e+00
      4.810     -0.160     8.9849     80.537     45.594  32.486385     3.8700     0.1325     0.1278     0.1692 1.1592e-01     5.7690      4.718      6.842    10.6287 0.0000e+00
      4.774     -0.163     8.9787     80.466     45.606  32.496098     3.8700     0.1248     0.1278     0.1692 1.1623e-01     5.7841      4.682      6.791    10.6270 0.0000e+00
      4.735     -0.172     8.9724     80.396     45.614  32.503807     3.8700     0.1515     0.1278     0.1692 1.1612e-01     5.7841      4.644      6.734    10.6252 0.0000e+00
      4.690     -0.183     8.9654     80.332     45.614  32.507607     3.8700     0.1248     0.1278     0.1692 1.1600e-01     5.7089      4.599      6.670    10.6239 0.0000e+00
      4.639     -0.192     8.9579     80.269     45.609  32.508511     3.8700     0.1363     0.1278     0.1692 1.1620e-01     5.6037      4.549      6.598    10.6235 0.0000e+00
      4.584     -0.196     8.9498     80.201     45.611  32.514682     3.9600     0.1706     0.2130     0.2538 1.2258e-01     5.6187      4.496      6.520    10.6245 0.0000e+00
      4.529     -0.193     8.9415     80.119     45.623  32.527766     3.9600     0.1439     0.2130     0.2538 1.3348e-01     5.4985      4.441      6.441    10.6270 0.0000e+00
      4.476     -0.184     8.9335     80.005     45.637  32.543329     3.9600     0.1401     0.2130     0.2538 1.5213e-01     5.5887      4.390      6.366    10.6308 0.0000e+00
      4.430     -0.172     8.9256     79.832     45.652  32.561564     3.9600     0.1363     0.2130     0.2538 1.4639e-01     5.2430      4.344      6.300    10.6354 0.0000e+00
      4.390     -0.160     8.9170     79.571     45.674  32.587331     3.9600     0.1363     0.2130     0.2538 1.5517e-01     5.3782      4.305      6.244    10.6404 0.0000e+00
      4.355     -0.152     8.9068     79.202     45.704  32.623543     3.8700     0.1248     0.1278     0.0846 1.4148e-01     5.2730      4.271      6.194    10.6457 0.0000e+00
      4.322     -0.150     8.8930     78.703     45.751  32.675894     3.8700     0.1363     0.1278     0.0846 1.3215e-01     5.3332      4.238      6.147    10.6519 0.0000e+00
      4.287     -0.154     8.8720     78.035     45.819  32.750425     3.8700     0.1668     0.1278     0.0846 1.2344e-01     5.5436      4.204      6.097    10.6602 0.0000e+00
      4.248     -0.160     8.8408     77.141     45.904  32.845228     3.8700     0.1668     0.1278     0.0846 1.4745e-01     5.6488      4.166      6.043    10.6717 0.0000e+00
      4.205     -0.167     8.7968     75.958     45.990  32.949939     3.8700     0.1439     0.1704     0.0846 1.7283e-01     5.5286      4.124      5.981    10.6871 0.0000e+00
      4.158     -0.171     8.7373     74.407     46.066  33.054857     3.8700     0.1325     0.1704     0.0846 1.7628e-01     5.6187      4.077      5.914    10.7080 0.0000e+00
      4.109     -0.171     8.6579     72.357     46.145  33.164198     3.8700     0.1439     0.1704     0.0846 2.2330e-01     6.3251      4.030      5.845    10.7358 0.0000e+00
      4.063     -0.168     8.5518     69.629     46.210  33.265534     3.8700     0.1210     0.1704     0.0846 1.7594e-01     6.3101      3.984      5.779    10.7729 0.0000e+00
      4.021     -0.165     8.4119     66.086     46.228  33.334401     3.8700     0.1439     0.1704     0.1692 1.9922e-01     6.2951      3.943      5.719    10.8203 0.0000e+00
      3.983     -0.164     8.2304     61.697     46.206  33.371343     3.8700     0.1363     0.1704     0.1692 2.0175e-01     6.2500      3.906      5.665    10.8745 0.0000e+00
      3.946     -0.166     7.9937     56.521     46.156  33.386212     3.8700     0.1325     0.1704     0.1692 1.9596e-01     6.8362      3.870      5.613    10.9319 0.0000e+00
      3.907     -0.171     7.6825     50.697     46.087  33.386937     3.8700     0.1019     0.1704     0.1692 1.9071e-01     6.7911      3.831      5.556    10.9915 0.0000e+00
      3.862     -0.178     7.2824     44.486     46.000  33.377671     3.8700     0.1325     0.1704     0.1692 2.1418e-01     6.6708      3.788      5.493    11.0517 0.0000e+00
      3.813     -0.183     6.7906     38.260     45.885  33.351985     4.0500     0.1286     0.1704     0.1269 2.5545e-01     6.7460      3.739      5.423    11.1095 0.0000e+00
      3.761     -0.184     6.2139     32.438     45.723  33.295110     4.0500     0.2011     0.1704     0.1269 2.8938e-01     7.0165      3.688      5.350    11.1647 0.0000e+00
      3.710     -0.181     5.5678     27.383     45.537  33.217626     4.0500     0.2049     0.1704     0.1269 3.1307e-01     7.0466      3.638      5.277    11.2197 0.0000e+00
      3.663     -0.176     4.8801     23.332     45.390  33.158284     4.0500     0.1897     0.1704     0.1269 3.4590e-01     7.0015      3.592      5.210    11.2782 0.0000e+00
      3.620     -0.171     4.1918     20.414     45.312  33.134928     4.0500     0.1859     0.1704     0.0846 3.3394e-01     6.9264      3.551      5.150    11.3420 0.0000e+00
      3.582     -0.168     3.5491     18.717     45.287  33.133409     4.0500     0.2088     0.1704     0.0846 3.3722e-01     5.9795      3.513      5.095    11.4086 0.0000e+00
      3.544     -0.170     2.9917     18.298     45.280  33.129558     4.0500     0.1935     0.1704     0.0846 3.1883e-01     6.0245      3.476      5.041    11.4717 0.0000e+00
      3.503     -0.174     2.5457     19.140     45.264  33.110467     4.0500     0.1897     0.1704     0.0846 3.6410e-01     6.0546      3.435      4.983    11.5242 0.0000e+00
      3.457     -0.178     2.2249     21.107     45.231  33.075003     3.9600     0.1935     0.1704     0.0846 3.7543e-01     5.9795      3.390      4.917    11.5609 0.0000e+00
      3.406     -0.180     2.0384     23.961     45.192  33.033513     3.9600     0.2126     0.1704     0.0846 4.1653e-01     5.7841      3.340      4.845    11.5788 0.0000e+00
      3.355     -0.179     1.9922     27.432     45.166  33.002656     3.9600     0.1782     0.1704     0.0846 4.7145e-01     5.7089      3.290      4.772    11.5803 0.0000e+00
      3.307     -0.175     2.0839     31.270     45.152  32.982125     3.9600     0.1935     0.1704     0.0846 4.7340e-01     5.8893      3.243      4.703    11.5721 0.0000e+00
      3.264     -0.169     2.2984     35.257     45.135  32.962484     3.9600     0.1859     0.1704     0.0846 4.5951e-01     5.7991      3.201      4.643    11.5597 0.0000e+00
      3.225     -0.165     2.6097     39.203     45.116  32.946416     3.9600     0.1935     0.1704     0.0846 4.8390e-01     5.2279      3.163      4.588    11.5460 0.0000e+00
      3.188     -0.164     2.9884     42.949     45.097  32.937557     3.9600     0.2049     0.1704     0.0846 4.4720e-01     5.2881      3.127      4.535    11.5325 0.0000e+00
      3.149     -0.166     3.4072     46.388     45.078  32.933546     3.9600     0.2049     0.1704     0.0846 4.8160e-01     5.3782      3.089      4.480    11.5208 0.0000e+00
      3.106     -0.170     3.8420     49.457     45.065  32.937274     3.9600     0.1706     0.1704     0.0846 4.8919e-01     5.3181      3.046      4.419    11.5125 0.0000e+00
      3.060     -0.174     4.2719     52.113     45.060  32.949735     3.9600     0.1859     0.1704     0.2115 5.7080e-01     5.5436      3.001      4.352    11.5104 0.0000e+00
      3.011     -0.177     4.6792     54.310     45.051  32.962371     3.9600     0.1668     0.1704     0.2115 6.1457e-01     5.4985      2.953      4.283    11.5157 0.0000e+00
      2.964     -0.179     5.0524     56.009     45.020  32.966670     3.9600     0.2011     0.1704     0.2115 6.2670e-01     5.4985      2.907      4.217    11.5271 0.0000e+00
      2.920     -0.183     5.3849     57.193     44.955  32.959817     3.9600     0.1859     0.1704     0.2115 6.4902e-01     5.6187      2.864      4.154    11.5422 0.0000e+00
      2.878     -0.191     5.6718     57.881     44.832  32.936025     3.9600     0.1897     0.1704     0.2115 6.4648e-01     5.8141      2.822      4.093    11.5603 0.0000e+00
      2.833     -0.202     5.9081     58.133     44.617  32.888950     3.9600     0.2202     0.1704     0.2115 6.0595e-01     5.8592      2.778      4.029    11.5828 0.0000e+00
      2.782     -0.215     6.0889     58.044     44.299  32.829802     3.9600     0.1744     0.1704     0.2115 6.4676e-01     5.8893      2.729      3.957    11.6137 0.0000e+00
      2.723     -0.227     6.2114     57.729     43.900  32.784399     3.9600     0.2011     0.1704     0.2115 6.7652e-01     5.8442      2.671      3.874    11.6610 0.0000e+00
      2.658     -0.235     6.2758     57.270     43.459  32.764409     3.9600     0.2851     0.1278     0.2115 8.9366e-01     3.4093      2.606      3.780    11.7385 0.0000e+00
      2.590     -0.236     6.2859     56.645     43.021  32.770456     3.9600     0.2660     0.1278     0.2115 1.0468e+00     3.3041      2.540      3.684    11.8666 0.0000e+00
      2.526     -0.232     6.2487     55.730     42.647  32.808128     3.9600     0.2584     0.1278     0.2115 1.1506e+00     3.4394      2.477      3.592    12.0692 0.0000e+00
      2.468     -0.223     6.1757     54.358     42.344  32.857781     3.9600     0.2355     0.1278     0.2115 1.0780e+00     3.4694      2.420      3.510    12.3576 0.0000e+00
      2.416     -0.212     6.0787     52.410     42.078  32.889099     3.9600     0.3575     0.1278     0.2115 1.1041e+00     1.5606      2.369      3.436    12.7162 0.0000e+00
      2.366     -0.200     5.9612     49.878     41.865  32.912423     3.9600     0.4224     0.1278     0.2115 1.1986e+00     1.6207      2.320      3.365    13.1068 0.0000e+00
      2.316     -0.189     5.8173     46.861     41.726  32.957741     3.9600     0.3957     0.1278     0.2115 1.3240e+00     1.5606      2.271      3.294    13.4820 0.0000e+00
      2.267     -0.180     5.6337     43.593     41.617  33.025257     3.9600     0.3919     0.1278     0.2115 1.4847e+00     1.5606      2.223      3.224    13.8124 0.0000e+00
      2.221     -0.173     5.3993     40.402     41.481  33.087431     3.9600     0.5559     0.1278     0.2115 1.5898e+00     1.5305      2.177      3.159    14.0917 0.0000e+00
      2.179     -0.169     5.1140     37.592     41.318  33.127185     4.0500     0.5635     0.0852     0.2538 1.5621e+00     1.5005      2.136      3.099    14.3149 0.0000e+00
      2.140     -0.169     4.7864     35.323     41.183  33.157112     4.0500     0.5445     0.0852     0.2538 1.5533e+00     1.4854      2.099      3.044    14.4979 0.0000e+00
      2.102     -0.174     4.4356     33.613     41.108  33.199059     4.0500     0.5750     0.0852     0.2538 1.5506e+00     1.5606      2.062      2.990    14.6809 0.0000e+00
      2.060     -0.182     4.0930     32.412     41.077  33.260253     4.0500     0.6208     0.0852     0.2538 1.6877e+00     1.8161      2.021      2.931    14.8853 0.0000e+00
      2.012     -0.189     3.7910     31.664     41.051  33.339188     4.2300     0.6131     0.0426     0.2961 2.1024e+00     1.7710      1.973      2.862    15.0893 0.0000e+00
      1.957     -0.193     3.5481     31.312     41.020  33.441072     4.2300     0.6398     0.0426     0.2961 2.7911e+00     1.8161      1.920      2.784    15.2566 0.0000e+00
      1.901     -0.190     3.3659     31.270     40.981  33.563376     4.2300     0.6398     0.0426     0.2961 3.6093e+00     1.8161      1.864      2.704    15.3791 0.0000e+00
      1.847     -0.182     3.2371     31.454     40.916  33.681289     4.2300     0.9793     0.0426     0.2961 4.2040e+00     2.5225      1.812      2.628    15.4841 0.0000e+00
      1.801     -0.168     3.1533     31.813     40.827  33.774775     4.3200     0.9679     0.0852     0.4230 4.1722e+00     2.5225      1.766      2.562    15.6053 0.0000e+00
      1.763     -0.154     3.1072     32.317     40.741  33.850948     4.3200     0.9717     0.0852     0.4230 4.1686e+00     2.5977      1.729      2.508    15.7598 0.0000e+00
      1.730     -0.142     3.0900     32.929     40.678  33.922206     4.3200     0.9641     0.0852     0.4230 4.1316e+00     2.4925      1.697      2.461    15.9484 0.0000e+00
      1.700     -0.136     3.0939     33.596     40.617  33.979828     4.3200     0.7924     0.0852     0.4230 4.0165e+00     3.7249      1.667      2.418    16.1573 0.0000e+00
      1.669     -0.136     3.1153     34.261     40.560  34.027301     4.5900     0.7848     0.0852     0.8037 3.8415e+00     3.7400      1.637      2.374    16.3619 0.0000e+00
      1.636     -0.140     3.1524     34.880     40.531  34.089171     4.5900     0.7886     0.0852     0.8037 3.7540e+00     3.6047      1.604      2.327    16.5419 0.0000e+00
      1.599     -0.144     3.2017     35.435     40.520  34.166095     4.5900     0.8000     0.0852     0.8037 3.6934e+00     3.7550      1.568      2.274    16.6941 0.0000e+00
      1.559     -0.146     3.2574     35.942     40.508  34.246903     4.5900     1.0556     0.0852     0.8037 3.7934e+00     3.1688      1.529      2.217    16.8268 0.0000e+00
      1.517     -0.145     3.3139     36.420     40.503  34.339283     4.5900     1.0785     0.0852     0.8037 3.9602e+00     3.0786      1.488      2.158    16.9439 0.0000e+00
      1.478     -0.140     3.3663     36.890     40.493  34.436187     4.6800     1.1090     0.0426     0.9729 4.3151e+00     3.2891      1.449      2.102    17.0498 0.0000e+00
      1.442     -0.132     3.4124     37.366     40.447  34.509988     4.6800     1.0976     0.0426     0.9729 4.2159e+00     3.1538      1.414      2.051    17.1559 0.0000e+00
      1.411     -0.125     3.4531     37.842     40.380  34.556609     4.6800     1.4600     0.0426     0.9729 3.9387e+00     3.1538      1.383      2.007    17.2682 0.0000e+00
      1.383     -0.121     3.4905     38.310     40.313  34.580565     4.6800     1.4791     0.0426     0.9729 3.6861e+00     3.1087      1.357      1.968    17.3873 0.0000e+00
      1.357     -0.123     3.5260     38.764     40.256  34.584288     4.6800     1.4714     0.1278     1.1844 3.5255e+00     3.2891      1.331      1.930    17.5182 0.0000e+00
      1.329     -0.128     3.5613     39.187     40.224  34.584615     4.6800     1.4638     0.1278     1.1844 3.5133e+00     3.2440      1.303      1.890    17.6576 0.0000e+00
      1.296     -0.135     3.5972     39.557     40.220  34.593516     4.6800     1.4753     0.1278     1.1844 3.6519e+00     3.1989      1.271      1.844    17.7863 0.0000e+00
      1.258     -0.141     3.6343     39.856     40.221  34.601481     4.6800     1.4791     0.1278     1.1844 4.1667e+00     3.2139      1.234      1.790    17.8866 0.0000e+00
      1.217     -0.142     3.6726     40.073     40.211  34.598752     4.6800     1.4524     0.0852     1.3536 5.1232e+00     3.3191      1.193      1.730    17.9519 0.0000e+00
      1.175     -0.138     3.7102     40.207     40.200  34.596482     4.6800     1.4638     0.0852     1.3536 6.2734e+00     3.2139      1.152      1.671    17.9865 0.0000e+00
      1.137     -0.128     3.7441     40.266     40.201  34.609910     4.6800     1.5287     0.0852     1.3536 6.8089e+00     3.3342      1.115      1.617    18.0016 0.0000e+00
      1.106     -0.115     3.7719     40.272     40.202  34.634694     4.6800     1.5287     0.0852     1.3536 6.6640e+00     3.5446      1.085      1.573    18.0096 0.0000e+00
      1.081     -0.102     3.7919     40.262     40.181  34.653680     4.6800     1.5096     0.1278     1.4805 6.4349e+00     3.3642      1.060      1.538    18.0169 0.0000e+00
      1.060     -0.093     3.8038     40.277     40.143  34.664010     4.6800     1.5287     0.1278     1.4805 6.3502e+00     3.4093      1.040      1.508    18.0262 0.0000e+00
      1.041     -0.089     3.8081     40.361     40.099  34.670422     4.6800     1.3303     0.1278     1.4805 6.4014e+00     3.8903      1.021      1.481    18.0423 0.0000e+00
      1.022     -0.092     3.8063     40.555     40.048  34.668687     4.6800     1.3456     0.1278     1.4805 6.2952e+00     3.9504      1.002      1.453    18.0725 0.0000e+00
      1.000     -0.100     3.8018     40.887     39.989  34.660324     4.6800     1.3341     0.1278     1.4805 6.2693e+00     3.8452      0.980      1.422    18.1183 0.0000e+00
      0.975     -0.111     3.7990     41.369     39.924  34.647064     4.6800     1.3379     0.1278     1.6497 6.2774e+00     3.9354      0.956      1.387    18.1723 0.0000e+00
      0.945     -0.122     3.8026     42.004     39.838  34.623394     4.6800     1.5859     0.1278     1.6497 6.6930e+00     4.1458      0.927      1.345    18.2271 0.0000e+00
      0.911     -0.131     3.8165     42.805     39.730  34.588942     4.6800     1.6011     0.1278     1.6497 7.7218e+00     4.2360      0.893      1.295    18.2808 0.0000e+00
      0.872     -0.136     3.8435     43.802     39.607  34.548389     4.6800     1.6050     0.1278     1.6497 9.8839e+00     4.1758      0.855      1.241    18.3334 0.0000e+00
      0.833     -0.137     3.8843     45.043     39.483  34.510726     4.6800     1.5897     0.1278     2.0727 1.2756e+01     4.0706      0.817      1.185    18.3882 0.0000e+00
      0.796     -0.136     3.9386     46.588     39.368  34.477798     4.6800     2.0246     0.1278     2.0727 1.3675e+01     4.6267      0.781      1.133    18.4519 0.0000e+00
      0.763     -0.135     4.0074     48.494     39.266  34.444787     4.6800     2.0208     0.1278     2.0727 1.3521e+01     4.5516      0.748      1.086    18.5268 0.0000e+00
      0.733     -0.136     4.0934     50.786     39.188  34.418736     4.6800     2.0093     0.1278     2.0727 1.2949e+01     4.5516      0.719      1.043    18.6110 0.0000e+00
      0.702     -0.143     4.2015     53.420     39.149  34.416464     4.8600     2.0017     0.1278     2.7495 1.2547e+01     4.7019      0.689      0.999    18.7007 0.0000e+00
      0.668     -0.153     4.3380     56.264     39.154  34.449249     4.8600     2.3221     0.1278     2.7495 1.2539e+01     5.8592      0.655      0.951    18.7864 0.0000e+00
      0.629     -0.165     4.5089     59.157     39.200  34.525833     4.8600     2.3069     0.1278     2.7495 1.4501e+01     5.7540      0.617      0.894    18.8575 0.0000e+00
      0.583     -0.174     4.7169     61.997     39.293  34.662676     4.8600     2.3336     0.1278     2.7495 2.0584e+01     5.7690      0.571      0.829    18.9110 0.0000e+00
      0.532     -0.179     4.9575     64.794     39.416  34.850723     4.8600     2.3450     0.1278     2.7495 3.2565e+01     5.7690      0.521      0.756    18.9511 0.0000e+00
      0.480     -0.176     5.2173     67.722     39.590  35.102494     4.8600     2.4518     0.1704     3.9339 5.0675e+01     8.8352      0.470      0.682    18.9866 0.0000e+00
      0.431     -0.166     5.4800     71.104     39.871  35.465328     4.8600     2.4442     0.1704     3.9339 6.9625e+01     8.7901      0.423      0.613    19.0315 0.0000e+00
      0.389     -0.152     5.7342     75.314     40.261  35.940923     4.8600     2.4556     0.1704     3.9339 7.1139e+01     8.8652      0.381      0.553    19.1000 0.0000e+00
      0.354     -0.136     5.9798     80.640     40.736  36.511532     4.8600     2.4824     0.1704     3.9339 6.8634e+01     8.9855      0.347      0.504    19.1983 0.0000e+00
      0.325     -0.122     6.2332     87.251     41.226  37.109480     5.3100     2.3679     0.2130     5.9643 6.6534e+01    12.3372      0.318      0.462    19.3203 0.0000e+00
      0.299     -0.111     6.5243     95.256     41.688  37.690223     5.3100     2.3717     0.2130     5.9643 6.3954e+01    12.1268      0.293      0.425    19.4592 0.0000e+00
      0.274     -0.103     6.8865    104.666     42.218  38.333366     5.3100     2.3908     0.2130     5.9643 6.3511e+01    12.2320      0.269      0.389    19.6172 0.0000e+00
      0.249     -0.096     7.3451    115.297     42.843  39.065827     5.3100     2.3755     0.2130     5.9643 7.3050e+01    12.1117      0.244      0.354    19.7946 0.0000e+00
      0.223     -0.089     7.9152    126.729     43.437  39.775905     6.3900     2.8219     0.3408    15.0588 9.8767e+01    17.8683      0.218      0.317    19.9861 0.0000e+00
      0.198     -0.080     8.6068    138.406     43.955  40.417237     6.3900     2.8104     0.3408    15.0588 1.3201e+02    17.8232      0.194      0.281    20.1821 0.0000e+00
      0.176     -0.069     9.4207    149.801     44.533  41.109350     6.3900     2.8295     0.3408    15.0588 1.3336e+02    17.9284      0.173      0.251    20.3753 0.0000e+00
      0.160     -0.058    10.3389    160.483     45.137  41.822855     6.3900     2.8104     0.3408    15.0588 1.3549e+02    17.8082      0.157      0.228    20.5676 0.0000e+00
      0.149     -0.047    11.3225    170.115     45.556  42.365673     6.5700     3.1156     0.3834    16.2009 1.2476e+02    25.6990      0.146      0.212    20.7625 0.0000e+00
      0.142     -0.039    12.3224    178.445     45.778  42.718130     6.5700     3.1270     0.3834    16.2009 1.1987e+02    25.8343      0.139      0.201    20.9542 0.0000e+00
      0.135     -0.036    13.2934    185.327     45.912  42.974221     6.5700     3.1118     0.3834    16.2009 1.0865e+02    25.7741      0.133      0.193    21.1355 0.0000e+00
      0.129     -0.038    14.1968    190.703     46.029  43.198281     6.5700     3.1385     0.3834    16.2009 1.0173e+02    25.6539      0.127      0.183    21.3104 0.0000e+00
      0.121     -0.047    15.0027    194.530     46.151  43.416381     6.5700     3.2567     0.3834    16.2009 1.0224e+02    25.5487      0.118      0.172    21.4827 0.0000e+00
      0.109     -0.060    15.6919    196.798     46.244  43.601490     7.2900     3.2758     0.4260    19.9233 9.6203e+01    25.6088      0.107      0.156    21.6451 0.0000e+00
      0.094     -0.077    16.2557    197.588     46.328  43.773255     7.2900     3.2567     0.4260    19.9233 8.5850e+01    25.6389      0.093      0.134    21.7894 0.0000e+00
      0.074     -0.094    16.6903    197.055     46.511  44.040884     7.2900     3.2300     0.4260    19.9233 7.9892e+01    25.5637      0.073      0.106    21.9154 0.0000e+00
      0.047     -0.110    16.9913    195.422     46.798  44.424232     7.2900     3.0126     0.4260    19.9233 1.0901e+02    21.9264      0.047      0.068    22.0285 0.0000e+00
      0.013     -0.121    17.1573    192.958     47.079  44.827394     7.3800     2.9859     0.4686    20.7270 2.2194e+02    21.7611      0.013      0.019    22.1341 0.0000e+00
     -0.025     -0.127    17.1955    189.917     47.334  45.225138     7.3800     2.9859     0.4686    20.7270 3.6260e+02    21.9264     -0.024     -0.035    22.2340 0.0000e+00
     -0.062     -0.127    17.1183    186.522     47.618  45.662110     7.3800     3.0164     0.4686    20.7270 4.7021e+02    21.8964     -0.061     -0.088    22.3347 0.0000e+00
     -0.096     -0.123    16.9402    183.014     47.903  46.106233     7.3800     2.3832     0.4686    20.7270 4.8505e+02    21.9114     -0.094     -0.136    22.4523 0.0000e+00
     -0.125     -0.116    16.6822    179.600     48.122  46.487707     6.9300     2.3832     0.3834    19.2888 5.1213e+02    21.8964     -0.123     -0.178    22.5967 0.0000e+00
     -0.151     -0.110    16.3693    176.394     48.255  46.773519     6.9300     2.3984     0.3834    19.2888 4.6706e+02    22.0467     -0.148     -0.215    22.7607 0.0000e+00
     -0.175     -0.108    16.0245    173.424     48.287  46.936851     6.9300     2.3717     0.3834    19.2888 3.9993e+02    21.8513     -0.172     -0.249    22.9343 0.0000e+00
     -0.199     -0.112    15.6701    170.654     48.184  46.936055     6.9300     2.3183     0.3834    19.2888 3.6103e+02    23.5948     -0.195     -0.283    23.1134 0.0000e+00
     -0.225     -0.124    15.3258    168.031     47.924  46.739216     6.7500     2.3259     0.4686    18.3159 3.4119e+02    23.5647     -0.220     -0.319    23.2914 0.0000e+00
     -0.254     -0.141    15.0048    165.491     47.561  46.390949     6.7500     2.3107     0.4686    18.3159 3.1232e+02    23.6098     -0.249     -0.362    23.4556 0.0000e+00
     -0.290     -0.160    14.7126    162.923     47.248  46.048059     6.7500     2.3412     0.4686    18.3159 3.4313e+02    23.6399     -0.284     -0.412    23.5942 0.0000e+00
     -0.334     -0.177    14.4481    160.186     47.125  45.864813     6.7500     2.3450     0.4686    18.3159 4.1041e+02    20.6188     -0.327     -0.475    23.6980 0.0000e+00
     -0.385     -0.188    14.2088    157.156     47.182  45.851787     6.7500     2.3298     0.4686    18.3159 4.3276e+02    20.6789     -0.378     -0.548    23.7572 0.0000e+00
     -0.441     -0.191    13.9908    153.738     47.329  45.928225     6.9300     2.3412     0.4260    19.1196 5.0047e+02    20.6188     -0.432     -0.627    23.7642 0.0000e+00
     -0.496     -0.185    13.7831    149.927     47.472  46.009488     6.9300     2.3221     0.4260    19.1196 4.8033e+02    20.7541     -0.486     -0.705    23.7239 0.0000e+00
     -0.545     -0.170    13.5677    145.875     47.558  46.051853     6.9300     0.1210     0.4260    19.1196 4.6604e+02     3.6348     -0.534     -0.775    23.6573 0.0000e+00
     -0.585     -0.150    13.3288    141.879     47.588  46.054727     6.9300     0.1325     0.4260    19.1196 3.0507e+02     3.5897     -0.573     -0.832    23.5848 0.0000e+00
     -0.616     -0.128    13.0559    138.301     47.570  46.018877     3.6000     0.1363    -0.5964    11.2941 2.3311e+02     3.6648     -0.604     -0.876    23.5149 0.0000e+00
     -0.640     -0.107    12.7467    135.446     47.504  45.942667     3.6000     0.1172    -0.5964    11.2941 2.0079e+02     3.7099     -0.627     -0.910    23.4550 0.0000e+00
     -0.658     -0.090    12.4126    133.460     47.407  45.837480     3.6000    -0.1193    -0.5964    11.2941 2.0730e+02    -0.5136     -0.645     -0.936    23.4115 0.0000e+00
     -0.672     -0.079    12.0793    132.293     47.306  45.728766     3.6000    -0.1002    -0.5964    11.2941 2.1478e+02    -0.4084     -0.659     -0.956    23.3832 0.0000e+00
     -0.683     -0.072    11.7791    131.759     47.227  45.643016     0.0000    -0.1155    -0.0426    -0.0423 2.2136e+02    -0.2881     -0.670     -0.972    23.3644 0.0000e+00
     -0.691     -0.070    11.5392    131.621     47.196  45.608881     0.0000    -0.1384    -0.0426    -0.0423 1.9050e+02    -0.4084     -0.678     -0.983    23.3504 0.0000e+00
     -0.697 -9.990e-29    11.3728 -9.990e-29 -9.990e-29 -9.990e-29     0.0000 -9.990e-29    -0.0426    -0.0423 1.8125e+02 -9.990e-29     -0.683     -0.991    23.3385 0.0000e+00
     -0.701 -9.990e-29    11.2759 -9.990e-29 -9.990e-29 -9.990e-29     0.0000 -9.990e-29    -0.0426    -0.0423 1.5948e+02 -9.990e-29     -0.687     -0.997    23.3271 0.0000e+00
     -0.703 -9.990e-29    11.2326 -9.990e-29 -9.990e-29 -9.990e-29     0.0000 -9.990e-29    -0.0426    -0.0423 1.5220e+02 -9.990e-29     -0.689     -1.000    23.3169 0.0000e+00
     -0.704 -9.990e-29    11.2218 -9.990e-29 -9.990e-29 -9.990e-29     0.0000 -9.990e-29     0.0000    -0.3384 1.4974e+02 -9.990e-29     -0.690     -1.001    23.3124 0.0000e+00
