* Sea-Bird SBE19plus  Data File:
* FileName = C:\DATA\070119_fcr_0008.hex
* Software version 2.8.0.119 SB_Terminal.dll
* Temperature SN = 7809
* Conductivity SN = 7809
* System UpLoad Time = Jul 01 2019 16:59:14
* <ApplicationData>
* <Seaterm232>
* <SoftwareVersion>2.8.0.119</SoftwareVersion>
* <BuildDate>07-Nov-2018</BuildDate>
* </Seaterm232>
* </ApplicationData>
* cast   8 01 Jul 2019 11:42:55 samples 11912 to 12434, avg = 1, stop = mag switch
# nquan = 16
# nvalues = 454                         
# units = specified
# name 0 = depFM: Depth [fresh water, m]
# name 1 = dz/dtM: Descent Rate [m/s]
# name 2 = sbeox0Mg/L: Oxygen, SBE 43 [mg/l]
# name 3 = sbeox0PS: Oxygen, SBE 43 [% saturation]
# name 4 = specc: Specific Conductance [uS/cm]
# name 5 = c0uS/cm: Conductivity [uS/cm]
# name 6 = flECO-AFL: Fluorescence, WET Labs ECO-AFL/FL [mg/m^3]
# name 7 = ph: pH
# name 8 = orp: Oxidation Reduction Potential [mV]
# name 9 = par/sat/log: PAR/Logarithmic, Satlantic
# name 10 = turbWETntu0: Turbidity, WET Labs ECO [NTU]
# name 11 = prdM: Pressure, Strain Gauge [db]
# name 12 = prdE: Pressure, Strain Gauge [psi]
# name 13 = tv290C: Temperature [ITS-90, deg C]
# name 14 = density00: Density [density, kg/m^3]
# name 15 = flag:  0.000e+00
# span 0 =     -0.570,      5.414       
# span 1 =     -0.270,      0.307       
# span 2 =     0.3677,    14.0472       
# span 3 =      3.462,    160.700       
# span 4 =      1.055,     41.069       
# span 5 =   1.047477,  37.853509       
# span 6 =    -1.9050,     6.2599       
# span 7 =      7.037,      9.539       
# span 8 =   159.3637,  1240.2295       
# span 9 = 2.4550e+00, 2.9161e+03       
# span 10 =    -0.6093,    93.0587      
# span 11 =     -0.560,      5.310      
# span 12 =     -0.811,      7.701      
# span 13 =    10.9475,    26.9237      
# span 14 =   996.5542,   999.6534      
# span 15 = 0.0000e+00, 0.0000e+00      
# interval = seconds: 0.25
# start_time = Jul 01 2019 11:42:55 [Instrument's time stamp, header]
# bad_flag = -9.990e-29
# <Sensors count="9" >
#   <sensor Channel="1" >
#     <!-- Count, Temperature -->
#     <TemperatureSensor SensorID="58" >
#       <SerialNumber>7809</SerialNumber>
#       <CalibrationDate>24-Mar-19</CalibrationDate>
#       <A0>1.21792325e-003</A0>
#       <A1>2.81669265e-004</A1>
#       <A2>-1.60333336e-006</A2>
#       <A3>1.98414625e-007</A3>
#       <Slope>1.00000000</Slope>
#       <Offset>0.0000</Offset>
#     </TemperatureSensor>
#   </sensor>
#   <sensor Channel="2" >
#     <!-- Frequency 0, Conductivity -->
#     <ConductivitySensor SensorID="3" >
#       <SerialNumber>7809</SerialNumber>
#       <CalibrationDate>24-Mar-19</CalibrationDate>
#       <UseG_J>1</UseG_J>
#       <!-- Cell const and series R are applicable only for wide range sensors. -->
#       <SeriesR>0.0000</SeriesR>
#       <CellConst>2000.0000</CellConst>
#       <ConductivityType>0</ConductivityType>
#       <Coefficients equation="0" >
#         <A>0.00000000e+000</A>
#         <B>0.00000000e+000</B>
#         <C>0.00000000e+000</C>
#         <D>0.00000000e+000</D>
#         <M>0.0</M>
#         <CPcor>-9.57000000e-008</CPcor>
#       </Coefficients>
#       <Coefficients equation="1" >
#         <G>-1.00589325e+000</G>
#         <H>1.26816302e-001</H>
#         <I>-1.51560448e-004</I>
#         <J>2.67137274e-005</J>
#         <CPcor>-9.57000000e-008</CPcor>
#         <CTcor>3.2500e-006</CTcor>
#         <!-- WBOTC not applicable unless ConductivityType = 1. -->
#         <WBOTC>0.00000000e+000</WBOTC>
#       </Coefficients>
#       <Slope>1.00000000</Slope>
#       <Offset>0.00000</Offset>
#     </ConductivitySensor>
#   </sensor>
#   <sensor Channel="3" >
#     <!-- Count, Pressure, Strain Gauge -->
#     <PressureSensor SensorID="46" >
#       <SerialNumber>7809</SerialNumber>
#       <CalibrationDate>11-Mar-19</CalibrationDate>
#       <PA0>4.56561833e-002</PA0>
#       <PA1>4.85095118e-004</PA1>
#       <PA2>-2.88327090e-012</PA2>
#       <PTEMPA0>-5.48784562e+001</PTEMPA0>
#       <PTEMPA1>5.53756816e+001</PTEMPA1>
#       <PTEMPA2>-5.86727098e-001</PTEMPA2>
#       <PTCA0>5.25246745e+005</PTCA0>
#       <PTCA1>1.22304214e+001</PTCA1>
#       <PTCA2>-3.56745036e-001</PTCA2>
#       <PTCB0>2.51668750e+001</PTCB0>
#       <PTCB1>3.75000000e-004</PTCB1>
#       <PTCB2>0.00000000e+000</PTCB2>
#       <Offset>0.000000</Offset>
#     </PressureSensor>
#   </sensor>
#   <sensor Channel="4" >
#     <!-- A/D voltage 0, Oxygen, SBE 43 -->
#     <OxygenSensor SensorID="38" >
#       <SerialNumber>0434</SerialNumber>
#       <CalibrationDate>13-Apr-19</CalibrationDate>
#       <Use2007Equation>1</Use2007Equation>
#       <CalibrationCoefficients equation="0" >
#         <!-- Coefficients for Owens-Millard equation. -->
#         <Boc>0.0000</Boc>
#         <Soc>0.0000e+000</Soc>
#         <offset>0.0000</offset>
#         <Pcor>0.00e+000</Pcor>
#         <Tcor>0.0000</Tcor>
#         <Tau>0.0</Tau>
#       </CalibrationCoefficients>
#       <CalibrationCoefficients equation="1" >
#         <!-- Coefficients for Sea-Bird equation - SBE calibration in 2007 and later. -->
#         <Soc>4.2007e-001</Soc>
#         <offset>-0.6109</offset>
#         <A>-4.3656e-003</A>
#         <B> 1.7017e-004</B>
#         <C>-2.5341e-006</C>
#         <D0> 2.5826e+000</D0>
#         <D1> 1.92634e-004</D1>
#         <D2>-4.64803e-002</D2>
#         <E> 3.6000e-002</E>
#         <Tau20> 1.1800</Tau20>
#         <H1>-3.3000e-002</H1>
#         <H2> 5.0000e+003</H2>
#         <H3> 1.4500e+003</H3>
#       </CalibrationCoefficients>
#     </OxygenSensor>
#   </sensor>
#   <sensor Channel="5" >
#     <!-- A/D voltage 1, PAR/Logarithmic, Satlantic -->
#     <PARLog_SatlanticSensor SensorID="76" >
#       <SerialNumber>1122</SerialNumber>
#       <CalibrationDate>08-May-2019</CalibrationDate>
#       <a0>9.7456e-001</a0>
#       <a1>8.1640e-001</a1>
#       <Im>1.3589e+000</Im>
#       <Multiplier>1.0000e+000</Multiplier>
#     </PARLog_SatlanticSensor>
#   </sensor>
#   <sensor Channel="6" >
#     <!-- A/D voltage 2, pH -->
#     <pH_Sensor SensorID="43" >
#       <SerialNumber>0363</SerialNumber>
#       <CalibrationDate>15-Apr-19</CalibrationDate>
#       <Slope>4.5952</Slope>
#       <Offset>2.5370</Offset>
#     </pH_Sensor>
#   </sensor>
#   <sensor Channel="7" >
#     <!-- A/D voltage 3, Oxidation Reduction Potential -->
#     <OxidationReductionPotentialSensor SensorID="41" >
#       <SerialNumber>0363</SerialNumber>
#       <CalibrationDate>15-Apr-19</CalibrationDate>
#       <B>2.499480</B>
#       <M>-0.496195</M>
#       <Offset>0.0</Offset>
#     </OxidationReductionPotentialSensor>
#   </sensor>
#   <sensor Channel="8" >
#     <!-- A/D voltage 4, Fluorometer, WET Labs ECO-AFL/FL -->
#     <FluoroWetlabECO_AFL_FL_Sensor SensorID="20" >
#       <SerialNumber>FLNTURT-2496</SerialNumber>
#       <CalibrationDate>08-May-2019</CalibrationDate>
#       <ScaleFactor>5.00000000e+001</ScaleFactor>
#       <!-- Dark output -->
#       <Vblank>0.0550</Vblank>
#     </FluoroWetlabECO_AFL_FL_Sensor>
#   </sensor>
#   <sensor Channel="9" >
#     <!-- A/D voltage 5, Turbidity Meter, WET Labs, ECO-NTU -->
#     <TurbidityMeter SensorID="67" >
#       <SerialNumber>FLNTURT-2496</SerialNumber>
#       <CalibrationDate>08-May-2019</CalibrationDate>
#       <ScaleFactor>189.000000</ScaleFactor>
#       <!-- Dark output -->
#       <DarkVoltage>0.071000</DarkVoltage>
#     </TurbidityMeter>
#   </sensor>
# </Sensors>
# datcnv_date = Jul 01 2019 17:02:30, 7.26.7.129 [datcnv_vars = 15]
# datcnv_in = C:\DATA\070119_fcr_0008.hex C:\DATA\SBE19plusV2_7809.xmlcon
# datcnv_skipover = 0
# datcnv_ox_hysteresis_correction = yes
# datcnv_ox_tau_correction = yes
# filter_date = Jul 01 2019 17:02:54, 7.26.7.129
# filter_in = C:\DATA\070119_fcr_0008.cnv
# filter_low_pass_tc_A = 0.030
# filter_low_pass_tc_B = 0.150
# filter_low_pass_A_vars = prdM prdE tv290C density00
# filter_low_pass_B_vars = depFM dz/dtM sbeox0Mg/L sbeox0PS specc c0uS/cm flECO-AFL ph orp par/sat/log turbWETntu0
# alignctd_date = Jul 01 2019 17:03:11, 7.26.7.129
# alignctd_in = C:\DATA\070119_fcr_0008.cnv
# alignctd_adv = dz/dtM 1.000, sbeox0Mg/L 1.000, sbeox0PS 1.000, specc 1.000, c0uS/cm 1.000, flECO-AFL 1.000, ph 1.000, orp 1.000, turbWETntu0 1.000                                                                                 
# file_type = ascii
*END*
     -0.569 -4.313e-20     7.8008     93.791      1.055   1.047477    -0.1044      7.037  1240.2295 2.0298e+03    -0.4545     -0.558     -0.809    24.6547   997.1408 0.0000e+00
     -0.569 -3.921e-21     7.8013     93.793      1.059   1.051447    -0.1209      7.037  1240.2295 1.5920e+03    -0.5071     -0.558     -0.810    24.6523   997.1414 0.0000e+00
     -0.570 -3.564e-22     7.8006     93.781      1.090   1.082440    -0.1220      7.037  1240.2295 8.0652e+02    -0.5687     -0.559     -0.810    24.6492   997.1421 0.0000e+00
     -0.570 -3.234e-23     7.8007     93.776      1.177   1.168767    -0.1093      7.038  1240.2295 4.0199e+02    -0.6093     -0.559     -0.811    24.6466   997.1428 0.0000e+00
     -0.569 -2.225e-24     7.8010     93.775      1.281   1.271533    -0.1067      7.038  1240.2295 7.2484e+02    -0.6048     -0.558     -0.810    24.6442   997.1434 0.0000e+00
     -0.569 7.6633e-24     7.8008     93.770      1.321   1.311210    -0.1157      7.039  1240.2295 1.4030e+03    -0.5471     -0.558     -0.810    24.6415   997.1441 0.0000e+00
     -0.569 8.7218e-23     7.8017     93.775      1.342   1.331704    -0.1143      7.039  1240.2295 1.5602e+03    -0.5020     -0.558     -0.809    24.6388   997.1448 0.0000e+00
     -0.569 9.5966e-22     7.8030     93.787      1.531   1.519321    -0.1076      7.039  1240.2295 1.3905e+03    -0.5183     -0.559     -0.810    24.6360   997.1455 0.0000e+00
     -0.569 1.0556e-20     7.8036     93.790      1.883   1.868894    -0.1120      7.040  1240.2295 1.6350e+03    -0.5469     -0.558     -0.810    24.6333   997.1462 0.0000e+00
     -0.570 1.1612e-19     7.8042     93.793      2.153   2.136808    -0.1159      7.042  1240.2295 1.6973e+03    -0.5529     -0.559     -0.811    24.6309   997.1468 0.0000e+00
     -0.570 1.2773e-18     7.8051     93.799      2.240   2.224129    -0.1106      7.042  1240.2295 1.1371e+03    -0.5256     -0.559     -0.811    24.6283   997.1474 0.0000e+00
     -0.570 1.4050e-17     7.8055     93.800      2.244   2.227689    -0.1088      7.042  1240.2295 5.0032e+02    -0.5111     -0.559     -0.811    24.6261   997.1480 0.0000e+00
     -0.570 1.5455e-16     7.8049     93.792      2.196   2.179845    -0.1118      7.045  1240.2295 2.3044e+02    -0.5091     -0.558     -0.809    24.6237   997.1487 0.0000e+00
     -0.570 1.7001e-15     7.8042     93.784      2.041   2.025842    -0.1126      7.052  1240.2295 2.0177e+02    -0.5013     -0.559     -0.810    24.6210   997.1493 0.0000e+00
     -0.570 1.8701e-14     7.8034     93.777      1.901   1.886366    -0.1177      7.054  1240.2295 2.2892e+02    -0.5480     -0.559     -0.811    24.6186   997.1500 0.0000e+00
     -0.570 2.0571e-13     7.8022     93.765      1.902   1.887437    -0.0953      7.051  1240.2295 5.6029e+02    -0.5166     -0.559     -0.810    24.6162   997.1506 0.0000e+00
     -0.570 2.2628e-12     7.8018     93.761      1.863   1.848710    -0.0416      7.050  1240.2291 1.0908e+03    -0.3840     -0.559     -0.810    24.6146   997.1510 0.0000e+00
     -0.569 2.4891e-11     7.8025     93.772      1.684   1.671574    -0.0064      7.047  1240.2252 1.0654e+03    -0.3214     -0.558     -0.810    24.6152   997.1508 0.0000e+00
     -0.569 2.7380e-10     7.8032     93.781      1.532   1.519835     0.0097      7.043  1240.1826 5.7942e+02    -0.3178     -0.558     -0.810    24.6171   997.1503 0.0000e+00
     -0.570 3.0118e-09     7.8032     93.782      1.483   1.471380     0.0145      7.042  1239.7139 3.3137e+02    -0.3394     -0.559     -0.810    24.6189   997.1499 0.0000e+00
     -0.570 3.3130e-08     7.8033     93.783      1.477   1.465878    -0.0178      7.043  1234.5581 2.9099e+02    -0.3854     -0.559     -0.810    24.6201   997.1494 0.0000e+00
     -0.569 3.6443e-07     7.8033     93.782      1.465   1.453317    -0.0769      7.044  1229.8118 2.5559e+02    -0.4152     -0.558     -0.809    24.6212   997.1492 0.0000e+00
     -0.569      0.000     7.8039     93.788      1.458   1.446226    -0.1101      7.044  1234.2944 2.9219e+02    -0.4708     -0.558     -0.809    24.6219   997.1491 0.0000e+00
     -0.569      0.000     7.8047     93.795      1.518   1.506859    -0.1508      7.044  1236.7899 3.7287e+02    -0.5329     -0.559     -0.810    24.6216   997.1491 0.0000e+00
     -0.569      0.000     7.8040     93.784      1.819   1.806254    -0.6130      7.052  1208.0167 3.8573e+02    -0.3142     -0.558     -0.809    24.6215   997.1492 0.0000e+00
     -0.569      0.005     7.8021     93.774      4.461   4.432575    -1.4587      7.130   948.6922 3.4103e+02     0.1413     -0.558     -0.809    24.6210   997.1492 0.0000e+00
     -0.569      0.024     7.7910     93.777     13.409  13.361622    -1.9050      7.431   490.3720 4.6291e+02     0.4201     -0.558     -0.810    24.6209   997.1494 0.0000e+00
     -0.569      0.061     7.7527     93.773     25.975  26.016630    -1.8483      7.964   245.2567 8.3472e+02     0.8930     -0.558     -0.809    24.6189   997.1498 0.0000e+00
     -0.567      0.112     7.6910     93.748     33.805  34.096027    -0.8601      8.511   221.1846 1.1735e+03     5.9248     -0.560     -0.811    24.6184   997.1500 0.0000e+00
     -0.550      0.169     7.6314     93.727     35.741  36.321023     0.9572      8.931   203.5344 1.3696e+03    15.1493     -0.556     -0.806    24.6146   997.1509 0.0000e+00
     -0.494      0.225     7.5872     93.749     35.795  36.609629     1.9616      9.220   180.6982 1.5432e+03    20.1380     -0.499     -0.724    24.6198   997.1520 0.0000e+00
     -0.404      0.271     7.5632     93.877     35.645  36.633814     2.0498      9.399   180.6493 1.7136e+03    20.1650     -0.395     -0.573    24.8908   997.0887 0.0000e+00
     -0.309      0.301     7.5659     94.184     35.514  36.613710     1.9284      9.495   200.1039 1.8125e+03    15.6728     -0.299     -0.435    25.4128   996.9568 0.0000e+00
     -0.220      0.307     7.5936     94.683     35.397  36.557144     1.6991      9.534   199.7057 1.8215e+03     7.3778     -0.215     -0.312    25.8302   996.8477 0.0000e+00
     -0.136      0.288     7.6375     95.315     35.267  36.457738     1.5838      9.539   178.6736 1.6630e+03     2.8507     -0.129     -0.186    26.1557   996.7616 0.0000e+00
     -0.065      0.255     7.6883     95.999     35.156  36.363921     1.5925      9.529   165.8095 1.3603e+03     2.4588     -0.058     -0.084    26.4177   996.6916 0.0000e+00
     -0.006      0.218     7.7411     96.683     35.096  36.311435     1.6475      9.514   163.4167 1.2269e+03     2.3439     -0.004     -0.006    26.5659   996.6518 0.0000e+00
      0.042      0.179     7.7921     97.328     35.112  36.330924     1.7467      9.501   162.4766 1.2325e+03     2.1498      0.047      0.067    26.6463   996.6302 0.0000e+00
      0.082      0.142     7.8340     97.849     35.189  36.409157     1.8113      9.489   161.7556 1.2283e+03     2.0457      0.081      0.118    26.6867   996.6192 0.0000e+00
      0.116      0.112     7.8610     98.176     35.276  36.495691     1.8224      9.475   161.3243 1.1988e+03     2.0353      0.117      0.170    26.7164   996.6113 0.0000e+00
      0.139      0.089     7.8759     98.354     35.333  36.552057     1.8291      9.458   161.2199 1.1977e+03     2.0235      0.145      0.210    26.7285   996.6080 0.0000e+00
      0.148      0.071     7.8854     98.469     35.365  36.582898     1.8664      9.437   161.7838 1.3101e+03     2.0016      0.140      0.205    26.7304   996.6075 0.0000e+00
      0.158      0.056     7.8924     98.559     35.395  36.614694     1.9346      9.414   170.8961 1.2788e+03     1.9994      0.151      0.219    26.7305   996.6076 0.0000e+00
      0.174      0.041     7.8921     98.566     35.457  36.682619     1.9772      9.390   181.1405 1.1951e+03     2.0299      0.173      0.251    26.7214   996.6103 0.0000e+00
      0.190      0.027     7.8716     98.321     35.597  36.832926     1.9912      9.365   175.4324 1.4961e+03     2.0762      0.186      0.270    26.7171   996.6115 0.0000e+00
      0.201      0.016     7.8223     97.713     35.791  37.035671     1.9734      9.340   166.4088 1.6984e+03     2.5592      0.200      0.291    26.7158   996.6119 0.0000e+00
      0.201      0.008     7.7558     96.885     35.916  37.166329     1.9191      9.316   164.9591 1.4139e+03     3.4781      0.203      0.295    26.7150   996.6121 0.0000e+00
      0.191      0.002     7.7019     96.216     35.891  37.143249     1.8892      9.294   173.6487 1.2751e+03     3.9771      0.187      0.272    26.7221   996.6101 0.0000e+00
      0.181     -0.001     7.6815     95.971     35.881  37.137450     1.8979      9.274   189.9950 1.2906e+03     3.9724      0.171      0.249    26.7309   996.6077 0.0000e+00
      0.181     -0.001     7.6844     96.020     36.081  37.350118     1.9459      9.253   190.5221 1.2012e+03     3.4868      0.175      0.254    26.7353   996.6066 0.0000e+00
      0.190      0.003     7.6876     96.074     36.336  37.619958     2.0189      9.235   175.1184 1.0923e+03     2.5625      0.188      0.273    26.7343   996.6070 0.0000e+00
      0.196      0.008     7.6777     95.962     36.442  37.734150     2.0527      9.224   165.6762 9.8124e+02     2.0394      0.195      0.283    26.7370   996.6063 0.0000e+00
      0.196      0.009     7.6496     95.618     36.482  37.778685     2.0509      9.217   163.8590 9.8018e+02     2.0116      0.193      0.280    26.7436   996.6045 0.0000e+00
      0.195      0.007     7.6004     95.010     36.539  37.841055     2.0142      9.210   162.9550 1.0580e+03     1.9642      0.190      0.275    26.7509   996.6025 0.0000e+00
      0.196      0.004     7.5269     94.097     36.549  37.853509     1.9386      9.200   162.3171 1.0681e+03     1.8272      0.192      0.280    26.7608   996.5999 0.0000e+00
      0.198      0.003     7.4338     92.938     36.498  37.802314     1.8917      9.186   161.9112 1.0721e+03     1.7641      0.194      0.282    26.7669   996.5983 0.0000e+00
      0.199      0.003     7.3385     91.752     36.426  37.729882     1.8802      9.170   161.5756 1.0723e+03     1.7910      0.195      0.283    26.7696   996.5976 0.0000e+00
      0.200      0.004     7.2601     90.776     36.371  37.675969     1.8436      9.154   161.2697 1.1162e+03     1.8577      0.197      0.285    26.7747   996.5962 0.0000e+00
      0.200      0.004     7.2111     90.168     36.352  37.658257     1.7867      9.139   160.9666 1.4473e+03     1.9482      0.197      0.285    26.7784   996.5952 0.0000e+00
      0.200      0.003     7.1970     89.992     36.337  37.642684     1.7641      9.127   160.7504 1.6011e+03     2.0000      0.195      0.283    26.7802   996.5947 0.0000e+00
      0.201      0.003     7.2160     90.229     36.311  37.614629     1.7692      9.117   160.6345 1.2704e+03     2.0243      0.196      0.285    26.7837   996.5937 0.0000e+00
      0.204      0.002     7.2598     90.774     36.272  37.572939     1.7714      9.105   160.5118 9.7799e+02     2.0126      0.200      0.291    26.7877   996.5926 0.0000e+00
      0.205      0.002     7.3166     91.479     36.223  37.519469     1.7994      9.091   160.3850 9.5649e+02     1.9899      0.202      0.294    26.7900   996.5920 0.0000e+00
      0.204      0.002     7.3751     92.203     36.184  37.475919     1.8651      9.077   160.2198 1.0229e+03     2.0122      0.200      0.290    26.7899   996.5919 0.0000e+00
      0.202      0.001     7.4254     92.824     36.140  37.427219     1.9061      9.066   160.0626 1.1415e+03     2.0201      0.198      0.287    26.7884   996.5923 0.0000e+00
      0.202      0.000     7.4600     93.253     36.091  37.374961     1.8969      9.056   160.0338 1.2540e+03     1.9867      0.198      0.287    26.7872   996.5927 0.0000e+00
      0.203      0.000     7.4772     93.470     36.068  37.351857     1.8401      9.046   160.0436 1.2228e+03     1.9693      0.200      0.288    26.7847   996.5934 0.0000e+00
      0.205      0.000     7.4815     93.526     36.054  37.338302     1.7573      9.035   160.0083 1.1501e+03     2.0067      0.202      0.293    26.7797   996.5947 0.0000e+00
      0.206      0.001     7.4799     93.509     36.052  37.338014     1.7108      9.024   159.9511 1.1247e+03     2.0455      0.202      0.294    26.7752   996.5960 0.0000e+00
      0.205      0.001     7.4779     93.485     36.062  37.348374     1.7024      9.013   159.8684 1.0902e+03     2.0124      0.201      0.292    26.7726   996.5966 0.0000e+00
      0.203      0.001     7.4767     93.471     36.050  37.336624     1.7001      9.002   159.8691 1.0552e+03     1.9668      0.199      0.289    26.7729   996.5966 0.0000e+00
      0.203      0.001     7.4785     93.493     36.037  37.322889     1.6915      8.991   159.8738 1.1467e+03     1.9865      0.198      0.288    26.7752   996.5959 0.0000e+00
      0.204      0.001     7.4860     93.585     36.024  37.309258     1.6842      8.982   159.7531 1.2903e+03     2.0210      0.200      0.291    26.7773   996.5953 0.0000e+00
      0.206      0.002     7.4981     93.735     36.015  37.298758     1.6906      8.973   159.7006 1.2568e+03     2.0231      0.202      0.293    26.7782   996.5951 0.0000e+00
      0.206      0.003     7.5101     93.882     36.039  37.322879     1.6821      8.966   159.6684 1.0618e+03     1.9782      0.202      0.294    26.7781   996.5951 0.0000e+00
      0.206      0.003     7.5161     93.952     36.064  37.347008     1.6502      8.960   159.5359 9.9935e+02     1.8719      0.202      0.294    26.7778   996.5952 0.0000e+00
      0.207      0.003     7.5129     93.910     36.055  37.336602     1.6344      8.956   159.4752 1.1188e+03     1.7868      0.203      0.295    26.7773   996.5953 0.0000e+00
      0.209      0.002     7.5031     93.786     36.044  37.324002     1.6381      8.951   159.5371 1.1477e+03     1.8015      0.205      0.297    26.7765   996.5955 0.0000e+00
      0.210      0.002     7.4911     93.634     36.042  37.321607     1.6256      8.946   159.6817 1.1278e+03     1.8853      0.206      0.299    26.7745   996.5961 0.0000e+00
      0.210      0.001     7.4762     93.447     36.029  37.307645     1.5885      8.939   159.8473 1.1967e+03     1.9473      0.206      0.299    26.7722   996.5968 0.0000e+00
      0.209      0.001     7.4560     93.192     36.005  37.282141     1.5615      8.931   159.9050 1.2032e+03     1.9614      0.205      0.297    26.7705   996.5973 0.0000e+00
      0.209      0.000     7.4292     92.852     35.993  37.267136     1.5587      8.924   159.8634 1.1702e+03     1.9914      0.205      0.297    26.7695   996.5975 0.0000e+00
      0.209     -0.002     7.3964     92.435     35.982  37.253163     1.5640      8.918   159.8600 1.1007e+03     2.0148      0.205      0.298    26.7691   996.5976 0.0000e+00
      0.209     -0.002     7.3621     92.000     35.972  37.240135     1.5655      8.913   159.9498 1.0291e+03     2.0145      0.205      0.297    26.7688   996.5977 0.0000e+00
      0.209     -0.002     7.3322     91.619     35.971  37.236558     1.5672      8.908   160.0024 1.0949e+03     2.0210      0.206      0.299    26.7672   996.5981 0.0000e+00
      0.208     -0.001     7.3098     91.329     35.950  37.209908     1.5759      8.903   159.9803 1.2211e+03     2.0284      0.205      0.297    26.7638   996.5990 0.0000e+00
      0.206      0.000     7.2913     91.078     35.922  37.171804     1.5836      8.898   160.0260 1.3061e+03     2.0059      0.201      0.292    26.7596   996.6002 0.0000e+00
      0.206      0.000     7.2665     90.739     35.920  37.156679     1.5829      8.892   160.1253 1.2329e+03     1.9115      0.200      0.291    26.7557   996.6012 0.0000e+00
      0.208     -0.001     7.2311     90.268     35.930  37.153950     1.5682      8.884   160.0615 1.1024e+03     1.8047      0.205      0.296    26.7526   996.6020 0.0000e+00
      0.209     -0.002     7.1910     89.747     35.924  37.138788     1.5528      8.878   159.8579 1.0294e+03     1.7639      0.207      0.300    26.7479   996.6034 0.0000e+00
      0.209     -0.004     7.1556     89.288     35.894  37.100288     1.5532      8.874   159.8149 1.0046e+03     1.7783      0.206      0.299    26.7355   996.6067 0.0000e+00
      0.207     -0.004     7.1273     88.919     35.871  37.069283     1.5466      8.870   159.7994 1.2259e+03     1.8473      0.203      0.294    26.7141   996.6125 0.0000e+00
      0.203     -0.002     7.1037     88.606     35.829  37.017799     1.5164      8.865   159.5842 1.5434e+03     1.9430      0.199      0.288    26.6946   996.6179 0.0000e+00
      0.200      0.003     7.0839     88.339     35.745  36.922090     1.5002      8.859   159.3637 1.5656e+03     1.9848      0.196      0.284    26.6835   996.6208 0.0000e+00
      0.199      0.011     7.0639     88.064     35.700  36.864150     1.5162      8.849   159.3705 1.3572e+03     1.9921      0.194      0.282    26.6742   996.6234 0.0000e+00
      0.202      0.019     7.0425     87.773     35.673  36.825024     1.5442      8.837   159.6667 1.2108e+03     2.0318      0.197      0.285    26.6633   996.6264 0.0000e+00
      0.211      0.023     7.0202     87.480     35.623  36.766354     1.5697      8.827   159.9339 1.2536e+03     2.0388      0.205      0.297    26.6519   996.6295 0.0000e+00
      0.223      0.022     6.9923     87.128     35.585  36.726020     1.5735      8.821   159.9337 1.2843e+03     1.9791      0.219      0.318    26.6411   996.6324 0.0000e+00
      0.234      0.019     6.9568     86.684     35.578  36.718190     1.5641      8.821   159.9212 1.2464e+03     1.9323      0.232      0.337    26.6251   996.6368 0.0000e+00
      0.239      0.014     6.9201     86.223     35.596  36.735152     1.5690      8.822   160.0421 1.1624e+03     1.9314      0.238      0.345    26.6052   996.6422 0.0000e+00
      0.237      0.009     6.8915     85.860     35.605  36.740692     1.5805      8.816   160.1903 9.6338e+02     1.9679      0.234      0.339    26.5956   996.6448 0.0000e+00
      0.232      0.004     6.8743     85.638     35.590  36.721688     1.5812      8.806   160.3369 8.3884e+02     1.9809      0.224      0.324    26.5955   996.6448 0.0000e+00
      0.232      0.001     6.8658     85.524     35.569  36.695778     1.5784      8.796   160.4377 1.0269e+03     1.9572      0.224      0.325    26.5959   996.6446 0.0000e+00
      0.237      0.002     6.8594     85.439     35.557  36.681303     1.5894      8.786   160.4626 1.5088e+03     1.9112      0.234      0.340    26.5938   996.6452 0.0000e+00
      0.240      0.006     6.8501     85.319     35.552  36.673620     1.6193      8.777   160.4666 1.8332e+03     1.8496      0.238      0.345    26.5890   996.6466 0.0000e+00
      0.237      0.010     6.8371     85.152     35.547  36.666352     1.6457      8.770   160.4851 1.6987e+03     1.8353      0.232      0.337    26.5821   996.6484 0.0000e+00
      0.236      0.013     6.8205     84.940     35.540  36.656900     1.6485      8.760   160.6010 1.4715e+03     1.8376      0.229      0.333    26.5770   996.6498 0.0000e+00
      0.241      0.015     6.7972     84.643     35.510  36.622804     1.6354      8.744   160.8355 1.4117e+03     1.8107      0.236      0.343    26.5744   996.6505 0.0000e+00
      0.248      0.017     6.7639     84.222     35.463  36.571444     1.6251      8.728   160.9969 1.5109e+03     1.8387      0.243      0.354    26.5716   996.6513 0.0000e+00
      0.255      0.017     6.7196     83.665     35.438  36.543694     1.6281      8.720   161.0042 1.4630e+03     1.9468      0.249      0.362    26.5683   996.6522 0.0000e+00
      0.262      0.014     6.6652     82.985     35.438  36.541164     1.6372      8.723   161.0960 1.0920e+03     2.0368      0.259      0.375    26.5646   996.6533 0.0000e+00
      0.267      0.008     6.6044     82.224     35.439  36.540840     1.6399      8.729   161.3317 9.0075e+02     2.0410      0.265      0.384    26.5609   996.6543 0.0000e+00
      0.267      0.003     6.5381     81.393     35.441  36.539778     1.6171      8.731   161.4449 9.7745e+02     1.9329      0.262      0.381    26.5565   996.6555 0.0000e+00
      0.263      0.000     6.4693     80.532     35.432  36.528316     1.5785      8.729   161.4330 1.0511e+03     1.8104      0.257      0.374    26.5528   996.6564 0.0000e+00
      0.260     -0.001     6.4051     79.727     35.435  36.529198     1.5722      8.726   161.5322 1.1021e+03     1.8056      0.254      0.369    26.5509   996.6569 0.0000e+00
      0.260      0.003     6.3461     78.988     35.458  36.550431     1.5926      8.722   161.7840 1.1526e+03     1.8415      0.255      0.370    26.5484   996.6576 0.0000e+00
      0.260      0.011     6.2921     78.310     35.442  36.531157     1.6080      8.715   161.9822 1.1456e+03     1.8850      0.256      0.371    26.5444   996.6587 0.0000e+00
      0.262      0.021     6.2475     77.749     35.402  36.486572     1.6201      8.704   162.0347 1.1296e+03     1.9713      0.255      0.370    26.5406   996.6597 0.0000e+00
      0.268      0.029     6.2149     77.337     35.374  36.455645     1.6264      8.686   162.0747 1.1491e+03     2.0321      0.261      0.379    26.5374   996.6606 0.0000e+00
      0.278      0.034     6.1905     77.030     35.333  36.411110     1.6322      8.669   162.1212 1.0282e+03     2.0629      0.270      0.393    26.5338   996.6617 0.0000e+00
      0.293      0.035     6.1685     76.757     35.315  36.392399     1.6641      8.659   162.3392 8.3153e+02     2.0487      0.287      0.415    26.5298   996.6627 0.0000e+00
      0.308      0.035     6.1438     76.449     35.341  36.419820     1.7176      8.654   162.8185 7.3263e+02     1.9921      0.305      0.442    26.5266   996.6637 0.0000e+00
      0.316      0.034     6.1166     76.108     35.348  36.425310     1.7506      8.644   163.1838 6.5508e+02     1.9677      0.313      0.454    26.5218   996.6651 0.0000e+00
      0.318      0.031     6.0943     75.825     35.322  36.395295     1.7589      8.633   163.2291 6.2293e+02     1.9827      0.311      0.451    26.5172   996.6662 0.0000e+00
      0.321      0.026     6.0783     75.621     35.304  36.374265     1.7486      8.626   163.1940 7.0338e+02     2.0099      0.312      0.451    26.5194   996.6656 0.0000e+00
      0.331      0.021     6.0635     75.435     35.292  36.361447     1.7214      8.622   163.3620 7.8588e+02     2.0345      0.324      0.469    26.5208   996.6654 0.0000e+00
      0.342      0.023     6.0450     75.204     35.298  36.367252     1.7077      8.615   163.9692 7.6294e+02     2.0508      0.339      0.492    26.5183   996.6661 0.0000e+00
      0.346      0.033     6.0258     74.961     35.314  36.380981     1.7041      8.603   164.8569 6.5054e+02     2.0438      0.341      0.495    26.5137   996.6673 0.0000e+00
      0.345      0.048     6.0256     74.951     35.275  36.337023     1.6958      8.589   165.4916 5.8330e+02     2.0157      0.338      0.489    26.5085   996.6688 0.0000e+00
      0.347      0.060     6.0712     75.519     35.219  36.280052     1.6939      8.582   165.8776 6.4620e+02     2.0383      0.335      0.486    26.5084   996.6688 0.0000e+00
      0.365      0.065     6.1772     76.844     35.200  36.263382     1.6983      8.586   166.1696 7.4795e+02     2.1199      0.346      0.502    26.5091   996.6687 0.0000e+00
      0.404      0.067     6.3354     78.806     35.202  36.262425     1.7057      8.592   166.3549 8.3316e+02     2.1827      0.397      0.576    26.5052   996.6699 0.0000e+00
      0.440      0.063     6.5202     81.088     35.215  36.268468     1.7134      8.593   166.6554 8.5658e+02     2.2087      0.444      0.643    26.4946   996.6730 0.0000e+00
      0.453      0.052     6.6999     83.308     35.226  36.272968     1.7137      8.592   166.9633 7.3053e+02     2.1067      0.448      0.650    26.4965   996.6725 0.0000e+00
      0.450      0.034     6.8476     85.134     35.212  36.253354     1.7100      8.588   167.0668 6.1472e+02     1.8664      0.439      0.637    26.5103   996.6687 0.0000e+00
      0.450      0.015     6.9493     86.389     35.185  36.221714     1.7027      8.583   167.2180 6.1347e+02     1.7281      0.441      0.639    26.5033   996.6706 0.0000e+00
      0.453      0.003     7.0021     87.037     35.175  36.207763     1.6951      8.578   167.5008 6.9235e+02     1.7459      0.446      0.647    26.4868   996.6751 0.0000e+00
      0.453      0.000     7.0101     87.127     35.183  36.211603     1.7127      8.572   167.7329 9.2891e+02     1.8194      0.446      0.645    26.4781   996.6774 0.0000e+00
      0.451      0.001     6.9825     86.768     35.183  36.204675     1.7511      8.567   167.8732 1.1381e+03     1.9288      0.441      0.640    26.4713   996.6792 0.0000e+00
      0.450      0.002     6.9325     86.130     35.174  36.187459     1.7698      8.561   167.9919 1.0353e+03     1.9869      0.440      0.639    26.4656   996.6808 0.0000e+00
      0.451      0.002     6.8746     85.395     35.187  36.193844     1.7643      8.555   168.1355 8.0183e+02     1.9654      0.443      0.642    26.4618   996.6818 0.0000e+00
      0.453      0.001     6.8173     84.669     35.217  36.218389     1.7627      8.550   168.2333 7.5084e+02     1.9631      0.444      0.644    26.4567   996.6833 0.0000e+00
      0.456     -0.002     6.7646     84.002     35.235  36.230335     1.7681      8.545   168.3138 8.6701e+02     1.9926      0.448      0.649    26.4453   996.6863 0.0000e+00
      0.458     -0.006     6.7163     83.391     35.222  36.211342     1.7691      8.542   168.5073 9.2711e+02     1.9938      0.452      0.656    26.4333   996.6895 0.0000e+00
      0.455     -0.010     6.6687     82.784     35.198  36.179147     1.7671      8.540   168.6807 8.4254e+02     1.9769      0.448      0.650    26.4233   996.6923 0.0000e+00
      0.449     -0.011     6.6197     82.159     35.185  36.158411     1.7608      8.536   168.6890 7.6414e+02     1.9849      0.439      0.637    26.4133   996.6949 0.0000e+00
      0.443     -0.008     6.5703     81.535     35.183  36.151019     1.7624      8.527   168.6932 9.1601e+02     2.0250      0.433      0.629    26.4060   996.6968 0.0000e+00
      0.438     -0.003     6.5228     80.940     35.187  36.153236     1.7773      8.514   168.7312 1.0779e+03     2.0362      0.429      0.622    26.3993   996.6986 0.0000e+00
      0.437      0.000     6.4787     80.389     35.221  36.185215     1.7768      8.502   168.5464 1.1095e+03     1.9897      0.426      0.618    26.3881   996.7016 0.0000e+00
      0.442     -0.005     6.4382     79.875     35.322  36.283793     1.7648      8.497   168.0936 1.1827e+03     1.9534      0.430      0.624    26.3745   996.7053 0.0000e+00
      0.452     -0.025     6.4062     79.447     35.444  36.393062     1.8218      8.494   167.5586 1.0740e+03     1.9574      0.445      0.646    26.3683   996.7071 0.0000e+00
      0.457     -0.058     6.3947     79.257     35.500  36.427348     1.9379      8.490   167.1544 9.2844e+02     2.0058      0.455      0.660    26.3661   996.7077 0.0000e+00
      0.446     -0.097     6.4138     79.455     35.473  36.380947     1.9977      8.484   166.9917 9.2248e+02     2.0473      0.445      0.645    26.3632   996.7084 0.0000e+00
      0.411     -0.133     6.4641     80.060     35.380  36.276306     1.9988      8.474   166.9682 1.0272e+03     2.0000      0.413      0.598    26.3606   996.7089 0.0000e+00
      0.356     -0.155     6.5406     81.002     35.286  36.177675     1.9512      8.459   166.9570 1.3413e+03     1.8933      0.353      0.512    26.3378   996.7148 0.0000e+00
      0.292     -0.155     6.6364     82.192     35.249  36.140462     1.8647      8.438   166.8556 1.4150e+03     1.8054      0.282      0.410    26.2956   996.7259 0.0000e+00
      0.236     -0.135     6.7462     83.569     35.244  36.143713     1.8202      8.422   166.6879 1.1415e+03     1.7899      0.225      0.327    26.2670   996.7333 0.0000e+00
      0.200     -0.103     6.8601     85.016     35.237  36.153524     1.8122      8.414   166.5647 9.2008e+02     1.8042      0.185      0.270    26.2588   996.7352 0.0000e+00
      0.188     -0.071     6.9581     86.280     35.256  36.195644     1.7764      8.408   166.4850 7.4448e+02     1.8470      0.176      0.256    26.2559   996.7361 0.0000e+00
      0.193     -0.052     7.0227     87.124     35.312  36.272199     1.7258      8.399   166.4127 6.2043e+02     1.9470      0.191      0.277    26.2551   996.7363 0.0000e+00
      0.200     -0.056     7.0462     87.427     35.352  36.317524     1.7114      8.388   166.3786 5.7590e+02     2.0291      0.199      0.288    26.2649   996.7337 0.0000e+00
      0.197     -0.085     7.0364     87.285     35.343  36.299376     1.7057      8.378   167.1047 5.5051e+02     2.0862      0.199      0.287    26.2904   996.7269 0.0000e+00
      0.178     -0.130     7.0187     87.039     35.299  36.243181     1.6659      8.368   174.5038 5.8208e+02     2.0808      0.185      0.268    26.3262   996.7172 0.0000e+00
      0.136     -0.182     7.0203     87.040     35.274  36.209288     1.6123      8.355   192.9462 8.7482e+02     1.9968      0.141      0.204    26.3605   996.7078 0.0000e+00
      0.072     -0.227     7.0503     87.400     35.277  36.206926     1.5861      8.340   210.0092 1.3700e+03     1.9881      0.075      0.109    26.3691   996.7052 0.0000e+00
     -0.003     -0.259     7.0961     87.962     35.288  36.214609     1.6091      8.318   214.9279 1.5825e+03     2.0738     -0.000     -0.000    26.3473   996.7106 0.0000e+00
     -0.083     -0.270     7.1391     88.490     35.313  36.238718     1.8821      8.294   215.3346 1.4969e+03     2.4432     -0.084     -0.121    26.3274   996.7157 0.0000e+00
     -0.161     -0.255     7.1653     88.811     35.382  36.308008     2.3807      8.272   217.5076 1.2903e+03     3.0785     -0.160     -0.232    26.3175   996.7180 0.0000e+00
     -0.235     -0.216     7.1741     88.919     35.552  36.481147     2.6523      8.256   220.0363 9.1316e+02     3.4305     -0.232     -0.336    26.3105   996.7195 0.0000e+00
     -0.298     -0.162     7.1789     88.993     35.741  36.681865     2.6695      8.247   221.8173 5.6327e+02     3.6187     -0.301     -0.436    26.3064   996.7203 0.0000e+00
     -0.337     -0.102     7.2009     89.317     35.740  36.703783     2.5710      8.240   223.0384 4.4712e+02     5.0913     -0.344     -0.497    26.3041   996.7208 0.0000e+00
     -0.345     -0.046     7.2658     90.210     35.559  36.555778     1.4530      8.234   223.8734 5.2993e+02    21.0724     -0.347     -0.504    26.3018   996.7214 0.0000e+00
     -0.333     -0.001     7.3860     91.790     35.386  36.415742    -0.6005      8.228   224.0843 7.3155e+02    50.3858     -0.327     -0.475    26.2991   996.7223 0.0000e+00
     -0.315      0.027     7.5438     93.816     35.290  36.343577    -1.7188      8.222   224.2117 9.4000e+02    66.3687     -0.308     -0.447    26.3005   996.7221 0.0000e+00
     -0.298      0.036     7.7078     95.906     35.245  36.317991    -1.7421      8.219   224.5525 1.0792e+03    67.8288     -0.292     -0.424    26.3300   996.7142 0.0000e+00
     -0.284      0.029     7.8479     97.694     35.207  36.296827    -0.9253      8.221   224.7631 1.0942e+03    67.9088     -0.277     -0.401    26.3978   996.6959 0.0000e+00
     -0.277      0.015     7.9370     98.835     35.237  36.341596     0.5699      8.225   224.8659 9.7790e+02    67.7950     -0.268     -0.389    26.4572   996.6798 0.0000e+00
     -0.277      0.005     7.9576     99.119     35.421  36.541946     1.3808      8.227   225.0210 9.7695e+02    67.7959     -0.266     -0.387    26.4878   996.6716 0.0000e+00
     -0.284      0.002     7.9295     98.833     35.600  36.751650     1.4574      8.224   224.8323 1.2465e+03    68.3780     -0.277     -0.403    26.5158   996.6640 0.0000e+00
     -0.294      0.007     7.9276     98.928     35.646  36.846050     1.4792      8.213   223.7025 1.4965e+03    74.8345     -0.291     -0.423    26.5451   996.6560 0.0000e+00
     -0.297      0.021     8.0138    100.133     35.609  36.858252     1.5059      8.195   222.2874 1.5564e+03    86.7392     -0.295     -0.429    26.5642   996.6508 0.0000e+00
     -0.290      0.040     8.1782    102.274     35.554  36.835792     1.5202      8.179   220.4559 1.5079e+03    93.0587     -0.287     -0.418    26.5677   996.6499 0.0000e+00
     -0.272      0.059     8.3851    104.899     35.533  36.828442     1.5134      8.163   209.9900 1.3159e+03    91.5319     -0.270     -0.392    26.5945   996.6429 0.0000e+00
     -0.247      0.076     8.6034    107.634     35.536  36.832868     1.4664      8.147   199.5090 9.4744e+02    68.8034     -0.243     -0.352    26.6772   996.6205 0.0000e+00
     -0.222      0.088     8.8021    110.104     35.534  36.825831     1.3770      8.136   202.3983 5.8759e+02    27.1071     -0.215     -0.312    26.7598   996.5982 0.0000e+00
     -0.200      0.094     8.9625    112.086     35.524  36.806828     1.3255      8.130   207.1531 4.6569e+02     4.3475     -0.197     -0.285    26.8059   996.5856 0.0000e+00
     -0.179      0.096     9.0725    113.429     35.523  36.793511     1.3294      8.129   210.6242 4.9411e+02     2.2465     -0.177     -0.257    26.8230   996.5810 0.0000e+00
     -0.153      0.094     9.1255    114.055     35.533  36.791746     1.3814      8.129   205.9075 4.6356e+02     2.0645     -0.151     -0.219    26.8209   996.5817 0.0000e+00
     -0.125      0.090     9.1301    114.085     35.536  36.785457     1.4674      8.128   189.6159 4.0068e+02     2.0810     -0.121     -0.176    26.8118   996.5843 0.0000e+00
     -0.100      0.085     9.1059    113.771     35.536  36.780927     1.5117      8.126   180.0436 4.2643e+02     2.0857     -0.097     -0.140    26.8007   996.5874 0.0000e+00
     -0.078      0.075     9.0719    113.343     35.555  36.800445     1.5181      8.128   178.3594 5.5508e+02     2.0559     -0.076     -0.110    26.7837   996.5922 0.0000e+00
     -0.060      0.063     9.0394    112.937     35.585  36.831026     1.5191      8.130   175.9641 7.7023e+02     2.0155     -0.057     -0.083    26.7618   996.5983 0.0000e+00
     -0.045      0.052     9.0117    112.589     35.588  36.833325     1.5316      8.134   173.8826 9.4701e+02     1.9901     -0.041     -0.061    26.7486   996.6019 0.0000e+00
     -0.035      0.044     8.9864    112.270     35.584  36.828237     1.5657      8.139   173.8407 9.3805e+02     1.9785     -0.033     -0.049    26.7444   996.6030 0.0000e+00
     -0.030      0.042     8.9643    111.985     35.591  36.832972     1.5840      8.141   183.8899 8.0640e+02     1.9735     -0.030     -0.043    26.7444   996.6031 0.0000e+00
     -0.024      0.044     8.9485    111.775     35.591  36.827098     1.5797      8.135   203.4973 6.6306e+02     1.9625     -0.024     -0.035    26.7443   996.6033 0.0000e+00
     -0.016      0.047     8.9398    111.655     35.588  36.820687     1.5666      8.120   214.9143 5.8511e+02     1.9450     -0.016     -0.025    26.7429   996.6036 0.0000e+00
     -0.002      0.049     8.9351    111.595     35.587  36.818917     1.5462      8.104   216.9642 6.0273e+02     1.9581     -0.004     -0.006    26.7423   996.6038 0.0000e+00
      0.018      0.049     8.9301    111.538     35.572  36.805694     1.5323      8.095   217.9569 7.6255e+02     1.9888      0.019      0.028    26.7391   996.6048 0.0000e+00
      0.037      0.045     8.9249    111.483     35.552  36.787759     1.5284      8.093   218.2275 1.0558e+03     1.9886      0.040      0.059    26.7309   996.6071 0.0000e+00
      0.049      0.040     8.9232    111.475     35.552  36.792489     1.5602      8.097   218.1703 1.2880e+03     1.9240      0.050      0.073    26.7226   996.6094 0.0000e+00
      0.054      0.033     8.9256    111.522     35.552  36.799416     1.6226      8.101   218.4702 1.3775e+03     1.8296      0.054      0.078    26.7232   996.6093 0.0000e+00
      0.056      0.025     8.9254    111.539     35.554  36.808051     1.6582      8.105   219.0151 1.3818e+03     1.7986      0.053      0.077    26.7285   996.6079 0.0000e+00
      0.060      0.019     8.9164    111.445     35.572  36.833428     1.6617      8.109   219.5954 1.3747e+03     1.8108      0.057      0.083    26.7310   996.6071 0.0000e+00
      0.069      0.016     8.9024    111.285     35.585  36.852372     1.6387      8.111   220.2389 1.4652e+03     1.8125      0.068      0.099    26.7380   996.6053 0.0000e+00
      0.075      0.014     8.8932    111.174     35.578  36.846693     1.6055      8.111   220.6008 1.5573e+03     1.7875      0.075      0.109    26.7481   996.6026 0.0000e+00
      0.077      0.012     8.8928    111.172     35.560  36.828239     1.5898      8.111   220.4429 1.4948e+03     1.7375      0.076      0.110    26.7563   996.6004 0.0000e+00
      0.077      0.010     8.9000    111.272     35.548  36.819659     1.5794      8.111   218.4164 1.4276e+03     1.7324      0.075      0.109    26.7676   996.5973 0.0000e+00
      0.078      0.010     8.9121    111.439     35.530  36.806444     1.5575      8.111   216.4889 1.4635e+03     1.8234      0.076      0.110    26.7775   996.5946 0.0000e+00
      0.079      0.012     8.9245    111.603     35.516  36.795405     1.5237      8.110   218.3038 1.5711e+03     1.9213      0.077      0.112    26.7763   996.5949 0.0000e+00
      0.083      0.015     8.9337    111.717     35.533  36.813140     1.5005      8.109   220.4849 1.7738e+03     1.9655      0.080      0.116    26.7741   996.5955 0.0000e+00
      0.088      0.018     8.9374    111.757     35.552  36.830460     1.5021      8.107   220.8346 1.8338e+03     1.9978      0.086      0.125    26.7821   996.5934 0.0000e+00
      0.094      0.019     8.9349    111.724     35.537  36.814390     1.5171      8.104   220.8973 1.5716e+03     2.0164      0.093      0.134    26.7916   996.5908 0.0000e+00
      0.100      0.018     8.9282    111.646     35.530  36.809253     1.5262      8.100   220.8992 1.2680e+03     1.9931      0.098      0.143    26.7976   996.5892 0.0000e+00
      0.106      0.016     8.9178    111.525     35.550  36.831832     1.5255      8.097   220.9432 1.1511e+03     1.9460      0.105      0.152    26.7965   996.5895 0.0000e+00
      0.111      0.013     8.9042    111.359     35.550  36.833507     1.5258      8.095   220.9125 1.2487e+03     1.9383      0.110      0.158    26.7890   996.5915 0.0000e+00
      0.113      0.008     8.8901    111.181     35.546  36.829506     1.5216      8.095   220.7860 1.4375e+03     1.9653      0.111      0.161    26.7882   996.5918 0.0000e+00
      0.114      0.004     8.8776    111.016     35.566  36.846921     1.5609      8.095   220.7918 1.5050e+03     1.9448      0.112      0.162    26.7939   996.5903 0.0000e+00
      0.114      0.001     8.8680    110.886     35.576  36.853651     1.6541      8.095   220.9820 1.4551e+03     1.8544      0.112      0.162    26.7978   996.5892 0.0000e+00
      0.113     -0.001     8.8639    110.826     35.573  36.847399     1.7036      8.095   221.2786 1.3691e+03     1.7896      0.111      0.161    26.8006   996.5884 0.0000e+00
      0.112     -0.001     8.8650    110.831     35.563  36.834801     1.7082      8.094   221.6246 1.2628e+03     1.7849      0.110      0.159    26.8002   996.5884 0.0000e+00
      0.112     -0.001     8.8680    110.857     35.561  36.828264     1.7272      8.091   221.8952 1.2078e+03     1.8298      0.109      0.158    26.7946   996.5900 0.0000e+00
      0.112     -0.001     8.8712    110.890     35.567  36.831827     1.7518      8.088   222.1417 1.2353e+03     1.9394      0.110      0.159    26.7890   996.5916 0.0000e+00
      0.112     -0.002     8.8773    110.961     35.552  36.814402     1.7625      8.085   222.3687 1.2988e+03     1.9957      0.110      0.159    26.7852   996.5927 0.0000e+00
      0.111     -0.002     8.8881    111.091     35.548  36.807997     1.7615      8.082   222.4882 1.3358e+03     1.9526      0.109      0.158    26.7807   996.5939 0.0000e+00
      0.111     -0.003     8.9014    111.249     35.560  36.817863     1.7567      8.081   222.5546 1.3174e+03     1.9434      0.109      0.158    26.7751   996.5954 0.0000e+00
      0.110     -0.003     8.9145    111.407     35.552  36.806738     1.7566      8.080   222.4833 1.3481e+03     1.9831      0.108      0.156    26.7710   996.5965 0.0000e+00
      0.109     -0.002     8.9271    111.557     35.548  36.800431     1.7611      8.080   222.3143 1.4053e+03     2.0061      0.107      0.155    26.7689   996.5971 0.0000e+00
      0.108     -0.001     8.9396    111.705     35.555  36.805067     1.7673      8.081   222.2318 1.3518e+03     1.9926      0.106      0.153    26.7665   996.5977 0.0000e+00
      0.107     -0.001     8.9520    111.854     35.551  36.799312     1.8141      8.080   222.2610 1.2834e+03     1.9186      0.104      0.151    26.7625   996.5987 0.0000e+00
      0.108     -0.002     8.9638    112.004     35.546  36.794317     1.9025      8.076   222.4086 1.3428e+03     1.8320      0.105      0.152    26.7588   996.5998 0.0000e+00
      0.110     -0.004     8.9732    112.131     35.556  36.808155     1.9513      8.073   222.7262 1.4395e+03     1.7975      0.109      0.157    26.7557   996.6007 0.0000e+00
      0.111     -0.007     8.9776    112.193     35.584  36.839682     1.9535      8.071   223.0892 1.4663e+03     1.7959      0.111      0.160    26.7513   996.6019 0.0000e+00
      0.108     -0.010     8.9760    112.171     35.602  36.858150     1.9285      8.066   223.2704 1.4514e+03     1.8457      0.108      0.156    26.7475   996.6029 0.0000e+00
      0.103     -0.013     8.9686    112.070     35.589  36.841040     1.8747      8.059   223.3683 1.4160e+03     1.9735      0.101      0.147    26.7486   996.6026 0.0000e+00
      0.097     -0.015     8.9568    111.912     35.575  36.823220     1.8406      8.052   223.4987 1.3416e+03     2.0639      0.093      0.136    26.7546   996.6009 0.0000e+00
      0.092     -0.016     8.9430    111.732     35.588  36.833096     1.8374      8.047   223.4702 1.2681e+03     2.0532      0.089      0.130    26.7600   996.5994 0.0000e+00
      0.090     -0.014     8.9300    111.565     35.590  36.833503     1.8358      8.041   223.2814 1.2908e+03     2.0076      0.088      0.128    26.7587   996.5998 0.0000e+00
      0.087     -0.011     8.9218    111.459     35.585  36.828139     1.8033      8.035   223.2810 1.4232e+03     1.9714      0.086      0.124    26.7536   996.6011 0.0000e+00
      0.083     -0.007     8.9193    111.426     35.589  36.831707     1.7396      8.031   223.4654 1.6352e+03     1.9767      0.081      0.117    26.7471   996.6029 0.0000e+00
      0.081     -0.003     8.9210    111.447     35.572  36.813172     1.7067      8.029   223.6187 1.7966e+03     2.0052      0.077      0.112    26.7423   996.6041 0.0000e+00
      0.081     -0.001     8.9269    111.523     35.553  36.794444     1.7187      8.027   223.8441 1.7126e+03     2.0207      0.078      0.114    26.7412   996.6044 0.0000e+00
      0.082     -0.001     8.9349    111.629     35.552  36.795691     1.7544      8.027   224.0394 1.5370e+03     2.0342      0.080      0.116    26.7400   996.6049 0.0000e+00
      0.084     -0.001     8.9427    111.736     35.580  36.828256     1.7994      8.026   224.0009 1.4636e+03     2.0368      0.083      0.120    26.7390   996.6051 0.0000e+00
      0.085     -0.002     8.9492    111.825     35.618  36.870828     1.8210      8.021   223.8945 1.4075e+03     2.0198      0.085      0.123    26.7380   996.6053 0.0000e+00
      0.083     -0.003     8.9481    111.817     35.612  36.866116     1.8247      8.006   223.7000 1.3477e+03     2.0245      0.082      0.120    26.7382   996.6054 0.0000e+00
      0.078     -0.005     8.9371    111.688     35.579  36.834760     1.8093      7.989   222.1655 1.2526e+03     2.0279      0.076      0.111    26.7422   996.6043 0.0000e+00
      0.076     -0.005     8.9249    111.545     35.551  36.809078     1.7740      7.981   220.8276 1.1891e+03     1.9949      0.074      0.107    26.7483   996.6026 0.0000e+00
      0.076     -0.004     8.9199    111.487     35.549  36.809494     1.7625      7.982   222.1511 1.2323e+03     1.9871      0.076      0.110    26.7517   996.6017 0.0000e+00
      0.076      0.001     8.9216    111.515     35.576  36.839791     1.7739      7.987   223.4538 1.2716e+03     2.0320      0.075      0.110    26.7539   996.6010 0.0000e+00
      0.075      0.007     8.9231    111.544     35.591  36.858036     1.7646      7.989   223.3289 1.2644e+03     2.0460      0.073      0.107    26.7583   996.5997 0.0000e+00
      0.075      0.013     8.9201    111.514     35.570  36.839677     1.7284      7.989   223.1359 1.2502e+03     1.9932      0.073      0.106    26.7643   996.5982 0.0000e+00
      0.078      0.018     8.9162    111.469     35.539  36.808235     1.7000      7.987   222.4114 1.1573e+03     1.9830      0.076      0.110    26.7664   996.5976 0.0000e+00
      0.086      0.021     8.9152    111.457     35.526  36.795239     1.6990      7.986   213.7942 1.0642e+03     2.0208      0.083      0.121    26.7669   996.5975 0.0000e+00
      0.097      0.017     8.9150    111.456     35.539  36.809494     1.7239      7.985   197.3287 1.3315e+03     1.9588      0.096      0.139    26.7740   996.5956 0.0000e+00
      0.105     -0.002     8.9129    111.433     35.581  36.853649     1.7581      7.986   187.0612 1.6113e+03     1.8231      0.106      0.153    26.7792   996.5942 0.0000e+00
      0.109     -0.038     8.9098    111.408     35.607  36.884807     1.7669      7.989   184.4647 1.3660e+03     1.7566      0.107      0.154    26.7799   996.5941 0.0000e+00
      0.108     -0.088     8.9081    111.404     35.585  36.868862     1.7519      7.989   182.9705 1.1174e+03     1.7441      0.109      0.159    26.7804   996.5939 0.0000e+00
      0.093     -0.139     8.9077    111.417     35.562  36.851287     1.7409      7.987   181.6429 1.3066e+03     1.7382      0.104      0.152    26.7805   996.5939 0.0000e+00
      0.043     -0.185     8.9055    111.405     35.568  36.862752     1.6958      7.984   180.5445 1.5869e+03     1.7509      0.054      0.079    26.7809   996.5935 0.0000e+00
     -0.035     -0.218     8.8956    111.304     35.577  36.880544     1.6139      7.983   180.6172 1.7053e+03     1.7997     -0.037     -0.052    26.7868   996.5916 0.0000e+00
     -0.114     -0.226     8.8756    111.092     35.560  36.876007     1.5740      7.983   189.5771 1.6523e+03     1.9015     -0.118     -0.171    26.7987   996.5879 0.0000e+00
     -0.182     -0.201     8.8461    110.764     35.541  36.871389     1.5600      7.979   198.2788 1.5314e+03     2.6875     -0.180     -0.261    26.8071   996.5853 0.0000e+00
     -0.241     -0.142     8.8088    110.329     35.546  36.888197     1.4270      7.972   190.0666 1.5179e+03    11.4665     -0.240     -0.348    26.8122   996.5837 0.0000e+00
     -0.285     -0.065     8.7665    109.824     35.537  36.888828     1.1881      7.967   180.6258 1.6003e+03    27.5595     -0.292     -0.423    26.8229   996.5806 0.0000e+00
     -0.295      0.010     8.7205    109.269     35.521  36.879037     1.0564      7.962   179.2893 1.6830e+03    36.2555     -0.305     -0.443    26.8446   996.5745 0.0000e+00
     -0.265      0.070     8.6739    108.700     35.533  36.896762     1.0481      7.955   178.7256 1.7197e+03    36.2523     -0.269     -0.390    26.8675   996.5684 0.0000e+00
     -0.211      0.113     8.6328    108.195     35.544  36.912728     1.1483      7.948   178.3702 1.7166e+03    27.5853     -0.206     -0.300    26.8831   996.5645 0.0000e+00
     -0.156      0.137     8.6021    107.817     35.512  36.881669     1.3406      7.943   178.2619 1.7168e+03    11.5917     -0.147     -0.213    26.8959   996.5612 0.0000e+00
     -0.117      0.143     8.5820    107.565     35.471  36.838602     1.4486      7.942   178.2768 1.7317e+03     2.8702     -0.108     -0.156    26.9061   996.5586 0.0000e+00
     -0.092      0.138     8.5731    107.440     35.473  36.836315     1.4648      7.943   178.1196 1.7477e+03     2.0985     -0.090     -0.130    26.9140   996.5566 0.0000e+00
     -0.070      0.128     8.5735    107.417     35.500  36.854004     1.4681      7.945   177.9102 1.7457e+03     2.0642     -0.073     -0.106    26.9193   996.5551 0.0000e+00
     -0.040      0.122     8.5756    107.405     35.522  36.862052     1.4629      7.949   177.8101 1.7190e+03     2.0619     -0.042     -0.062    26.9221   996.5544 0.0000e+00
     -0.002      0.121     8.5738    107.344     35.543  36.870121     1.4623      7.953   177.6833 1.6881e+03     2.0708     -0.002     -0.003    26.9237   996.5542 0.0000e+00
      0.035      0.124     8.5641    107.197     35.569  36.888065     1.4691      7.954   177.4963 1.8856e+03     2.0733      0.037      0.054    26.9177   996.5560 0.0000e+00
      0.065      0.128     8.5470    106.974     35.574  36.888575     1.5108      7.954   177.2693 2.5989e+03     1.9618      0.064      0.095    26.9028   996.5603 0.0000e+00
      0.092      0.132     8.5270    106.728     35.560  36.876285     1.5935      7.953   177.0037 2.9161e+03     1.8034      0.088      0.129    26.8807   996.5664 0.0000e+00
      0.122      0.135     8.5091    106.518     35.545  36.866418     1.6445      7.952   176.7798 2.2843e+03     1.7642      0.119      0.173    26.8570   996.5730 0.0000e+00
      0.156      0.140     8.5001    106.397     35.516  36.832753     1.6510      7.952   176.7995 1.8466e+03     1.8160      0.151      0.219    26.8441   996.5767 0.0000e+00
      0.195      0.144     8.5040    106.390     35.491  36.786601     1.6470      7.952   177.0697 1.6491e+03     1.8404      0.189      0.274    26.8403   996.5779 0.0000e+00
      0.239      0.143     8.5219    106.529     35.489  36.752675     1.6557      7.952   177.2069 1.2256e+03     1.8616      0.237      0.342    26.8407   996.5781 0.0000e+00
      0.281      0.133     8.5509    106.806     35.507  36.739870     1.6874      7.954   177.1681 9.4134e+02     1.9417      0.279      0.405    26.8558   996.5741 0.0000e+00
      0.317      0.115     8.5810    107.114     35.550  36.758667     1.7090      7.959   177.2034 9.4659e+02     2.0224      0.311      0.452    26.8601   996.5730 0.0000e+00
      0.348      0.093     8.6025    107.340     35.595  36.789487     1.7178      7.963   177.3745 1.1793e+03     2.0507      0.343      0.498    26.8235   996.5832 0.0000e+00
      0.370      0.073     8.6144    107.475     35.605  36.795141     1.7596      7.967   177.6889 1.3170e+03     2.0220      0.369      0.536    26.7737   996.5969 0.0000e+00
      0.378      0.059     8.6263    107.623     35.574  36.763547     1.8326      7.970   178.0804 1.3039e+03     1.9710      0.373      0.542    26.7277   996.6096 0.0000e+00
      0.380      0.052     8.6479    107.884     35.540  36.724849     1.8808      7.973   178.4070 1.2538e+03     1.9574      0.370      0.537    26.6890   996.6201 0.0000e+00
      0.386      0.051     8.6762    108.208     35.534  36.708071     1.8993      7.972   178.6262 1.0107e+03     1.9555      0.375      0.545    26.6664   996.6262 0.0000e+00
      0.401      0.054     8.7016    108.479     35.530  36.687612     1.9179      7.968   178.8380 7.7360e+02     1.9483      0.391      0.568    26.6616   996.6276 0.0000e+00
      0.421      0.061     8.7233    108.702     35.528  36.667872     1.9410      7.964   179.0758 6.9347e+02     1.9689      0.413      0.599    26.6680   996.6260 0.0000e+00
      0.442      0.067     8.7441    108.922     35.534  36.659781     1.9537      7.960   179.3503 7.8298e+02     2.0077      0.434      0.630    26.6657   996.6266 0.0000e+00
      0.460      0.069     8.7608    109.109     35.535  36.653233     1.9586      7.956   179.4902 9.5870e+02     2.0247      0.453      0.657    26.6477   996.6316 0.0000e+00
      0.476      0.062     8.7687    109.197     35.537  36.652164     1.9745      7.956   179.3899 9.4629e+02     2.0099      0.466      0.676    26.6236   996.6382 0.0000e+00
      0.493      0.049     8.7666    109.161     35.536  36.646855     1.9989      7.961   179.3426 8.3883e+02     1.9937      0.481      0.698    26.5956   996.6458 0.0000e+00
      0.511      0.038     8.7566    109.023     35.546  36.652506     2.0103      7.965   179.5200 7.7223e+02     1.9919      0.503      0.729    26.5745   996.6517 0.0000e+00
      0.522      0.034     8.7436    108.848     35.554  36.657008     2.0002      7.964   179.8136 7.2897e+02     1.9881      0.518      0.752    26.5660   996.6541 0.0000e+00
      0.520      0.040     8.7328    108.698     35.542  36.637809     1.9799      7.963   179.9678 7.6996e+02     1.9797      0.514      0.746    26.5624   996.6551 0.0000e+00
      0.512      0.051     8.7262    108.582     35.528  36.610781     1.9559      7.963   179.9213 8.7643e+02     1.9892      0.497      0.719    26.5589   996.6559 0.0000e+00
      0.518      0.065     8.7206    108.461     35.519  36.584084     1.9439      7.966   179.9398 9.8965e+02     2.0051      0.498      0.721    26.5496   996.6584 0.0000e+00
      0.547      0.082     8.7104    108.284     35.522  36.568869     1.9474      7.967   180.1917 1.1246e+03     2.0073      0.531      0.772    26.5439   996.6601 0.0000e+00
      0.586      0.100     8.6950    108.053     35.522  36.553738     1.9816      7.967   180.5585 1.0961e+03     2.0164      0.578      0.839    26.5401   996.6614 0.0000e+00
      0.620      0.114     8.6783    107.811     35.509  36.528056     2.0455      7.965   180.8470 8.4635e+02     2.0499      0.612      0.887    26.5221   996.6664 0.0000e+00
      0.646      0.123     8.6638    107.599     35.505  36.512210     2.0785      7.964   181.0122 6.7960e+02     2.0521      0.632      0.917    26.4921   996.6746 0.0000e+00
      0.671      0.128     8.6560    107.472     35.493  36.489077     2.0764      7.964   181.0938 6.5079e+02     2.0093      0.656      0.953    26.4638   996.6823 0.0000e+00
      0.701      0.135     8.6585    107.465     35.458  36.438755     2.0808      7.964   181.1449 6.4693e+02     1.9912      0.687      0.996    26.4449   996.6876 0.0000e+00
      0.735      0.144     8.6680    107.534     35.449  36.411518     2.1492      7.965   181.1994 6.5290e+02     1.9970      0.717      1.040    26.4286   996.6921 0.0000e+00
      0.775      0.153     8.6753    107.576     35.467  36.413608     2.2699      7.965   181.2374 6.4621e+02     2.0138      0.756      1.097    26.4112   996.6969 0.0000e+00
      0.823      0.159     8.6767    107.561     35.466  36.400530     2.3265      7.964   181.3458 6.1640e+02     2.0309      0.808      1.172    26.3984   996.7006 0.0000e+00
      0.869      0.162     8.6777    107.539     35.521  36.443785     2.3228      7.964   181.3915 5.7793e+02     2.0404      0.856      1.241    26.3811   996.7055 0.0000e+00
      0.909      0.162     8.6823    107.519     35.658  36.555760     2.3733      7.966   181.1879 5.3984e+02     2.0621      0.893      1.295    26.3516   996.7136 0.0000e+00
      0.946      0.158     8.6884    107.446     35.765  36.611873     2.4682      7.970   181.0357 5.1357e+02     2.0637      0.926      1.344    26.3240   996.7212 0.0000e+00
      0.985      0.152     8.6890    107.297     35.824  36.614386     2.5168      7.975   180.7554 4.8956e+02     2.0602      0.964      1.398    26.3085   996.7254 0.0000e+00
      1.026      0.147     8.6835    107.124     35.897  36.649529     2.5186      7.982   180.2069 4.5752e+02     2.0522      1.007      1.460    26.3008   996.7277 0.0000e+00
      1.066      0.143     8.6919    107.117     36.005  36.719364     2.5331      7.990   179.9110 4.6159e+02     1.9998      1.049      1.522    26.2719   996.7358 0.0000e+00
      1.101      0.140     8.7474    107.612     36.113  36.760500     2.5787      7.996   179.8445 4.8497e+02     1.9845      1.081      1.568    26.1796   996.7607 0.0000e+00
      1.132      0.136     8.8632    108.815     36.198  36.765961     2.6112      8.002   179.5760 4.6605e+02     2.0313      1.110      1.608    26.0788   996.7877 0.0000e+00
      1.166      0.136     9.0261    110.627     36.283  36.785257     2.6226      8.010   179.3306 4.2489e+02     2.0736      1.143      1.658    26.0412   996.7979 0.0000e+00
      1.199      0.140     9.2281    112.888     36.375  36.803293     2.6728      8.019   179.5448 4.0668e+02     2.0697      1.177      1.707    26.0092   996.8066 0.0000e+00
      1.232      0.147     9.4725    115.574     36.468  36.793514     2.7591      8.026   179.8435 4.0410e+02     2.0176      1.207      1.750    25.8978   996.8363 0.0000e+00
      1.268      0.155     9.7534    118.655     36.520  36.730332     2.8072      8.028   180.1025 3.8969e+02     2.0007      1.242      1.800    25.7609   996.8727 0.0000e+00
      1.313      0.162    10.0525    121.941     36.516  36.610445     2.8209      8.029   180.6984 3.5811e+02     2.0287      1.287      1.866    25.6902   996.8914 0.0000e+00
      1.359      0.167    10.3591    125.282     36.511  36.486300     2.9251      8.032   181.4546 3.3557e+02     2.1921      1.334      1.936    25.6059   996.9138 0.0000e+00
      1.403      0.172    10.6683    128.617     36.520  36.371625     3.1220      8.040   182.0190 3.3159e+02     2.5341      1.376      1.996    25.4419   996.9569 0.0000e+00
      1.446      0.173    10.9568    131.681     36.577  36.302741     3.2329      8.051   182.1020 3.2219e+02     2.7565      1.418      2.057    25.2774   996.9998 0.0000e+00
      1.491      0.168    11.1845    134.043     36.674  36.287964     3.2438      8.062   181.5119 3.0167e+02     2.8162      1.462      2.120    25.1298   997.0381 0.0000e+00
      1.536      0.160    11.3293    135.499     36.724  36.256259     3.2443      8.074   180.8214 2.8425e+02     2.8624      1.507      2.185    24.9609   997.0817 0.0000e+00
      1.581      0.152    11.4156    136.303     36.707  36.173165     3.2654      8.087   180.5490 2.7359e+02     2.9224      1.553      2.253    24.7938   997.1245 0.0000e+00
      1.619      0.146    11.4974    137.007     36.657  36.044838     3.3169      8.099   180.4557 2.6544e+02     3.0168      1.591      2.307    24.6153   997.1699 0.0000e+00
      1.649      0.143    11.6113    138.011     36.622  35.910500     3.3466      8.109   180.2962 2.5789e+02     3.0542      1.618      2.346    24.4487   997.2120 0.0000e+00
      1.678      0.143    11.7541    139.322     36.638  35.818149     3.3476      8.119   180.1682 2.4976e+02     3.0464      1.643      2.383    24.3480   997.2373 0.0000e+00
      1.712      0.148    11.9252    140.991     36.673  35.753179     3.3713      8.129   180.1987 2.4036e+02     3.1179      1.676      2.431    24.2748   997.2558 0.0000e+00
      1.752      0.157    12.1451    143.268     36.640  35.632571     3.4080      8.140   180.3213 2.2909e+02     3.2307      1.717      2.490    24.1745   997.2808 0.0000e+00
      1.796      0.165    12.4142    146.129     36.525  35.438750     3.4271      8.153   180.5318 2.1633e+02     3.2967      1.760      2.554    24.0277   997.3174 0.0000e+00
      1.842      0.168    12.7012    149.183     36.483  35.313652     3.4377      8.166   180.7657 2.0424e+02     3.3260      1.807      2.620    23.8691   997.3567 0.0000e+00
      1.890      0.167    12.9690    152.034     36.442  35.198867     3.4939      8.176   180.9977 1.9380e+02     3.4212      1.854      2.687    23.7341   997.3899 0.0000e+00
      1.935      0.163    13.2052    154.540     36.175  34.875862     3.5943      8.186   181.3580 1.8392e+02     3.5957      1.901      2.757    23.6174   997.4185 0.0000e+00
      1.975      0.157    13.4260    156.746     35.898  34.518035     3.6457      8.197   181.7662 1.7530e+02     3.6979      1.939      2.813    23.5115   997.4443 0.0000e+00
      2.009      0.150    13.6276    158.557     35.871  34.362957     3.6476      8.207   182.1483 1.6790e+02     3.7071      1.969      2.854    23.3875   997.4744 0.0000e+00
      2.045      0.145    13.7752    159.745     35.838  34.206494     3.6519      8.217   182.6218 1.6024e+02     3.6744      2.003      2.905    23.2741   997.5017 0.0000e+00
      2.083      0.142    13.8683    160.368     35.557  33.831890     3.6633      8.226   183.1893 1.5240e+02     3.5972      2.043      2.964    23.2145   997.5160 0.0000e+00
      2.120      0.141    13.9412    160.665     35.221  33.387505     3.6718      8.235   183.6754 1.4537e+02     3.5279      2.080      3.017    23.1040   997.5425 0.0000e+00
      2.155      0.138    14.0036    160.700     35.067  33.085348     3.6686      8.244   184.0259 1.3923e+02     3.4916      2.112      3.065    22.8836   997.5949 0.0000e+00
      2.190      0.131    14.0418    160.457     35.110  32.970651     3.6767      8.252   184.4153 1.3316e+02     3.4206      2.147      3.113    22.6973   997.6388 0.0000e+00
      2.226      0.122    14.0472    159.987     35.152  32.888966     3.7083      8.259   184.9422 1.2722e+02     3.3247      2.184      3.167    22.5847   997.6650 0.0000e+00
      2.259      0.113    14.0314    159.417     35.079  32.732145     3.7308      8.264   185.5778 1.2251e+02     3.2829      2.219      3.217    22.4127   997.7049 0.0000e+00
      2.285      0.106    14.0196    158.928     34.953  32.534016     3.7308      8.268   186.3358 1.1892e+02     3.2754      2.243      3.253    22.1683   997.7612 0.0000e+00
      2.306      0.101    14.0240    158.577     34.766  32.270176     3.7262      8.271   187.0527 1.1543e+02     3.2667      2.261      3.279    21.9249   997.8165 0.0000e+00
      2.327      0.100    14.0363    158.224     34.543  31.953424     3.7367      8.272   187.7058 1.1191e+02     3.2103      2.281      3.309    21.7573   997.8545 0.0000e+00
      2.351      0.103    14.0419    157.706     34.395  31.686597     3.7619      8.272   188.5542 1.0840e+02     3.1181      2.304      3.342    21.6488   997.8788 0.0000e+00
      2.377      0.109    14.0325    156.961     34.369  31.518673     3.7704      8.272   189.3094 1.0454e+02     3.0701      2.330      3.379    21.5389   997.9034 0.0000e+00
      2.407      0.117    14.0064    156.009     34.381  31.382401     3.7617      8.270   189.8678 1.0036e+02     3.0552      2.360      3.423    21.4171   997.9305 0.0000e+00
      2.440      0.123    13.9672    154.929     34.389  31.244411     3.7872      8.267   190.9169 9.6385e+01     3.0032      2.394      3.472    21.2552   997.9661 0.0000e+00
      2.473      0.126    13.9150    153.738     34.404  31.119176     3.8533      8.266   192.4445 9.2674e+01     2.9335      2.426      3.518    21.0641   998.0079 0.0000e+00
      2.506      0.126    13.8430    152.396     34.350  30.946768     3.9017      8.266   193.7109 8.9072e+01     2.9013      2.457      3.563    20.8526   998.0538 0.0000e+00
      2.540      0.126    13.7550    150.946     34.249  30.746062     3.9132      8.265   194.6999 8.5613e+01     2.8760      2.492      3.614    20.6291   998.1018 0.0000e+00
      2.573      0.126    13.6580    149.412     34.202  30.595964     3.8881      8.263   195.6263 8.2415e+01     2.7913      2.525      3.661    20.4227   998.1457 0.0000e+00
      2.603      0.131    13.5539    147.766     34.186  30.464350     3.8494      8.259   196.1361 7.9602e+01     2.6642      2.554      3.704    20.2143   998.1895 0.0000e+00
      2.632      0.138    13.4469    146.023     34.365  30.487102     3.8441      8.257   196.4753 7.6886e+01     2.6170      2.580      3.741    20.0298   998.2279 0.0000e+00
      2.664      0.148    13.3426    144.243     34.902  30.807418     3.8757      8.256   197.0605 7.3741e+01     2.6139      2.609      3.785    19.8837   998.2580 0.0000e+00
      2.704      0.158    13.2393    142.454     35.420  31.100861     4.1801      8.255   197.3605 7.0165e+01     2.3966      2.650      3.843    19.7273   998.2900 0.0000e+00
      2.749      0.164    13.1238    140.548     35.625  31.115941     4.7497      8.255   197.4352 6.6565e+01     1.9893      2.696      3.910    19.5618   998.3238 0.0000e+00
      2.798      0.164    12.9717    138.317     35.655  30.989551     5.0670      8.255   198.0507 6.3117e+01     1.7525      2.743      3.978    19.3666   998.3632 0.0000e+00
      2.847      0.159    12.7532    135.528     35.547  30.778145     5.1206      8.253   198.9517 6.0072e+01     1.7292      2.793      4.051    19.1338   998.4098 0.0000e+00
      2.889      0.153    12.4410    131.853     35.219  30.399906     5.4146      8.250   199.4663 5.7974e+01     1.6751      2.838      4.117    18.9000   998.4560 0.0000e+00
      2.920      0.147    12.0275    127.063     34.774  29.906156     5.9525      8.246   199.4554 5.6529e+01     1.5579      2.865      4.155    18.6642   998.5017 0.0000e+00
      2.948      0.141    11.5301    121.339     34.607  29.630557     6.2396      8.242   199.1639 5.4831e+01     1.5237      2.888      4.188    18.4303   998.5464 0.0000e+00
      2.982      0.135    10.9823    115.164     34.941  29.795956     6.2599      8.240   199.0380 5.2785e+01     1.5563      2.923      4.240    18.2689   998.5770 0.0000e+00
      3.021      0.131    10.4438    109.234     35.583  30.256069     6.2315      8.239   199.0526 5.0797e+01     1.5588      2.963      4.297    18.1698   998.5956 0.0000e+00
      3.061      0.129     9.9918    104.275     36.107  30.625004     5.7926      8.237   198.9964 4.9170e+01     1.4888      3.004      4.357    18.0124   998.6248 0.0000e+00
      3.093      0.126     9.6755    100.690     36.164  30.576293     4.9758      8.235   199.0466 4.7977e+01     1.3649      3.037      4.404    17.7976   998.6643 0.0000e+00
      3.119      0.121     9.5024     98.564     35.972  30.301543     4.5321      8.232   199.4015 4.6850e+01     1.3067      3.056      4.433    17.6112   998.6984 0.0000e+00
      3.148      0.118     9.4484     97.722     35.692  29.967966     4.4851      8.228   200.1031 4.5607e+01     1.3091      3.085      4.475    17.5025   998.7183 0.0000e+00
      3.178      0.119     9.4479     97.478     35.263  29.525212     4.4077      8.226   200.8190 4.4479e+01     1.3611      3.118      4.523    17.4231   998.7330 0.0000e+00
      3.207      0.124     9.4203     96.919     34.912  29.135986     4.2811      8.224   201.0029 4.3433e+01     1.4768      3.145      4.561    17.2800   998.7584 0.0000e+00
      3.236      0.129     9.3213     95.559     34.670  28.815019     4.2192      8.224   200.7774 4.2304e+01     1.5615      3.171      4.599    17.1014   998.7899 0.0000e+00
      3.270      0.134     9.1486     93.419     34.447  28.499518     4.2231      8.223   200.5881 4.1089e+01     1.5986      3.205      4.648    16.9638   998.8140 0.0000e+00
      3.308      0.135     8.9262     90.789     34.443  28.366673     4.3457      8.222   200.6073 3.9863e+01     1.6629      3.244      4.705    16.8682   998.8305 0.0000e+00
      3.348      0.136     8.7030     88.186     34.727  28.477611     4.5833      8.221   200.9228 3.8778e+01     1.7499      3.284      4.764    16.7410   998.8524 0.0000e+00
      3.384      0.137     8.5278     86.115     34.978  28.571740     4.7121      8.220   201.2190 3.7938e+01     1.7648      3.321      4.817    16.5565   998.8838 0.0000e+00
      3.415      0.137     8.4255     84.813     35.004  28.489476     4.7236      8.218   201.3498 3.7220e+01     1.7444      3.350      4.859    16.3611   998.9166 0.0000e+00
      3.445      0.138     8.4095     84.363     35.153  28.498009     4.7661      8.216   201.6443 3.6381e+01     1.8313      3.376      4.897    16.1734   998.9477 0.0000e+00
      3.479      0.139     8.4625     84.574     35.763  28.865117     4.8443      8.215   202.1128 3.5366e+01     1.9958      3.409      4.945    15.9925   998.9775 0.0000e+00
      3.517      0.143     8.5345     84.961     36.638  29.438271     4.8889      8.212   202.5400 3.4313e+01     2.0618      3.448      5.001    15.8313   999.0038 0.0000e+00
      3.557      0.148     8.5742     85.034     37.464  29.971047     4.8973      8.208   202.9375 3.3313e+01     2.0394      3.488      5.059    15.6962   999.0255 0.0000e+00
      3.596      0.153     8.5403     84.392     38.188  30.420892     4.9018      8.204   203.4775 3.2385e+01     2.0863      3.527      5.117    15.5418   999.0500 0.0000e+00
      3.632      0.158     8.4037     82.742     38.848  30.816105     4.9008      8.199   203.9920 3.1490e+01     2.2032      3.562      5.166    15.3568   999.0793 0.0000e+00
      3.670      0.162     8.1450     79.899     39.418  31.132427     4.8939      8.194   204.4270 3.0469e+01     2.2726      3.597      5.217    15.1714   999.1083 0.0000e+00
      3.712      0.165     7.7500     75.733     39.843  31.326364     4.8870      8.190   205.2100 2.9242e+01     2.2699      3.640      5.279    14.9954   999.1355 0.0000e+00
      3.758      0.169     7.2103     70.187     40.100  31.384010     4.8782      8.186   206.2312 2.7955e+01     2.2688      3.687      5.347    14.8298   999.1607 0.0000e+00
      3.804      0.170     6.5186     63.215     40.281  31.385041     4.7353      8.182   207.0511 2.6749e+01     2.4553      3.731      5.412    14.6617   999.1860 0.0000e+00
      3.848      0.167     5.7042     55.122     40.471  31.402125     4.4518      8.177   207.6386 2.5615e+01     2.8215      3.774      5.473    14.4910   999.2112 0.0000e+00
      3.892      0.162     4.8395     46.624     40.613  31.400042     4.2855      8.173   208.0001 2.4517e+01     3.0258      3.817      5.536    14.3112   999.2374 0.0000e+00
      3.934      0.155     3.9793     38.238     40.768  31.423188     4.2591      8.169   208.4113 2.3537e+01     3.0905      3.860      5.598    14.1270   999.2637 0.0000e+00
      3.972      0.150     3.1614     30.304     40.978  31.491501     4.1152      8.165   208.9108 2.2674e+01     3.5713      3.896      5.650    13.9514   999.2884 0.0000e+00
      4.006      0.145     2.4243     23.179     41.069  31.464400     3.8288      8.159   209.2208 2.1789e+01     4.4147      3.929      5.698    13.7831   999.3117 0.0000e+00
      4.041      0.140     1.7874     17.046     41.042  31.349233     3.6655      8.154   209.4924 2.0875e+01     4.8651      3.963      5.747    13.6446   999.3306 0.0000e+00
      4.077      0.136     1.2703     12.089     40.918  31.177714     3.6418      8.150   209.7847 1.9972e+01     4.9202      3.997      5.798    13.5370   999.3451 0.0000e+00
      4.113      0.135     0.8978      8.529     40.650  30.913473     3.5069      8.146   210.0878 1.9108e+01     5.0813      4.034      5.851    13.4240   999.3604 0.0000e+00
      4.148      0.134     0.6498      6.162     40.443  30.692528     3.2576      8.142   210.3173 1.8343e+01     5.4038      4.069      5.902    13.3028   999.3765 0.0000e+00
      4.180      0.134     0.4873      4.611     40.344  30.536831     3.1246      8.139   210.4095 1.7630e+01     5.6076      4.098      5.945    13.1813   999.3924 0.0000e+00
      4.212      0.134     0.3975      3.751     40.231  30.363431     3.1028      8.135   210.5136 1.6828e+01     5.6124      4.129      5.989    13.0828   999.4052 0.0000e+00
      4.247      0.134     0.3677      3.462     40.101  30.182238     2.9255      8.131   210.5438 1.6001e+01     5.7895      4.166      6.042    13.0232   999.4127 0.0000e+00
      4.281      0.134     0.3872      3.637     39.958  29.995769     2.6100      8.127   210.5163 1.5228e+01     6.2413      4.199      6.091    12.9546   999.4215 0.0000e+00
      4.316      0.133     0.4527      4.243     39.911  29.885476     2.4533      8.124   210.6978 1.4416e+01     6.5517      4.232      6.138    12.8443   999.4354 0.0000e+00
      4.352      0.131     0.5482      5.128     39.880  29.800424     2.4440      8.122   211.1037 1.3574e+01     6.5612      4.267      6.188    12.7286   999.4499 0.0000e+00
      4.387      0.131     0.6577      6.144     39.676  29.601872     2.4278      8.118   211.4662 1.2807e+01     6.4539      4.303      6.241    12.6284   999.4623 0.0000e+00
      4.418      0.134     0.7772      7.248     39.553  29.451789     2.3621      8.114   211.5534 1.2169e+01     6.2701      4.335      6.287    12.5309   999.4742 0.0000e+00
      4.446      0.138     0.9004      8.376     39.663  29.445146     2.2563      8.111   211.4696 1.1571e+01     6.0106      4.358      6.319    12.4315   999.4863 0.0000e+00
      4.479      0.140     1.0252      9.510     39.814  29.457998     2.1968      8.107   211.3990 1.0854e+01     5.8406      4.388      6.364    12.3473   999.4964 0.0000e+00
      4.520      0.143     1.1537     10.680     39.862  29.416699     2.1813      8.104   211.4747 1.0076e+01     5.7870      4.432      6.429    12.3076   999.5012 0.0000e+00
      4.563      0.146     1.2826     11.855     39.809  29.326438     2.1206      8.101   211.7825 9.4217e+00     5.6905      4.478      6.494    12.2486   999.5084 0.0000e+00
      4.601      0.147     1.4087     13.004     39.689  29.191481     2.0172      8.098   212.1095 8.8831e+00     5.5256      4.513      6.545    12.1228   999.5232 0.0000e+00
      4.636      0.147     1.5312     14.114     39.485  28.990478     1.9636      8.095   212.3303 8.3463e+00     5.4000      4.544      6.591    11.9771   999.5402 0.0000e+00
      4.671      0.143     1.6478     15.165     39.384  28.863052     1.9581      8.093   212.5598 7.8272e+00     5.3512      4.581      6.643    11.8800   999.5513 0.0000e+00
      4.707      0.139     1.7563     16.143     39.436  28.856292     1.9418      8.091   212.8184 7.3331e+00     5.4599      4.616      6.694    11.8338   999.5566 0.0000e+00
      4.745      0.135     1.8542     17.030     39.371  28.781796     1.9142      8.086   213.0488 6.8554e+00     5.6986      4.653      6.749    11.7751   999.5634 0.0000e+00
      4.782      0.130     1.9438     17.844     39.230  28.660255     1.8926      8.083   213.2807 6.4805e+00     5.8442      4.691      6.805    11.7093   999.5707 0.0000e+00
      4.813      0.125     2.0306     18.629     39.165  28.592279     1.8804      8.081   213.5576 6.1915e+00     5.8771      4.720      6.846    11.6380   999.5786 0.0000e+00
      4.841      0.122     2.1149     19.389     39.027  28.467487     1.7926      8.078   213.7296 5.9104e+00     6.0633      4.747      6.886    11.5721   999.5860 0.0000e+00
      4.870      0.123     2.1957     20.112     38.741  28.230002     1.6290      8.074   213.8106 5.6585e+00     6.4560      4.777      6.929    11.5454   999.5890 0.0000e+00
      4.898      0.129     2.2757     20.820     38.488  28.005000     1.5408      8.070   214.0213 5.4262e+00     6.6936      4.803      6.967    11.5290   999.5908 0.0000e+00
      4.928      0.138     2.3532     21.495     38.333  27.840758     1.5238      8.066   214.2126 5.1417e+00     6.7077      4.829      7.005    11.5006   999.5940 0.0000e+00
      4.964      0.146     2.4267     22.133     38.214  27.703413     1.4576      8.064   214.1444 4.7937e+00     6.5607      4.865      7.056    11.4696   999.5975 0.0000e+00
      5.008      0.149     2.5013     22.784     38.149  27.613252     1.3392      8.063   213.9707 4.4488e+00     6.2599      4.911      7.122    11.4371   999.6010 0.0000e+00
      5.053      0.144     2.5798     23.475     38.145  27.575393     1.2715      8.062   213.8340 4.1541e+00     6.0855      4.955      7.187    11.3861   999.6066 0.0000e+00
      5.096      0.133     2.6627     24.212     38.249  27.626301     1.2717      8.061   213.6956 3.9086e+00     6.0907      4.999      7.250    11.3104   999.6148 0.0000e+00
      5.132      0.117     2.7533     25.031     38.389  27.721172     1.2716      8.059   213.5878 3.7456e+00     6.0933      5.039      7.308    11.2405   999.6222 0.0000e+00
      5.157      0.098     2.8594     26.006     38.351  27.707318     1.2184      8.059   213.4767 3.6645e+00     6.0190      5.062      7.340    11.1856   999.6281 0.0000e+00
      5.173      0.081     2.9853     27.163     38.161  27.585706     1.1314      8.058   213.2986 3.6035e+00     5.8803      5.073      7.358    11.1384   999.6329 0.0000e+00
      5.186      0.069     3.1233     28.417     37.985  27.456276     1.0954      8.056   213.1555 3.5388e+00     5.7924      5.086      7.376    11.1037   999.6366 0.0000e+00
      5.200      0.061     3.2573     29.618     37.950  27.411315     1.1039      8.052   213.1239 3.4593e+00     5.8082      5.100      7.396    11.0907   999.6382 0.0000e+00
      5.215      0.060     3.3730     30.652     37.993  27.422739     1.0865      8.050   213.1736 3.3563e+00     5.7770      5.113      7.415    11.1179   999.6354 0.0000e+00
      5.232      0.065     3.4655     31.482     37.983  27.404049     1.0419      8.049   213.2397 3.2588e+00     5.6445      5.131      7.442    11.1524   999.6318 0.0000e+00
      5.249      0.072     3.5345     32.100     37.957  27.375663     1.0241      8.049   213.4076 3.1839e+00     5.5833      5.150      7.469    11.1470   999.6323 0.0000e+00
      5.263      0.080     3.5846     32.543     38.003  27.396740     1.0357      8.048   213.7418 3.0950e+00     5.6268      5.160      7.483    11.1113   999.6361 0.0000e+00
      5.282      0.087     3.6210     32.855     38.128  27.468542     1.0338      8.045   214.0108 2.9754e+00     5.5801      5.176      7.509    11.0809   999.6393 0.0000e+00
      5.309      0.088     3.6443     33.044     38.177  27.482441     1.0193      8.042   214.1638 2.8343e+00     5.4120      5.205      7.549    11.0713   999.6404 0.0000e+00
      5.339      0.083     3.6580     33.148     38.142  27.437873     1.0248      8.041   214.3020 2.6850e+00     5.3308      5.236      7.594    11.0618   999.6415 0.0000e+00
      5.367      0.073     3.6683     33.231     38.156  27.437227     1.0396      8.039   214.3910 2.5774e+00     5.3520      5.268      7.640    11.0443   999.6434 0.0000e+00
      5.387      0.060     3.6793     33.331     38.209  27.474621     1.0595      8.036   214.3791 2.5282e+00     5.3414      5.288      7.668    11.0218   999.6460 0.0000e+00
      5.395      0.044     3.6909     33.440     38.252  27.509321     1.0922      8.034   214.2437 2.5083e+00     5.3006      5.291      7.674    10.9893   999.6492 0.0000e+00
      5.398      0.029     3.6977     33.508     38.285  27.539545     1.1052      8.032   214.0445 2.5053e+00     5.2856      5.293      7.678    10.9596   999.6522 0.0000e+00
      5.401      0.018     3.6968     33.508     38.338  27.586277     1.1043      8.030   213.8640 2.4991e+00     5.3233      5.296      7.681    10.9475   999.6534 0.0000e+00
      5.405      0.012     3.6900     33.457     38.472  27.693682     1.1165      8.028   213.7828 2.4854e+00     5.3631      5.300      7.687    10.9490   999.6533 0.0000e+00
      5.408      0.009     3.6806     33.383     38.636  27.823035     1.1400      8.027   213.8371 2.4802e+00     5.3409      5.303      7.692    10.9541   999.6528 0.0000e+00
      5.410      0.008     3.6683     33.284     38.700  27.881342     1.1530      8.025   213.8324 2.4793e+00     5.3171      5.305      7.695    10.9623   999.6521 0.0000e+00
      5.412      0.006     3.6505     33.138     38.693  27.891109     1.1530      8.022   213.7250 2.4800e+00     5.3378      5.307      7.697    10.9742   999.6508 0.0000e+00
      5.413      0.004     3.6293     32.969     38.729  27.941144     1.1572      8.020   213.7435 2.4776e+00     5.3611      5.308      7.698    10.9881   999.6495 0.0000e+00
      5.413      0.003     3.6060     32.792     38.819  28.042194     1.1607      8.017   213.8839 2.4693e+00     5.3691      5.308      7.699    11.0042   999.6480 0.0000e+00
      5.413      0.003     3.5936     32.700     38.867  28.097778     1.1602      8.016   213.9595 2.4615e+00     5.3698      5.308      7.699    11.0166   999.6467 0.0000e+00
      5.414 -9.990e-29 -9.990e-29 -9.990e-29 -9.990e-29 -9.990e-29 -9.990e-29 -9.990e-29 -9.990e-29 2.4570e+00 -9.990e-29      5.309      7.700    11.0367   999.6447 0.0000e+00
      5.414 -9.990e-29 -9.990e-29 -9.990e-29 -9.990e-29 -9.990e-29 -9.990e-29 -9.990e-29 -9.990e-29 2.4555e+00 -9.990e-29      5.309      7.700    11.0595   999.6424 0.0000e+00
      5.414 -9.990e-29 -9.990e-29 -9.990e-29 -9.990e-29 -9.990e-29 -9.990e-29 -9.990e-29 -9.990e-29 2.4550e+00 -9.990e-29      5.309      7.700    11.1202   999.6363 0.0000e+00
      5.414 -9.990e-29 -9.990e-29 -9.990e-29 -9.990e-29 -9.990e-29 -9.990e-29 -9.990e-29 -9.990e-29 2.4550e+00 -9.990e-29      5.310      7.701    11.1741   999.6307 0.0000e+00
