* Sea-Bird SBE19plus  Data File:
* FileName = C:\R\Reservoirs\Data\DataNotYetUploadedToEDI\Raw_CTD\RawDownloads\070722_ccr50_SBE19plus01907809_0003.hex
* Software version 2.8.0.119
* Temperature SN = 7809
* Conductivity SN = 7809
* System UpLoad Time = Jul 07 2022 15:45:17
* <ApplicationData>
* <Seaterm232>
* <SoftwareVersion>2.8.0.119</SoftwareVersion>
* <BuildDate>07-Nov-2018</BuildDate>
* </Seaterm232>
* </ApplicationData>
* <InstrumentState>
* <HardwareData DeviceType='SBE19plus' SerialNumber='01907809'>
*
*    <Manufacturer>Sea-Bird Electronics, Inc.</Manufacturer>
*
*    <FirmwareVersion>3.1.8</FirmwareVersion>
*
*    <FirmwareDate>Mar  9 2016 16:22:29</FirmwareDate>
*
*    <CommandSetVersion>1.4</CommandSetVersion>
*
*    <PCBAssembly PCBSerialNum='120721' AssemblyNum='41054J'/>
*
*    <PCBAssembly PCBSerialNum='120715' AssemblyNum='41967A'/>
*
*    <PCBAssembly PCBSerialNum='116699' AssemblyNum='41606'/>
*
*    <PCBAssembly PCBSerialNum='120719' AssemblyNum='41059D'/>
*
*    <MfgDate>28-Apr-2017</MfgDate>
*
*    <InternalSensors>
*
*       <Sensor id='Main Temperature'>
*
*          <type>temperature0</type>
*
*          <SerialNumber>01907809</SerialNumber>
*
*       </Sensor>
*
*       <Sensor id='Main Conductivity'>
*
*          <type>conductivity-0</type>
*
*          <SerialNumber>01907809</SerialNumber>
*
*       </Sensor>
*
*       <Sensor id='Main Pressure'>
*
*          <type>strain-0</type>
*
*          <SerialNumber>10586018</SerialNumber>
*
*       </Sensor>
*
*    </InternalSensors>
*
*    <ExternalSensors>
*
*       <Sensor id='volt 0'>
*
*          <type>pH</type>
*
*          <SerialNumber>27-0363</SerialNumber>
*
*       </Sensor>
*
*       <Sensor id='volt 1'>
*
*          <type>ORP</type>
*
*          <SerialNumber>27-0363</SerialNumber>
*
*       </Sensor>
*
*       <Sensor id='volt 2'>
*
*          <type>OXY</type>
*
*          <SerialNumber>43-0434</SerialNumber>
*
*       </Sensor>
*
*       <Sensor id='volt 3'>
*
*          <type>PAR</type>
*
*          <SerialNumber>1122</SerialNumber>
*
*       </Sensor>
*
*       <Sensor id='volt 4'>
*
*          <type>ECO AFL/FL</type>
*
*          <SerialNumber>FLNTURT-2496</SerialNumber>
*
*       </Sensor>
*
*       <Sensor id='volt 5'>
*
*          <type>ECO-NTU</type>
*
*          <SerialNumber>FLNTURT-2496</SerialNumber>
*
*       </Sensor>
*
*       <Sensor id='serial'>
*
*          <type>not assigned</type>
*
*          <SerialNumber>not assigned</SerialNumber>
*
*       </Sensor>
*
*    </ExternalSensors>
*
* </HardwareData>
* <StatusData DeviceType='SBE19plus' SerialNumber='01907809'>
*
*    <DateTime>2022-07-07T12:43:51</DateTime>
*
*    <LoggingState>not logging</LoggingState>
*
*    <EventSummary numEvents='0'/>
*
*    <Power>
*
*       <vMain>12.3</vMain>
*
*       <vLith>8.6</vLith>
*
*       <iMain>63.1</iMain>
*
*       <iPump>43.8</iPump>
*
*       <iExt01>19.5</iExt01>
*
*       <iExt2345>37.5</iExt2345>
*
*    </Power>
*
*    <MemorySummary>
*
*       <Bytes>154215</Bytes>
*
*       <Samples>6705</Samples>
*
*       <SamplesFree>2854083</SamplesFree>
*
*       <SampleLength>23</SampleLength>
*
*       <Profiles>7</Profiles>
*
*    </MemorySummary>
*
* </StatusData>
* <ConfigurationData DeviceType='SBE19plus' SerialNumber='01907809'>
*
*    <ProfileMode>
*
*       <ScansToAverage>1</ScansToAverage>
*
*       <MinimumCondFreq>5</MinimumCondFreq>
*
*       <PumpDelay>40</PumpDelay>
*
*       <AutoRun>no</AutoRun>
*
*       <IgnoreSwitch>no</IgnoreSwitch>
*
*    </ProfileMode>
*
*    <Battery>
*
*       <Type>alkaline</Type>
*
*       <CutOff>7.5</CutOff>
*
*    </Battery>
*
*    <DataChannels>
*
*       <ExtVolt0>yes</ExtVolt0>
*
*       <ExtVolt1>yes</ExtVolt1>
*
*       <ExtVolt2>yes</ExtVolt2>
*
*       <ExtVolt3>yes</ExtVolt3>
*
*       <ExtVolt4>yes</ExtVolt4>
*
*       <ExtVolt5>yes</ExtVolt5>
*
*       <SBE38>no</SBE38>
*
*       <WETLABS>no</WETLABS>
*
*       <OPTODE>no</OPTODE>
*
*       <SBE63>no</SBE63>
*
*       <SeaFET>no</SeaFET>
*
*       <GTD>no</GTD>
*
*    </DataChannels>
*
*    <EchoCharacters>yes</EchoCharacters>
*
*    <OutputExecutedTag>yes</OutputExecutedTag>
*
*    <OutputFormat>raw HEX</OutputFormat>
*
* </ConfigurationData>
* <CalibrationCoefficients DeviceType='SBE19plus' SerialNumber='01907809'>
*
*    <Calibration format='TEMP1' id='Main Temperature'>
*
*       <SerialNum>01907809</SerialNum>
*
*       <CalDate>25-Sep-21</CalDate>
*
*       <TA0>1.232513e-03</TA0>
*
*       <TA1>2.763223e-04</TA1>
*
*       <TA2>-9.501887e-07</TA2>
*
*       <TA3>1.718014e-07</TA3>
*
*       <TOFFSET>0.000000e+00</TOFFSET>
*
*    </Calibration>
*
*    <Calibration format='WBCOND0' id='Main Conductivity'>
*
*       <SerialNum>01907809</SerialNum>
*
*       <CalDate>25-Sep-21</CalDate>
*
*       <G>-1.004440e+00</G>
*
*       <H>1.264604e-01</H>
*
*       <I>-7.854363e-05</I>
*
*       <J>2.210938e-05</J>
*
*       <CPCOR>-9.570000e-08</CPCOR>
*
*       <CTCOR>3.250000e-06</CTCOR>
*
*       <CSLOPE>1.000000e+00</CSLOPE>
*
*    </Calibration>
*
*    <Calibration format='STRAIN0' id='Main Pressure'>
*
*       <SerialNum>10586018</SerialNum>
*
*       <CalDate>10-Sep-21</CalDate>
*
*       <PA0>4.789196e-02</PA0>
*
*       <PA1>4.853655e-04</PA1>
*
*       <PA2>-3.689276e-12</PA2>
*
*       <PTCA0>5.254946e+05</PTCA0>
*
*       <PTCA1>1.325193e+01</PTCA1>
*
*       <PTCA2>-3.889275e-01</PTCA2>
*
*       <PTCB0>2.516687e+01</PTCB0>
*
*       <PTCB1>3.750000e-04</PTCB1>
*
*       <PTCB2>0.000000e+00</PTCB2>
*
*       <PTEMPA0>-5.401644e+01</PTEMPA0>
*
*       <PTEMPA1>5.390655e+01</PTEMPA1>
*
*       <PTEMPA2>-2.194112e-02</PTEMPA2>
*
*       <POFFSET>-1.280000e-01</POFFSET>
*
*       <PRANGE>1.600000e+02</PRANGE>
*
*    </Calibration>
*
*    <Calibration format='VOLT0' id='Volt 0'>
*
*       <OFFSET>-4.920000e-02</OFFSET>
*
*       <SLOPE>1.248122e+00</SLOPE>
*
*    </Calibration>
*
*    <Calibration format='VOLT0' id='Volt 1'>
*
*       <OFFSET>-4.784000e-02</OFFSET>
*
*       <SLOPE>1.248871e+00</SLOPE>
*
*    </Calibration>
*
*    <Calibration format='VOLT0' id='Volt 2'>
*
*       <OFFSET>-4.864632e-02</OFFSET>
*
*       <SLOPE>1.248714e+00</SLOPE>
*
*    </Calibration>
*
*    <Calibration format='VOLT0' id='Volt 3'>
*
*       <OFFSET>-4.743790e-02</OFFSET>
*
*       <SLOPE>1.248571e+00</SLOPE>
*
*    </Calibration>
*
*    <Calibration format='VOLT0' id='Volt 4'>
*
*       <OFFSET>-4.671263e-02</OFFSET>
*
*       <SLOPE>1.248951e+00</SLOPE>
*
*    </Calibration>
*
*    <Calibration format='VOLT0' id='Volt 5'>
*
*       <OFFSET>-4.871053e-02</OFFSET>
*
*       <SLOPE>1.249136e+00</SLOPE>
*
*    </Calibration>
*
*    <Calibration format='FREQ0' id='external frequency channel'>
*
*       <EXTFREQSF>1.000014e+00</EXTFREQSF>
*
*    </Calibration>
*
* </CalibrationCoefficients>
* <EventCounters DeviceType='SBE19plus' SerialNumber='01907809'>
*
*    <EventSummary numEvents='0'/>
*
* </EventCounters></InstrumentState>
* <Headers>
*
* cast   3 07 Jul 2022 08:02:13 samples 2307 to 2678, avg = 1, stop = mag switch
*
# nquan = 15
# nvalues = 372                         
# units = specified
# name 0 = depFM: Depth [fresh water, m]
# name 1 = dz/dtM: Descent Rate [m/s]
# name 2 = sbeox0Mg/L: Oxygen, SBE 43 [mg/l]
# name 3 = sbeox0PS: Oxygen, SBE 43 [% saturation]
# name 4 = specc: Specific Conductance [uS/cm]
# name 5 = c0uS/cm: Conductivity [uS/cm]
# name 6 = flECO-AFL: Fluorescence, WET Labs ECO-AFL/FL [mg/m^3]
# name 7 = ph: pH
# name 8 = orp: Oxidation Reduction Potential [mV]
# name 9 = par/sat/log: PAR/Logarithmic, Satlantic
# name 10 = turbWETntu0: Turbidity, WET Labs ECO [NTU]
# name 11 = prdM: Pressure, Strain Gauge [db]
# name 12 = prdE: Pressure, Strain Gauge [psi]
# name 13 = tv290C: Temperature [ITS-90, deg C]
# name 14 = flag:  0.000e+00
# span 0 =     -0.491,      1.135       
# span 1 =     -0.438,      0.277       
# span 2 =     4.0740,     7.0149       
# span 3 =     51.534,     88.683       
# span 4 =     82.369,     87.861       
# span 5 =  85.980043,  92.112425       
# span 6 =    -1.0540,     6.1110       
# span 7 =      7.718,      8.234       
# span 8 =    -5.4643,   171.9435       
# span 9 = 4.7291e+01, 2.1251e+03       
# span 10 =     1.3717,    12.2568      
# span 11 =     -0.482,      1.113      
# span 12 =     -0.700,      1.615      
# span 13 =    25.7306,    27.8526      
# span 14 = 0.0000e+00, 0.0000e+00      
# interval = seconds: 0.25
# start_time = Jul 07 2022 08:02:13 [Instrument's time stamp, header]
# bad_flag = -9.990e-29
# <Sensors count="9" >
#   <sensor Channel="1" >
#     <!-- Count, Temperature -->
#     <TemperatureSensor SensorID="58" >
#       <SerialNumber>7809</SerialNumber>
#       <CalibrationDate>25-Sep-21</CalibrationDate>
#       <A0>1.23251324e-003</A0>
#       <A1>2.76322262e-004</A1>
#       <A2>-9.50188734e-007</A2>
#       <A3>1.71801404e-007</A3>
#       <Slope>1.00000000</Slope>
#       <Offset>0.0000</Offset>
#     </TemperatureSensor>
#   </sensor>
#   <sensor Channel="2" >
#     <!-- Frequency 0, Conductivity -->
#     <ConductivitySensor SensorID="3" >
#       <SerialNumber>7809</SerialNumber>
#       <CalibrationDate>25-Sep-21</CalibrationDate>
#       <UseG_J>1</UseG_J>
#       <!-- Cell const and series R are applicable only for wide range sensors. -->
#       <SeriesR>0.0000</SeriesR>
#       <CellConst>2000.0000</CellConst>
#       <ConductivityType>0</ConductivityType>
#       <Coefficients equation="0" >
#         <A>0.00000000e+000</A>
#         <B>0.00000000e+000</B>
#         <C>0.00000000e+000</C>
#         <D>0.00000000e+000</D>
#         <M>0.0</M>
#         <CPcor>-9.57000000e-008</CPcor>
#       </Coefficients>
#       <Coefficients equation="1" >
#         <G>-1.00443970e+000</G>
#         <H>1.26460406e-001</H>
#         <I>-7.85436262e-005</I>
#         <J>2.21093811e-005</J>
#         <CPcor>-9.57000000e-008</CPcor>
#         <CTcor>3.2500e-006</CTcor>
#         <!-- WBOTC not applicable unless ConductivityType = 1. -->
#         <WBOTC>0.00000000e+000</WBOTC>
#       </Coefficients>
#       <Slope>1.00000000</Slope>
#       <Offset>0.00000</Offset>
#     </ConductivitySensor>
#   </sensor>
#   <sensor Channel="3" >
#     <!-- Count, Pressure, Strain Gauge -->
#     <PressureSensor SensorID="46" >
#       <SerialNumber>7809</SerialNumber>
#       <CalibrationDate>10-Sep-21</CalibrationDate>
#       <PA0>4.78919585e-002</PA0>
#       <PA1>4.85365526e-004</PA1>
#       <PA2>-3.68927597e-012</PA2>
#       <PTEMPA0>-5.40164371e+001</PTEMPA0>
#       <PTEMPA1>5.39065456e+001</PTEMPA1>
#       <PTEMPA2>-2.19411190e-002</PTEMPA2>
#       <PTCA0>5.25494622e+005</PTCA0>
#       <PTCA1>1.32519328e+001</PTCA1>
#       <PTCA2>-3.88927502e-001</PTCA2>
#       <PTCB0>2.51668750e+001</PTCB0>
#       <PTCB1>3.75000000e-004</PTCB1>
#       <PTCB2>0.00000000e+000</PTCB2>
#       <Offset>0.000000</Offset>
#     </PressureSensor>
#   </sensor>
#   <sensor Channel="4" >
#     <!-- A/D voltage 0, Oxygen, SBE 43 -->
#     <OxygenSensor SensorID="38" >
#       <SerialNumber>0434</SerialNumber>
#       <CalibrationDate>25-Sep-21</CalibrationDate>
#       <Use2007Equation>1</Use2007Equation>
#       <CalibrationCoefficients equation="0" >
#         <!-- Coefficients for Owens-Millard equation. -->
#         <Boc>0.0000</Boc>
#         <Soc>0.0000e+000</Soc>
#         <offset>0.0000</offset>
#         <Pcor>0.00e+000</Pcor>
#         <Tcor>0.0000</Tcor>
#         <Tau>0.0</Tau>
#       </CalibrationCoefficients>
#       <CalibrationCoefficients equation="1" >
#         <!-- Coefficients for Sea-Bird equation - SBE calibration in 2007 and later. -->
#         <Soc>4.7287e-001</Soc>
#         <offset>-0.5046</offset>
#         <A>-3.6094e-003</A>
#         <B> 1.1544e-004</B>
#         <C>-1.3802e-006</C>
#         <D0> 2.5826e+000</D0>
#         <D1> 1.92634e-004</D1>
#         <D2>-4.64803e-002</D2>
#         <E> 3.6000e-002</E>
#         <Tau20> 0.7700</Tau20>
#         <H1>-3.3000e-002</H1>
#         <H2> 5.0000e+003</H2>
#         <H3> 1.4500e+003</H3>
#       </CalibrationCoefficients>
#     </OxygenSensor>
#   </sensor>
#   <sensor Channel="5" >
#     <!-- A/D voltage 1, PAR/Logarithmic, Satlantic -->
#     <PARLog_SatlanticSensor SensorID="76" >
#       <SerialNumber>1122</SerialNumber>
#       <CalibrationDate>08-Sep-2021</CalibrationDate>
#       <a0>9.6751e-001</a0>
#       <a1>8.0992e-001</a1>
#       <Im>1.3589e+000</Im>
#       <Multiplier>1.0000e+000</Multiplier>
#     </PARLog_SatlanticSensor>
#   </sensor>
#   <sensor Channel="6" >
#     <!-- A/D voltage 2, pH -->
#     <pH_Sensor SensorID="43" >
#       <SerialNumber>0363</SerialNumber>
#       <CalibrationDate>16-Sep-21</CalibrationDate>
#       <Slope>4.5144</Slope>
#       <Offset>2.4957</Offset>
#     </pH_Sensor>
#   </sensor>
#   <sensor Channel="7" >
#     <!-- A/D voltage 3, Oxidation Reduction Potential -->
#     <OxidationReductionPotentialSensor SensorID="41" >
#       <SerialNumber>0363</SerialNumber>
#       <CalibrationDate>16-Sep-21</CalibrationDate>
#       <B>2.499480</B>
#       <M>-0.496195</M>
#       <Offset>0.0</Offset>
#     </OxidationReductionPotentialSensor>
#   </sensor>
#   <sensor Channel="8" >
#     <!-- A/D voltage 4, Fluorometer, WET Labs ECO-AFL/FL -->
#     <FluoroWetlabECO_AFL_FL_Sensor SensorID="20" >
#       <SerialNumber>FLNTURT-2496</SerialNumber>
#       <CalibrationDate>02-Sep-2021</CalibrationDate>
#       <ScaleFactor>4.80000000e+001</ScaleFactor>
#       <!-- Dark output -->
#       <Vblank>0.0550</Vblank>
#     </FluoroWetlabECO_AFL_FL_Sensor>
#   </sensor>
#   <sensor Channel="9" >
#     <!-- A/D voltage 5, Turbidity Meter, WET Labs, ECO-NTU -->
#     <TurbidityMeter SensorID="67" >
#       <SerialNumber>FLNTURT-2496</SerialNumber>
#       <CalibrationDate>02-Sep-2021</CalibrationDate>
#       <ScaleFactor>197.000000</ScaleFactor>
#       <!-- Dark output -->
#       <DarkVoltage>0.070000</DarkVoltage>
#     </TurbidityMeter>
#   </sensor>
# </Sensors>
# datcnv_date = Jul 08 2022 12:26:18, 7.26.7.129 [datcnv_vars = 14]
# datcnv_in = C:\R\Reservoirs\Data\DataNotYetUploadedToEDI\Raw_CTD\RawDownloads\070722_ccr08_SBE19plus01907809_0003.hex C:\R\Reservoirs\Data\DataNotYetUploadedToEDI\Raw_CTD\RawDownloads\SBE19plusV2_7809_Old_CTD.xmlcon
# datcnv_skipover = 0
# datcnv_ox_hysteresis_correction = yes
# datcnv_ox_tau_correction = yes
# filter_date = Jul 08 2022 12:27:35, 7.26.7.129
# filter_in = C:\R\Reservoirs\Data\DataNotYetUploadedToEDI\Raw_CTD\RawDownloads\070722_ccr08_SBE19plus01907809_0003.cnv
# filter_low_pass_tc_A = 0.030
# filter_low_pass_tc_B = 0.150
# filter_low_pass_A_vars = sbeox0Mg/L prdM prdE tv290C
# filter_low_pass_B_vars = depFM dz/dtM sbeox0PS specc c0uS/cm flECO-AFL ph orp par/sat/log turbWETntu0
# alignctd_date = Jul 08 2022 12:28:19, 7.26.7.129
# alignctd_in = C:\R\Reservoirs\Data\DataNotYetUploadedToEDI\Raw_CTD\RawDownloads\070722_ccr08_SBE19plus01907809_0003.cnv
# alignctd_adv = dz/dtM 1.000, sbeox0PS 1.000, specc 1.000, c0uS/cm 1.000, flECO-AFL 1.000, ph 1.000, orp 1.000, turbWETntu0 1.000                                                                                                   
# file_type = ascii
*END*
     -0.475      0.154     6.9574     85.288     87.861  92.112425    -1.0540      8.233    98.2348 1.0898e+03     6.3460     -0.482     -0.699    25.7306 0.0000e+00
     -0.421      0.203     6.9431     85.345     87.416  92.094674    -1.0416      8.234    92.7488 1.7172e+03     6.3546     -0.426     -0.618    25.8542 0.0000e+00
     -0.339      0.244     6.8678     85.535     86.984  91.866920    -0.5477      8.218    87.7885 1.8736e+03     5.1034     -0.330     -0.479    26.4424 0.0000e+00
     -0.254      0.272     6.7867     85.864     86.770  91.711726     0.3651      8.200    84.5489 1.6820e+03     2.7640     -0.246     -0.357    27.0684 0.0000e+00
     -0.178      0.277     6.7374     86.300     86.683  91.617226     0.8648      8.183    85.3275 1.9061e+03     1.5016     -0.172     -0.250    27.4581 0.0000e+00
     -0.106      0.261     6.7074     86.779     86.646  91.550935     0.9068      8.167    89.9759 2.1251e+03     1.3865     -0.103     -0.151    27.7200 0.0000e+00
     -0.038      0.233     6.7101     87.228     86.614  91.482423     0.8988      8.155    92.0538 2.0910e+03     1.3717     -0.034     -0.049    27.8313 0.0000e+00
      0.022      0.203     6.7338     87.618     86.597  91.424646     0.8765      8.148    90.0596 2.1166e+03     1.6988      0.028      0.042    27.8526 0.0000e+00
      0.066      0.176     6.7709     87.907     86.582  91.360975     0.8448      8.143    91.4179 1.9735e+03     2.3690      0.068      0.099    27.8426 0.0000e+00
      0.100      0.153     6.8139     88.077     86.552  91.284766     0.8316      8.140    96.7756 1.4283e+03     2.7801      0.099      0.143    27.8244 0.0000e+00
      0.131      0.137     6.8509     88.199     86.510  91.202573     0.8342      8.136   100.2042 1.1990e+03     2.8441      0.130      0.188    27.8047 0.0000e+00
      0.161      0.127     6.8856     88.325     86.478  91.130133     0.8343      8.133   101.2971 1.4817e+03     2.9381      0.158      0.230    27.7832 0.0000e+00
      0.190      0.121     6.9148     88.558     86.488  91.108272     0.8410      8.129   100.3524 1.5343e+03     3.1301      0.184      0.266    27.7519 0.0000e+00
      0.224      0.121     6.9260     88.683     86.531  91.128945     0.8490      8.127    97.5579 1.4750e+03     3.2529      0.219      0.317    27.7249 0.0000e+00
      0.259      0.126     6.9392     87.820     86.546  91.125710     0.8476      8.126    96.2469 1.5840e+03     3.2613      0.259      0.376    27.7071 0.0000e+00
      0.287      0.132     6.9484     85.470     86.507  91.069136     0.8495      8.124    96.9764 1.7466e+03     3.3343      0.284      0.410    27.6822 0.0000e+00
      0.312      0.134     6.9646     82.171     86.472  91.017142     0.8716      8.120    98.1189 1.7463e+03     3.5204      0.301      0.436    27.6617 0.0000e+00
      0.348      0.128     7.0149     78.685     86.473  91.005699     0.8985      8.115    99.3917 1.4895e+03     3.6332      0.336      0.488    27.6498 0.0000e+00
      0.396      0.117     6.9675     75.298     86.535  91.057925     0.9075      8.110   100.6640 1.2564e+03     3.6742      0.391      0.568    27.6385 0.0000e+00
      0.436      0.101     6.7590     72.115     86.626  91.139914     0.9145      8.107   101.7150 1.1574e+03     3.7078      0.435      0.632    27.6301 0.0000e+00
      0.459      0.081     6.4738     69.475     86.670  91.170396     0.9331      8.104   102.7219 1.1118e+03     3.7313      0.453      0.657    27.6209 0.0000e+00
      0.469      0.056     6.1956     67.702     86.685  91.172116     0.9487      8.101   103.8033 1.1078e+03     3.7196      0.461      0.669    27.6142 0.0000e+00
      0.474      0.032     5.9322     66.833     86.685  91.160701     0.9535      8.097   104.8095 1.1290e+03     3.6689      0.466      0.676    27.6074 0.0000e+00
      0.477      0.016     5.6681     66.591     86.631  91.095937     0.9499      8.095   105.6816 1.2605e+03     3.7332      0.469      0.680    27.5989 0.0000e+00
      0.477      0.008     5.4510     66.597     86.568  91.024897     0.9464      8.095   106.4323 1.4548e+03     3.8818      0.469      0.679    27.5891 0.0000e+00
      0.477      0.004     5.3104     66.625     86.547  91.001173     0.9537      8.095   107.1744 1.4230e+03     3.9289      0.467      0.677    27.5805 0.0000e+00
      0.478      0.002     5.2519     66.640     86.546  90.999840     0.9626      8.095   108.0297 1.1974e+03     3.9279      0.469      0.679    27.5751 0.0000e+00
      0.479      0.002     5.2457     66.657     86.552  91.008783     0.9624      8.094   108.9446 1.0412e+03     3.9371      0.471      0.682    27.5700 0.0000e+00
      0.480      0.002     5.2529     66.610     86.529  90.982136     0.9602      8.092   109.8045 1.0488e+03     3.9036      0.471      0.683    27.5670 0.0000e+00
      0.480      0.002     5.2548     66.371     86.491  90.931989     0.9609      8.089   110.5965 1.1073e+03     3.8638      0.470      0.681    27.5663 0.0000e+00
      0.480     -0.001     5.2544     65.854     86.483  90.911113     0.9622      8.086   111.2932 1.1088e+03     3.8666      0.470      0.681    27.5663 0.0000e+00
      0.482     -0.008     5.2579     65.089     86.437  90.856878     0.9591      8.084   111.6042 1.1276e+03     3.9036      0.473      0.685    27.5683 0.0000e+00
      0.483     -0.023     5.2581     64.169     86.371  90.784891     0.9574      8.081   111.6028 1.1461e+03     3.9347      0.475      0.688    27.5692 0.0000e+00
      0.480     -0.051     5.2434     63.208     86.401  90.803727     0.9582      8.079   111.7062 1.0838e+03     3.9360      0.471      0.683    27.5609 0.0000e+00
      0.474     -0.082     5.2020     62.408     86.571  90.957441     0.9605      8.080   112.0802 1.2255e+03     3.9529      0.467      0.677    27.5515 0.0000e+00
      0.455     -0.103     5.1383     62.026     86.791  91.180971     0.9688      8.082   112.7693 1.4887e+03     3.9343      0.457      0.662    27.5486 0.0000e+00
      0.411     -0.107     5.0640     62.269     86.857  91.280948     0.9661      8.083   113.5846 1.3726e+03     3.8130      0.411      0.598    27.5513 0.0000e+00
      0.351     -0.093     4.9826     63.274     86.679  91.148953     0.9525      8.082   114.1955 1.2211e+03     3.7158      0.338      0.491    27.5468 0.0000e+00
      0.305     -0.069     4.9131     64.964     86.489  90.983975     0.9457      8.082   114.5629 1.3466e+03     3.6822      0.285      0.414    27.5224 0.0000e+00
      0.296     -0.036     4.8792     66.917     86.531  91.003048     0.9426      8.083   115.1015 1.4732e+03     3.6792      0.277      0.401    27.5125 0.0000e+00
      0.320      0.009     4.8914     68.724     86.695  91.125182     0.9321      8.086   116.0614 1.4293e+03     3.7829      0.313      0.455    27.5339 0.0000e+00
      0.345      0.060     4.9670     70.353     86.768  91.188915     0.9184      8.088   117.1350 1.2529e+03     3.9113      0.351      0.510    27.5749 0.0000e+00
      0.350      0.103     5.1115     71.765     86.696  91.137774     0.9094      8.087   118.0160 1.3763e+03     3.9673      0.340      0.493    27.6098 0.0000e+00
      0.361      0.130     5.2842     72.599     86.554  91.015561     0.9069      8.084   118.7978 1.5584e+03     4.0153      0.337      0.490    27.5853 0.0000e+00
      0.405      0.143     5.4272     72.561     86.456  90.919378     0.9470      8.081   119.6176 1.2695e+03     3.9794      0.391      0.568    27.5339 0.0000e+00
      0.467      0.145     5.5531     71.706     86.424  90.865009     1.0201      8.079   120.3562 1.1282e+03     3.8750      0.461      0.668    27.5322 0.0000e+00
      0.525      0.132     5.6776     70.304     86.464  90.866824     1.0581      8.078   121.0181 1.2505e+03     3.8462      0.521      0.755    27.5570 0.0000e+00
      0.566      0.100     5.7512     68.666     86.567  90.941268     1.0648      8.077   121.6833 1.1246e+03     3.8705      0.562      0.815    27.5740 0.0000e+00
      0.587      0.053     5.7441     67.065     86.640  91.002053     1.0683      8.076   122.2051 1.0561e+03     3.8605      0.584      0.846    27.5818 0.0000e+00
      0.587      0.002     5.6698     65.672     86.608  90.965903     1.0747      8.073   122.3363 1.2175e+03     3.7946      0.584      0.847    27.5672 0.0000e+00
      0.569     -0.050     5.5533     64.589     86.523  90.885692     1.0841      8.070   122.1510 1.2877e+03     3.7570      0.558      0.809    27.5373 0.0000e+00
      0.545     -0.098     5.4184     63.860     86.543  90.922408     1.0818      8.067   122.0302 1.2387e+03     3.7471      0.531      0.770    27.5148 0.0000e+00
      0.523     -0.131     5.2879     63.404     86.691  91.091949     1.0478      8.067   122.1667 1.1776e+03     3.7092      0.516      0.749    27.5085 0.0000e+00
      0.490     -0.138     5.1764     63.211     86.795  91.218856     0.9884      8.069   122.5958 1.1301e+03     3.6753      0.492      0.713    27.5074 0.0000e+00
      0.433     -0.119     5.0867     63.496     86.736  91.185178     0.9550      8.070   123.2613 1.1532e+03     3.6785      0.431      0.624    27.5128 0.0000e+00
      0.368     -0.083     5.0331     64.462     86.591  91.066305     0.9599      8.069   124.1046 1.3596e+03     3.7132      0.346      0.502    27.5250 0.0000e+00
      0.335     -0.039     4.9985     65.951     86.498  90.989724     0.9565      8.068   124.9617 1.5032e+03     3.8218      0.309      0.448    27.5314 0.0000e+00
      0.348      0.007     4.9741     67.378     86.482  90.958696     0.9307      8.066   125.6237 1.3258e+03     3.9667      0.334      0.486    27.5379 0.0000e+00
      0.385      0.047     4.9875     68.311     86.518  90.945460     0.9143      8.065   126.2573 1.2916e+03     3.9623      0.378      0.548    27.5575 0.0000e+00
      0.424      0.072     5.0631     68.731     86.580  90.956763     0.9073      8.064   126.9437 1.7945e+03     3.8714      0.420      0.610    27.5794 0.0000e+00
      0.450      0.075     5.2017     68.677     86.623  90.968105     0.9218      8.064   127.5561 2.0992e+03     3.7899      0.449      0.650    27.5977 0.0000e+00
      0.461      0.062     5.3291     68.192     86.627  90.955383     0.9721      8.063   128.2415 1.5837e+03     3.6945      0.454      0.657    27.5924 0.0000e+00
      0.466      0.045     5.4013     67.433     86.610  90.930077     1.0080      8.062   128.9504 1.1447e+03     3.6738      0.457      0.663    27.5501 0.0000e+00
      0.472      0.031     5.4377     66.502     86.598  90.916462     1.0228      8.061   129.5016 1.1957e+03     3.7107      0.462      0.670    27.5148 0.0000e+00
      0.479      0.022     5.4365     65.476     86.596  90.917932     1.0345      8.059   130.0022 1.2409e+03     3.7985      0.469      0.681    27.4984 0.0000e+00
      0.488      0.017     5.3910     64.501     86.617  90.947856     1.0334      8.057   130.4425 1.1450e+03     3.9163      0.480      0.696    27.4892 0.0000e+00
      0.493      0.015     5.3297     63.662     86.676  91.023945     1.0259      8.055   130.9530 1.0415e+03     3.9391      0.485      0.703    27.4861 0.0000e+00
      0.494      0.014     5.2563     63.002     86.704  91.074927     1.0190      8.054   131.6145 1.1053e+03     3.9034      0.486      0.705    27.4861 0.0000e+00
      0.493      0.013     5.1673     62.500     86.665  91.055641     1.0169      8.052   132.1606 1.1958e+03     3.8600      0.483      0.700    27.4889 0.0000e+00
      0.495      0.011     5.0903     62.066     86.642  91.045131     1.0168      8.052   132.5656 1.2388e+03     3.8581      0.484      0.700    27.4918 0.0000e+00
      0.500      0.012     5.0210     61.663     86.658  91.075045     1.0178      8.053   132.8979 1.4034e+03     3.9153      0.490      0.710    27.4992 0.0000e+00
      0.507      0.017     4.9675     61.270     86.666  91.099429     1.0284      8.054   133.2530 1.5244e+03     3.9368      0.498      0.722    27.5148 0.0000e+00
      0.510      0.027     4.9317     60.883     86.642  91.085640     1.0372      8.054   133.6756 1.3654e+03     3.9469      0.503      0.728    27.5288 0.0000e+00
      0.511      0.039     4.8959     60.527     86.589  91.035505     1.0331      8.055   134.0496 1.1314e+03     3.9342      0.497      0.722    27.5346 0.0000e+00
      0.517      0.053     4.8652     60.196     86.553  91.001930     1.0199      8.056   134.4195 1.2734e+03     3.8521      0.502      0.728    27.5407 0.0000e+00
      0.534      0.069     4.8333     59.850     86.548  90.997607     1.0025      8.056   134.8786 1.5201e+03     3.8091      0.523      0.758    27.5522 0.0000e+00
      0.558      0.084     4.8004     59.455     86.537  90.983240     0.9977      8.055   136.4171 1.3603e+03     3.8576      0.545      0.792    27.5600 0.0000e+00
      0.584      0.096     4.7728     59.050     86.514  90.955377     1.0199      8.054   139.3411 1.1532e+03     3.9948      0.571      0.828    27.5606 0.0000e+00
      0.614      0.099     4.7475     58.708     86.479  90.915046     1.0546      8.052   141.6677 1.1876e+03     4.1701      0.602      0.874    27.5640 0.0000e+00
      0.644      0.089     4.7218     58.409     86.448  90.877105     1.0767      8.050   142.6076 1.2831e+03     4.2346      0.632      0.917    27.5659 0.0000e+00
      0.672      0.065     4.6898     58.077     86.468  90.878119     1.0784      8.048   142.9619 1.3117e+03     4.2277      0.659      0.957    27.5632 0.0000e+00
      0.695      0.032     4.6546     57.786     86.540  90.927278     1.0671      8.046   142.2509 1.2301e+03     4.1562      0.686      0.995    27.5597 0.0000e+00
      0.704     -0.003     4.6284     57.840     86.590  90.962774     1.0566      8.045   140.5507 1.0961e+03     3.9852      0.698      1.012    27.5582 0.0000e+00
      0.694     -0.036     4.6089     58.505     86.553  90.925780     1.0514      8.043   139.6128 1.0153e+03     3.9015      0.687      0.995    27.5594 0.0000e+00
      0.667     -0.067     4.5826     59.616     86.481  90.861488     1.0541      8.041   140.0308 9.7400e+02     3.9304      0.658      0.953    27.5461 0.0000e+00
      0.636     -0.101     4.5515     60.769     86.446  90.821283     1.0640      8.040   140.7010 9.8308e+02     3.9584      0.618      0.896    27.5246 0.0000e+00
      0.613     -0.139     4.5445     61.858     86.479  90.821173     1.0716      8.039   140.3165 1.0041e+03     3.9659      0.598      0.867    27.5146 0.0000e+00
      0.591     -0.178     4.6029     63.010     86.570  90.860105     1.0789      8.039   139.8562 9.7461e+02     3.9530      0.588      0.853    27.5169 0.0000e+00
      0.552     -0.212     4.7076     64.213     86.661  90.910423     1.0863      8.040   140.8137 9.2444e+02     3.9396      0.551      0.799    27.5280 0.0000e+00
      0.486     -0.235     4.7987     65.207     86.686  90.920828     1.0691      8.040   142.0857 9.5260e+02     3.8719      0.486      0.704    27.5327 0.0000e+00
      0.397     -0.243     4.8800     65.725     86.611  90.858723     1.0282      8.040   142.5878 1.0640e+03     3.7160      0.392      0.568    27.5096 0.0000e+00
      0.306     -0.231     4.9743     65.778     86.523  90.795375     1.0092      8.040   141.9807 1.1677e+03     3.6258      0.290      0.421    27.4679 0.0000e+00
      0.238     -0.200     5.0808     65.621     86.517  90.790770     1.0142      8.041   141.8864 1.2535e+03     3.6690      0.221      0.320    27.4379 0.0000e+00
      0.198     -0.155     5.1708     65.526     86.567  90.803056     0.9968      8.041   143.7705 1.3072e+03     3.6239      0.187      0.271    27.4298 0.0000e+00
      0.179     -0.108     5.2089     65.563     86.631  90.816698     0.9483      8.041   145.4015 1.3841e+03     3.3877      0.174      0.252    27.4413 0.0000e+00
      0.169     -0.070     5.2027     65.578     86.675  90.828460     0.9107      8.042   145.9476 1.4494e+03     3.2037      0.167      0.242    27.4679 0.0000e+00
      0.160     -0.048     5.1798     65.395     86.678  90.818046     0.8918      8.042   146.2441 1.6323e+03     3.1411      0.156      0.226    27.4766 0.0000e+00
      0.152     -0.039     5.1734     64.984     86.679  90.817933     0.8778      8.042   146.2328 1.9107e+03     3.1435      0.149      0.216    27.4418 0.0000e+00
      0.145     -0.030     5.1860     64.426     86.678  90.827094     0.8750      8.043   146.0698 2.0293e+03     3.1983      0.143      0.209    27.4034 0.0000e+00
      0.135     -0.015     5.1950     63.861     86.629  90.801659     0.8826      8.043   146.0798 2.0241e+03     3.2236      0.134      0.194    27.3852 0.0000e+00
      0.122     -0.002     5.1815     63.554     86.564  90.764765     0.9026      8.042   146.4398 1.8796e+03     3.2445      0.119      0.172    27.3796 0.0000e+00
      0.116     -0.001     5.1455     63.828     86.556  90.762573     0.9167      8.041   146.9807 1.7069e+03     3.2795      0.104      0.150    27.3787 0.0000e+00
      0.132     -0.013     5.0991     64.775     86.603  90.775172     0.8960      8.040   147.3714 1.4960e+03     3.2719      0.121      0.175    27.3832 0.0000e+00
      0.159     -0.028     5.0450     66.104     86.661  90.789865     0.8608      8.040   147.5506 1.2820e+03     3.2208      0.166      0.241    27.3979 0.0000e+00
      0.161     -0.037     5.0074     67.495     86.697  90.812988     0.8398      8.041   147.6840 1.3766e+03     3.1739      0.176      0.256    27.4250 0.0000e+00
      0.122     -0.039     5.0230     68.895     86.655  90.800389     0.8256      8.041   147.7802 1.6619e+03     3.1486      0.124      0.180    27.4366 0.0000e+00
      0.074     -0.039     5.1120     70.090     86.576  90.764754     0.8227      8.042   147.8534 1.8327e+03     3.1545      0.057      0.083    27.4035 0.0000e+00
      0.054     -0.036     5.2345     70.767     86.566  90.763700     0.8373      8.043   147.9665 1.8972e+03     3.2105      0.038      0.055    27.3679 0.0000e+00
      0.067     -0.022     5.3396     71.010     86.622  90.787669     0.8522      8.043   148.1145 1.9068e+03     3.2802      0.065      0.092    27.3560 0.0000e+00
      0.089      0.000     5.4541     70.974     86.668  90.800163     0.8530      8.042   148.1810 1.8382e+03     3.3137      0.095      0.137    27.3798 0.0000e+00
      0.097      0.021     5.5617     70.608     86.658  90.787541     0.8560      8.041   148.0813 1.7803e+03     3.2733      0.102      0.148    27.4239 0.0000e+00
      0.088      0.032     5.6059     69.952     86.602  90.762216     0.8797      8.041   148.1138 1.7419e+03     3.2021      0.085      0.123    27.4303 0.0000e+00
      0.081      0.032     5.6213     69.139     86.555  90.748347     0.8991      8.041   148.4888 1.5134e+03     3.2036      0.071      0.102    27.3965 0.0000e+00
      0.093      0.028     5.6280     68.247     86.559  90.747083     0.8989      8.040   148.9149 1.2225e+03     3.2582      0.085      0.123    27.3691 0.0000e+00
      0.119      0.024     5.5969     67.402     86.595  90.746922     0.8846      8.039   149.1367 1.3423e+03     3.2817      0.120      0.172    27.3670 0.0000e+00
      0.139      0.021     5.5364     66.741     86.626  90.746334     0.8678      8.039   149.2774 1.7215e+03     3.2820      0.144      0.209    27.3936 0.0000e+00
      0.141      0.015     5.4688     66.227     86.631  90.739920     0.8618      8.039   149.4115 1.8205e+03     3.2963      0.143      0.208    27.4282 0.0000e+00
      0.129      0.006     5.3954     65.805     86.615  90.732939     0.8546      8.039   149.4680 1.6878e+03     3.2835      0.125      0.181    27.4208 0.0000e+00
      0.118     -0.002     5.3250     65.544     86.592  90.725522     0.8557      8.038   149.6160 1.6797e+03     3.1613      0.111      0.161    27.3875 0.0000e+00
      0.117     -0.005     5.2778     65.417     86.579  90.713855     0.8742      8.036   149.9097 1.7329e+03     2.9798      0.112      0.162    27.3666 0.0000e+00
      0.123     -0.003     5.2416     65.242     86.603  90.719055     0.8868      8.035   150.1801 1.8859e+03     2.9003      0.121      0.175    27.3602 0.0000e+00
      0.129      0.000     5.2022     64.949     86.632  90.724778     0.8926      8.035   150.3908 2.0495e+03     2.9515      0.128      0.187    27.3680 0.0000e+00
      0.130      0.001     5.1800     64.601     86.640  90.719419     0.9026      8.036   150.5641 1.9324e+03     3.0864      0.129      0.188    27.3835 0.0000e+00
      0.126      0.000     5.1784     64.217     86.642  90.717823     0.9157      8.036   150.7265 1.7813e+03     3.1990      0.124      0.181    27.3874 0.0000e+00
      0.121     -0.002     5.1677     63.728     86.628  90.705480     0.9184      8.037   150.8911 1.7470e+03     3.2196      0.118      0.171    27.3699 0.0000e+00
      0.119     -0.002     5.1422     63.050     86.616  90.697350     0.9095      8.037   151.0921 1.7856e+03     3.2336      0.116      0.168    27.3525 0.0000e+00
      0.121     -0.001     5.1149     62.199     86.601  90.683107     0.9002      8.036   151.3498 1.8370e+03     3.2310      0.118      0.172    27.3458 0.0000e+00
      0.124      0.001     5.0867     61.252     86.586  90.660450     0.8802      8.035   151.5986 1.8381e+03     3.2220      0.123      0.178    27.3447 0.0000e+00
      0.126      0.001     5.0515     60.224     86.614  90.677715     0.8592      8.035   151.8626 1.8176e+03     3.2622      0.125      0.181    27.3469 0.0000e+00
      0.125      0.000     4.9971     59.143     86.644  90.701095     0.8551      8.034   152.1327 1.7802e+03     3.2729      0.124      0.179    27.3491 0.0000e+00
      0.123     -0.001     4.9251     58.073     86.633  90.688795     0.8551      8.032   152.2838 1.7888e+03     3.2147      0.122      0.175    27.3522 0.0000e+00
      0.121     -0.001     4.8518     57.044     86.602  90.656157     0.8675      8.031   152.3986 1.8323e+03     3.1733      0.119      0.172    27.3484 0.0000e+00
      0.121     -0.001     4.7711     56.115     86.574  90.624391     0.8881      8.031   152.6601 1.8527e+03     3.2166      0.118      0.171    27.3377 0.0000e+00
      0.122     -0.000     4.6818     55.305     86.577  90.622614     0.8965      8.031   152.9506 1.8826e+03     3.2596      0.119      0.173    27.3325 0.0000e+00
      0.123 -3.611e-07     4.5988     54.562     86.592  90.634667     0.9021      8.031   153.0718 1.8969e+03     3.2154      0.120      0.174    27.3341 0.0000e+00
      0.124      0.000     4.5140     53.917     86.604  90.642947     0.8898      8.030   153.1793 1.9014e+03     3.1605      0.122      0.176    27.3352 0.0000e+00
      0.124      0.000     4.4391     53.412     86.622  90.659140     0.8557      8.030   153.3899 1.9830e+03     3.1761      0.122      0.177    27.3332 0.0000e+00
      0.123      0.000     4.3797     53.031     86.606  90.639706     0.8395      8.030   153.5524 2.0182e+03     3.1991      0.120      0.174    27.3299 0.0000e+00
      0.122     -0.000     4.3182     52.752     86.569  90.598711     0.8521      8.029   153.5961 1.9359e+03     3.1992      0.119      0.172    27.3271 0.0000e+00
      0.122      0.002     4.2656     52.531     86.582  90.608552     0.8583      8.029   153.1443 1.8664e+03     3.2463      0.119      0.173    27.3249 0.0000e+00
      0.122      0.005     4.2276     52.343     86.607  90.631515     0.8479      8.029   152.6494 1.8455e+03     3.2555      0.120      0.174    27.3234 0.0000e+00
      0.122      0.007     4.1970     52.195     86.600  90.622026     0.8422      8.029   152.7746 1.8526e+03     3.1735      0.119      0.173    27.3226 0.0000e+00
      0.124      0.005     4.1768     52.027     86.602  90.620983     0.8397      8.027   152.9378 1.8870e+03     3.1444      0.120      0.175    27.3212 0.0000e+00
      0.129     -0.004     4.1612     51.815     86.611  90.618901     0.8515      8.026   152.9882 1.9874e+03     3.1085      0.126      0.182    27.3189 0.0000e+00
      0.135     -0.018     4.1436     51.616     86.606  90.596835     0.8855      8.025   152.6096 2.0891e+03     3.0121      0.135      0.196    27.3170 0.0000e+00
      0.134     -0.032     4.1358     51.534     86.627  90.608492     0.9092      8.024   152.3180 2.0713e+03     3.0039      0.137      0.199    27.3155 0.0000e+00
      0.120     -0.046     4.1236     51.748     86.648  90.632664     0.9127      8.024   152.7320 2.0083e+03     3.0434      0.121      0.176    27.3160 0.0000e+00
      0.097     -0.056     4.1034     52.219     86.641  90.634764     0.9109      8.024   152.7967 2.0245e+03     3.0802      0.094      0.136    27.3101 0.0000e+00
      0.074     -0.061     4.0894     52.669     86.628  90.633900     0.9053      8.023   152.5833 2.0746e+03     3.1414      0.070      0.100    27.2953 0.0000e+00
      0.058     -0.059     4.0740     52.974     86.605  90.622242     0.8944      8.023   152.7328 2.0673e+03     3.1340      0.055      0.079    27.2887 0.0000e+00
      0.045     -0.050     4.0906     53.140     86.598  90.620991     0.8875      8.023   153.1422 2.0522e+03     3.0934      0.043      0.062    27.2915 0.0000e+00
      0.034     -0.038     4.1416     53.151     86.597  90.618784     0.8798      8.023   153.5756 2.0484e+03     3.1276      0.032      0.046    27.2972 0.0000e+00
      0.025     -0.027     4.1772     53.014     86.577  90.595558     0.8675      8.023   153.6709 2.0321e+03     3.2071      0.024      0.035    27.3056 0.0000e+00
      0.019     -0.017     4.1995     52.774     86.578  90.594487     0.8643      8.024   153.5200 2.0240e+03     3.2690      0.018      0.026    27.3138 0.0000e+00
      0.016     -0.009     4.2140     52.479     86.593  90.605837     0.8666      8.024   153.5586 1.9081e+03     3.2605      0.014      0.021    27.3184 0.0000e+00
      0.017     -0.002     4.2144     52.167     86.599  90.605620     0.8614      8.025   153.6208 1.4896e+03     3.2063      0.016      0.023    27.3161 0.0000e+00
      0.020      0.003     4.2028     51.949     86.709  90.719024     0.8596      8.025   153.4978 1.1761e+03     3.1944      0.020      0.029    27.3132 0.0000e+00
      0.023      0.007     4.1817     52.230     86.968  91.023230     0.8699      8.026   153.1899 1.4373e+03     3.2196      0.023      0.033    27.3137 0.0000e+00
      0.023      0.011     4.1583     53.959     87.113  91.295361     0.8776      8.026   152.9090 1.7738e+03     3.2382      0.024      0.034    27.3114 0.0000e+00
      0.024      0.015     4.1318     57.944     87.031  91.402580     0.8859      8.026   152.8557 1.6428e+03     3.2484      0.023      0.033    27.3067 0.0000e+00
      0.027      0.023     4.1069     63.496     86.887  91.429740     0.9043      8.026   153.2333 1.3151e+03     3.3082      0.027      0.037    27.3023 0.0000e+00
      0.033      0.037     4.1020     69.055     86.782  91.433282     0.9244      8.027   154.2043 1.3647e+03     3.4154      0.031      0.046    27.3034 0.0000e+00
      0.041      0.053     4.1924     73.691     86.739  91.445573     0.9295      8.028   154.7880 1.6813e+03     3.4519      0.040      0.057    27.3723 0.0000e+00
      0.053      0.069     4.5225     77.094     86.724  91.451273     0.9157      8.029   154.6130 1.8173e+03     3.4415      0.049      0.070    27.5124 0.0000e+00
      0.075      0.081     5.0133     79.321     86.708  91.438633     0.8990      8.030   154.7555 1.6790e+03     3.4610      0.068      0.099    27.6244 0.0000e+00
      0.106      0.088     5.4600     80.490     86.693  91.419927     0.8935      8.030   155.3055 1.4902e+03     3.4815      0.107      0.156    27.6843 0.0000e+00
      0.136      0.090     5.8338     80.620     86.693  91.415840     0.9004      8.030   155.3264 1.6662e+03     3.4845      0.138      0.200    27.7138 0.0000e+00
      0.158      0.088     6.0953     79.996     86.732  91.452803     0.9079      8.030   155.0090 2.0336e+03     3.4972      0.156      0.226    27.7214 0.0000e+00
      0.177      0.084     6.2636     79.119     86.766  91.485326     0.9087      8.030   154.8234 1.9622e+03     3.4649      0.174      0.252    27.7219 0.0000e+00
      0.195      0.080     6.3626     78.367     86.775  91.491141     0.9022      8.030   154.6296 1.5089e+03     3.3322      0.192      0.278    27.7200 0.0000e+00
      0.212      0.081     6.3623     77.863     86.810  91.523096     0.8949      8.030   155.3328 1.2122e+03     3.2254      0.208      0.302    27.7173 0.0000e+00
      0.232      0.087     6.2979     77.539     86.849  91.553759     0.8955      8.030   157.0461 1.0664e+03     3.1988      0.227      0.329    27.7148 0.0000e+00
      0.254      0.093     6.2175     77.297     86.854  91.543947     0.9262      8.030   158.3946 8.3238e+02     3.2838      0.250      0.362    27.7130 0.0000e+00
      0.278      0.098     6.1565     77.134     86.858  91.531600     0.9834      8.030   159.1619 6.0439e+02     3.5023      0.271      0.393    27.7114 0.0000e+00
      0.308      0.100     6.1191     77.039     86.872  91.531616     1.0128      8.030   159.5267 4.9585e+02     3.6536      0.301      0.436    27.7091 0.0000e+00
      0.339      0.098     6.0996     76.968     86.893  91.544115     1.0229      8.030   159.1917 4.7182e+02     3.7131      0.336      0.487    27.7038 0.0000e+00
      0.366      0.095     6.0792     76.901     86.911  91.555539     1.0481      8.030   158.6382 4.7963e+02     3.8458      0.362      0.524    27.6940 0.0000e+00
      0.387      0.092     6.0680     76.838     86.904  91.542545     1.0680      8.029   158.7717 4.8664e+02     3.9937      0.380      0.551    27.6829 0.0000e+00
      0.406      0.088     6.0638     76.813     86.883  91.514174     1.0719      8.028   159.1709 4.8691e+02     4.0319      0.397      0.576    27.6745 0.0000e+00
      0.425      0.086     6.0583     76.838     86.848  91.466839     1.0699      8.028   159.3350 5.0332e+02     4.0349      0.416      0.604    27.6688 0.0000e+00
      0.447      0.089     6.0546     76.860     86.812  91.415295     1.0856      8.027   159.7238 5.0697e+02     4.0979      0.438      0.635    27.6647 0.0000e+00
      0.471      0.094     6.0477     76.816     86.809  91.399620     1.1202      8.025   160.1718 5.0056e+02     4.1793      0.462      0.671    27.6626 0.0000e+00
      0.496      0.099     6.0456     76.720     86.824  91.404468     1.1392      8.025   160.3641 5.1007e+02     4.2332      0.485      0.704    27.6596 0.0000e+00
      0.522      0.100     6.0500     76.612     86.838  91.410301     1.1491      8.025   160.4997 4.8367e+02     4.2374      0.510      0.739    27.6526 0.0000e+00
      0.551      0.099     6.0556     76.484     86.839  91.406546     1.1893      8.024   160.6935 4.3752e+02     4.1958      0.541      0.785    27.6445 0.0000e+00
      0.579      0.096     6.0517     76.322     86.797  91.359060     1.2427      8.024   161.0725 4.3292e+02     4.1746      0.571      0.827    27.6374 0.0000e+00
      0.603      0.093     6.0431     76.155     86.728  91.281239     1.2616      8.024   161.6406 4.5793e+02     4.1516      0.594      0.860    27.6308 0.0000e+00
      0.623      0.090     6.0359     76.025     86.687  91.228622     1.2598      8.023   161.9700 4.4791e+02     4.1229      0.612      0.887    27.6252 0.0000e+00
      0.642      0.085     6.0271     75.958     86.701  91.231537     1.2541      8.021   162.0430 3.9826e+02     4.1358      0.628      0.911    27.6224 0.0000e+00
      0.665      0.082     6.0130     75.950     86.729  91.252879     1.2760      8.021   162.3519 3.7188e+02     4.2053      0.650      0.943    27.6221 0.0000e+00
      0.689      0.081     5.9990     75.963     86.713  91.232314     1.3405      8.021   162.9511 3.7559e+02     4.3474      0.677      0.981    27.6198 0.0000e+00
      0.710      0.080     5.9885     75.952     86.658  91.173634     1.3851      8.020   163.5234 3.8860e+02     4.4526      0.697      1.011    27.6130 0.0000e+00
      0.727      0.077     5.9842     75.919     86.605  91.115639     1.3916      8.020   164.1949 3.9613e+02     4.4527      0.712      1.033    27.6047 0.0000e+00
      0.746      0.074     5.9853     75.894     86.538  91.039769     1.3936      8.020   165.1335 3.8584e+02     4.4520      0.732      1.061    27.5996 0.0000e+00
      0.765      0.072     5.9879     75.833     86.404  90.892129     1.4099      8.020   165.6659 3.7156e+02     4.5124      0.752      1.090    27.5994 0.0000e+00
      0.784      0.071     5.9876     75.680     86.201  90.665769     1.4220      8.020   165.4699 3.6357e+02     4.5681      0.769      1.115    27.5995 0.0000e+00
      0.801      0.070     5.9821     75.490     85.971  90.401097     1.4238      8.020   165.1725 3.5572e+02     4.6136      0.785      1.139    27.5974 0.0000e+00
      0.818      0.069     5.9831     75.363     85.784  90.171677     1.4473      8.019   165.2530 3.5124e+02     4.7197      0.802      1.163    27.5951 0.0000e+00
      0.835      0.069     5.9812     75.305     85.644  89.990007     1.4822      8.018   165.5836 3.6073e+02     4.8264      0.819      1.188    27.5919 0.0000e+00
      0.853      0.070     5.9677     75.233     85.429  89.730426     1.4959      8.017   165.6424 3.8301e+02     4.8446      0.838      1.214    27.5861 0.0000e+00
      0.872      0.071     5.9499     75.109     85.140  89.385504     1.4968      8.016   165.3617 4.0845e+02     4.8034      0.856      1.241    27.5724 0.0000e+00
      0.888      0.074     5.9421     74.983     84.645  88.807751     1.5175      8.015   165.2006 4.3555e+02     4.7378      0.871      1.263    27.5503 0.0000e+00
      0.906      0.078     5.9435     74.879     83.727  87.767327     1.5640      8.016   165.3298 4.7550e+02     4.6658      0.887      1.286    27.5303 0.0000e+00
      0.926      0.081     5.9408     74.704     82.831  86.723342     1.6007      8.016   165.7188 5.1776e+02     4.6168      0.908      1.317    27.5131 0.0000e+00
      0.949      0.081     5.9314     74.383     82.424  86.165774     1.6199      8.016   166.1183 5.2486e+02     4.6237      0.929      1.350    27.4895 0.0000e+00
      0.973      0.078     5.9226     73.919     82.369  85.984091     1.6468      8.016   166.2029 5.1397e+02     4.6131      0.953      1.382    27.4562 0.0000e+00
      0.997      0.070     5.9239     73.321     82.453  85.988511     1.6762      8.016   166.1389 5.2101e+02     4.4883      0.980      1.421    27.4115 0.0000e+00
      1.016      0.060     5.9188     72.648     82.591  86.091945     1.6755      8.015   166.2047 5.2027e+02     4.3779      0.999      1.450    27.3504 0.0000e+00
      1.028      0.048     5.9012     72.027     82.727  86.217554     1.6545      8.015   166.4829 5.0192e+02     4.3717      1.009      1.464    27.2632 0.0000e+00
      1.036      0.037     5.8739     71.488     82.932  86.426546     1.6468      8.014   166.7489 4.9197e+02     4.3794      1.016      1.474    27.1763 0.0000e+00
      1.041      0.027     5.8311     71.021     83.132  86.648183     1.6490      8.013   166.7539 4.8960e+02     4.4024      1.022      1.482    27.1282 0.0000e+00
      1.045      0.021     5.7733     70.705     83.057  86.608865     1.6560      8.012   166.7154 4.9547e+02     4.4452      1.025      1.488    27.1087 0.0000e+00
      1.049      0.018     5.7243     70.551     82.817  86.396214     1.6733      8.011   166.8001 5.0525e+02     4.4534      1.029      1.493    27.1018 0.0000e+00
      1.054      0.018     5.6856     70.515     82.660  86.238474     1.6833      8.010   166.9175 4.9959e+02     4.4329      1.034      1.499    27.0974 0.0000e+00
      1.059      0.018     5.6415     70.565     82.667  86.227312     1.6774      8.008   167.0163 4.8489e+02     4.4018      1.038      1.506    27.1005 0.0000e+00
      1.064      0.019     5.6149     70.653     82.836  86.388350     1.6694      8.007   167.1340 4.6579e+02     4.3853      1.044      1.513    27.1307 0.0000e+00
      1.068      0.019     5.6011     70.700     82.915  86.469175     1.6604      8.007   167.3077 4.4685e+02     4.3693      1.048      1.519    27.1644 0.0000e+00
      1.073      0.018     5.5984     70.684     82.823  86.378165     1.6522      8.006   167.5682 4.3072e+02     4.3458      1.052      1.526    27.1635 0.0000e+00
      1.078      0.017     5.6057     70.688     82.754  86.305075     1.6620      8.005   167.7887 4.1408e+02     4.3394      1.056      1.533    27.1440 0.0000e+00
      1.083      0.015     5.6162     70.754     82.744  86.284706     1.6872      8.005   167.9085 4.0042e+02     4.3272      1.062      1.541    27.1339 0.0000e+00
      1.087      0.013     5.6220     70.836     82.852  86.386146     1.6986      8.005   168.0696 3.8909e+02     4.2314      1.066      1.547    27.1358 0.0000e+00
      1.090      0.010     5.6152     70.906     83.157  86.705159     1.6917      8.004   168.1890 3.8922e+02     4.1381      1.069      1.552    27.1412 0.0000e+00
      1.092      0.008     5.6146     71.005     83.436  87.026915     1.6790      8.003   168.2335 4.0396e+02     4.1898      1.071      1.553    27.1415 0.0000e+00
      1.092      0.006     5.6225     71.127     83.393  87.034424     1.6695      8.003   168.2625 4.1722e+02     4.2749      1.071      1.553    27.1343 0.0000e+00
      1.093      0.006     5.6321     71.202     83.133  86.796059     1.6693      8.001   168.3679 4.2112e+02     4.3137      1.072      1.555    27.1239 0.0000e+00
      1.094      0.006     5.6352     71.236     82.856  86.497044     1.6754      7.999   168.4762 4.1582e+02     4.3524      1.073      1.556    27.1193 0.0000e+00
      1.095      0.007     5.6407     71.255     82.622  86.216112     1.6856      7.997   168.4534 3.9810e+02     4.3329      1.074      1.558    27.1379 0.0000e+00
      1.098      0.008     5.6504     71.253     82.520  86.069183     1.6926      7.996   168.5216 3.6985e+02     4.2477      1.076      1.561    27.1833 0.0000e+00
      1.101      0.008     5.6521     71.236     82.595  86.118987     1.6848      7.995   168.6981 3.3341e+02     4.1760      1.079      1.565    27.2087 0.0000e+00
      1.103      0.008     5.6547     71.186     82.729  86.246132     1.6666      7.994   168.7812 3.0178e+02     4.1153      1.082      1.570    27.1959 0.0000e+00
      1.105      0.007     5.6605     71.031     82.755  86.271512     1.6566      7.993   168.8379 2.8250e+02     4.1628      1.084      1.572    27.1682 0.0000e+00
      1.107      0.006     5.6622     70.761     82.720  86.235161     1.6547      7.992   169.0392 2.6034e+02     4.3404      1.085      1.575    27.1411 0.0000e+00
      1.108      0.005     5.6624     70.469     82.734  86.251590     1.6598      7.991   169.3225 2.3124e+02     4.4529      1.086      1.576    27.1235 0.0000e+00
      1.108      0.004     5.6627     70.241     82.878  86.406590     1.6685      7.990   169.5967 2.0752e+02     4.4639      1.087      1.576    27.1169 0.0000e+00
      1.109      0.004     5.6508     70.124     83.218  86.774294     1.6432      7.988   169.8591 1.9485e+02     4.4389      1.088      1.578    27.1181 0.0000e+00
      1.110      0.004     5.6253     70.148     83.654  87.264692     1.5875      7.987   170.0861 1.8681e+02     4.3895      1.088      1.578    27.1181 0.0000e+00
      1.111      0.004     5.5999     70.296     84.066  87.758871     1.5523      7.987   170.2759 1.7749e+02     4.3452      1.089      1.579    27.1180 0.0000e+00
      1.112      0.004     5.5806     70.548     84.326  88.108657     1.5423      7.987   170.4339 1.6591e+02     4.3132      1.090      1.581    27.1213 0.0000e+00
      1.114      0.004     5.5692     70.890     84.343  88.188200     1.5334      7.986   170.7055 1.5466e+02     4.2753      1.091      1.584    27.1249 0.0000e+00
      1.116      0.004     5.5703     71.237     84.332  88.212132     1.5193      7.986   171.2368 1.4849e+02     4.2292      1.094      1.587    27.1442 0.0000e+00
      1.116      0.004     5.5789     71.529     84.365  88.270919     1.5046      7.985   171.6950 1.4709e+02     4.2004      1.095      1.588    27.1868 0.0000e+00
      1.116      0.005     5.5923     71.795     84.277  88.199695     1.4981      7.983   171.9435 1.4543e+02     4.2002      1.095      1.588    27.2401 0.0000e+00
      1.116      0.006     5.6191     72.037     84.190  88.113906     1.5562      7.981   171.5747 1.3781e+02     4.2267      1.094      1.587    27.2804 0.0000e+00
      1.118      0.006     5.6481     72.238     84.330  88.250852     1.6671      7.979   169.8176 1.2304e+02     4.2810      1.095      1.589    27.2948 0.0000e+00
      1.121      0.007     5.6667     72.429     84.529  88.456832     1.7237      7.977   162.1415 1.0834e+02     4.3450      1.100      1.595    27.3078 0.0000e+00
      1.124      0.007     5.6869     72.638     84.564  88.506398     1.7241      7.974   145.9604 9.9137e+01     4.3847      1.103      1.600    27.3253 0.0000e+00
      1.126      0.007     5.7066     72.798     84.579  88.532293     1.7139      7.972   130.4195 9.3781e+01     4.3860      1.105      1.602    27.3275 0.0000e+00
      1.128      0.006     5.7231     72.872     84.684  88.642795     1.6829      7.972   121.1071 9.0117e+01     4.3945      1.105      1.603    27.3149 0.0000e+00
      1.129      0.004     5.7359     72.889     84.854  88.825252     1.6405      7.971   113.4682 8.7123e+01     4.4190      1.106      1.604    27.3124 0.0000e+00
      1.129      0.002     5.7546     72.906     85.027  89.021797     1.6175      7.969   101.7277 8.4421e+01     4.4089      1.107      1.605    27.3266 0.0000e+00
      1.130      0.002     5.7684     73.014     85.092  89.111908     1.6046      7.967    86.7027 8.2339e+01     4.3754      1.108      1.607    27.3338 0.0000e+00
      1.130      0.001     5.7715     73.157     85.053  89.088308     1.5684      7.964    75.4007 8.0522e+01     4.3560      1.108      1.608    27.3292 0.0000e+00
      1.130      0.001     5.7745     73.250     85.075  89.117948     1.5127      7.959    67.9795 7.8190e+01     4.3793      1.108      1.607    27.3301 0.0000e+00
      1.130      0.001     5.7675     73.343     85.104  89.152395     1.4887      7.955    61.4168 7.5293e+01     4.4173      1.108      1.608    27.3411 0.0000e+00
      1.131      0.000     5.7785     73.509     84.888  88.932610     1.5023      7.951    55.6771 7.2121e+01     4.4394      1.109      1.608    27.3570 0.0000e+00
      1.131      0.000     5.7929     73.730     84.473  88.495022     1.5276      7.948    50.7213 6.9276e+01     4.4422      1.109      1.608    27.3698 0.0000e+00
      1.131     -0.001     5.7964     73.853     84.016  87.994028     1.5526      7.943    46.4088 6.6921e+01     4.4171      1.109      1.608    27.3694 0.0000e+00
      1.130     -0.001     5.8021     73.745     83.660  87.579652     1.5560      7.938    42.4245 6.4244e+01     4.4092      1.108      1.608    27.3692 0.0000e+00
      1.130     -0.001     5.8132     73.455     83.431  87.299203     1.5432      7.933    38.5977 6.1064e+01     4.4148      1.108      1.607    27.3781 0.0000e+00
      1.130     -0.001     5.8370     73.140     83.200  87.018847     1.5396      7.926    34.8994 5.7899e+01     4.5185      1.108      1.607    27.3779 0.0000e+00
      1.129     -0.001     5.8529     72.863     82.980  86.732697     1.5454      7.918    31.4368 5.4897e+01     4.7408      1.107      1.605    27.3659 0.0000e+00
      1.128     -0.001     5.8456     72.610     82.832  86.509286     1.5544      7.908    28.2219 5.2113e+01     4.8822      1.106      1.605    27.3355 0.0000e+00
      1.128      0.000     5.8189     72.359     82.742  86.351740     1.5656      7.897    24.6793 4.9793e+01     4.9306      1.106      1.605    27.3080 0.0000e+00
      1.129      0.000     5.7943     72.082     82.670  86.226250     1.5817      7.885    19.8357 4.8115e+01     5.1202      1.107      1.606    27.2956 0.0000e+00
      1.129      0.001     5.7774     71.792     82.738  86.263300     1.6075      7.872    13.4531 4.7291e+01     5.4672      1.107      1.605    27.2577 0.0000e+00
      1.129      0.002     5.7622     71.536     82.965  86.481795     1.6203      7.859     6.7023 4.7672e+01     5.6418      1.106      1.605    27.2108 0.0000e+00
      1.130      0.003     5.7479     71.339     83.121  86.643101     1.6107      7.846    -0.3558 5.0031e+01     5.6253      1.108      1.607    27.1722 0.0000e+00
      1.131      0.003     5.7287     71.187     83.211  86.751546     1.5995      7.833    -5.4643 5.4266e+01     5.9517      1.109      1.608    27.1407 0.0000e+00
      1.132      0.004     5.7056     71.080     83.329  86.903021     1.6020      7.821    -4.9019 5.8544e+01     6.6505      1.110      1.610    27.1207 0.0000e+00
      1.133      0.004     5.6858     71.061     83.341  86.948927     1.6154      7.811    -1.2138 6.2146e+01     7.0377      1.111      1.611    27.1091 0.0000e+00
      1.134      0.003     5.6709     71.179     83.124  86.734507     1.6200      7.802     3.2493 6.6547e+01     7.0124      1.112      1.613    27.1093 0.0000e+00
      1.135      0.002     5.6581     71.404     82.834  86.408330     1.6246      7.796     8.6228 7.3319e+01     6.7205      1.113      1.614    27.1173 0.0000e+00
      1.135      0.000     5.6466     71.654     82.660  86.183610     1.6380      7.791    13.5102 8.1979e+01     6.2408      1.113      1.615    27.1367 0.0000e+00
      1.135     -0.002     5.6398     71.862     82.689  86.178723     1.6475      7.784    17.6883 9.1200e+01     5.9947      1.113      1.615    27.1627 0.0000e+00
      1.135     -0.004     5.6493     71.982     82.869  86.349181     1.6570      7.777    21.5404 1.0163e+02     5.9997      1.113      1.614    27.1746 0.0000e+00
      1.134     -0.006     5.6721     72.002     82.925  86.401082     1.6618      7.772    24.8099 1.1505e+02     5.9932      1.112      1.612    27.1567 0.0000e+00
      1.131     -0.008     5.6969     71.941     82.765  86.234121     1.6638      7.765    27.7938 1.3143e+02     5.8820      1.109      1.609    27.1214 0.0000e+00
      1.128     -0.009     5.7172     71.804     82.585  86.046829     1.6727      7.756    31.0322 1.4814e+02     5.7145      1.106      1.604    27.0992 0.0000e+00
      1.125     -0.009     5.7280     71.609     82.533  85.980043     1.6695      7.750    34.5395 1.6384e+02     5.6075      1.104      1.601    27.0925 0.0000e+00
      1.123     -0.009     5.7290     71.388     82.627  86.062280     1.6585      7.745    38.1938 1.8160e+02     5.5452      1.102      1.597    27.0862 0.0000e+00
      1.122     -0.009     5.7240     71.163     82.836  86.278302     1.6472      7.740    41.6613 2.0570e+02     5.3025      1.100      1.595    27.0897 0.0000e+00
      1.119     -0.009     5.7125     70.993     83.022  86.494177     1.6250      7.736    44.2854 2.3575e+02     4.8939      1.098      1.592    27.0942 0.0000e+00
      1.117     -0.010     5.6963     70.936     83.127  86.638236     1.6074      7.732    46.2609 2.6442e+02     4.7037      1.095      1.588    27.0821 0.0000e+00
      1.115     -0.013     5.6808     70.968     83.203  86.748767     1.6000      7.728    48.4247 2.8794e+02     4.7107      1.093      1.585    27.0684 0.0000e+00
      1.113     -0.017     5.6612     71.043     83.244  86.813520     1.5857      7.723    50.8305 3.0841e+02     4.6366      1.091      1.583    27.0656 0.0000e+00
      1.109     -0.023     5.6431     71.162     83.260  86.849063     1.5670      7.723    53.1510 3.2614e+02     4.4908      1.089      1.579    27.0812 0.0000e+00
      1.103     -0.032     5.6373     71.311     83.256  86.860688     1.5570      7.723    55.1444 3.4382e+02     4.4167      1.083      1.570    27.1080 0.0000e+00
      1.094     -0.042     5.6406     71.465     83.276  86.890523     1.5483      7.722    57.0363 3.6484e+02     4.4241      1.073      1.556    27.1266 0.0000e+00
      1.082     -0.055     5.6440     71.619     83.396  87.019102     1.5786      7.722    59.2486 3.9096e+02     4.8531      1.062      1.540    27.1370 0.0000e+00
      1.068     -0.072     5.6528     71.733     83.627  87.271048     1.6489      7.721    62.0183 4.1750e+02     5.7444      1.049      1.520    27.1490 0.0000e+00
      1.051     -0.089     5.6653     71.803     84.025  87.711785     1.6904      7.720    64.7129 4.4457e+02     6.2852      1.032      1.497    27.1606 0.0000e+00
      1.027     -0.104     5.6755     71.900     84.649  88.406525     1.6970      7.718    66.5334 4.8161e+02     6.3012      1.011      1.465    27.1652 0.0000e+00
      0.995     -0.112     5.6901     72.039     85.386  89.250093     1.6457      7.718    68.1980 5.3089e+02     5.8366      0.980      1.420    27.1638 0.0000e+00
      0.956     -0.114     5.6995     72.182     85.849  89.837110     1.5371      7.718    70.2120 5.8462e+02     5.0399      0.937      1.359    27.1689 0.0000e+00
      0.918     -0.113     5.6998     72.382     85.817  89.909361     1.4737      7.719    72.4727 6.3048e+02     4.6265      0.896      1.299    27.1842 0.0000e+00
      0.890     -0.111     5.7045     72.707     85.588  89.742378     1.4705      7.719    74.9677 6.6536e+02     4.5958      0.869      1.260    27.2062 0.0000e+00
      0.872     -0.111     5.7148     73.105     85.482  89.662081     1.4312      7.722    76.9769 6.9754e+02     4.5323      0.856      1.241    27.2478 0.0000e+00
      0.854     -0.111     5.7164     73.476     85.572  89.765071     1.3563      7.726    78.1815 7.4649e+02     4.4396      0.843      1.223    27.3154 0.0000e+00
      0.826     -0.115     5.7215     73.726     85.817  90.033940     1.3221      7.728    79.2940 8.0692e+02     4.4314      0.815      1.181    27.3868 0.0000e+00
      0.789     -0.124     5.7459     73.831     86.112  90.369748     1.3180      7.729    80.6194 8.3822e+02     4.4338      0.774      1.123    27.4300 0.0000e+00
      0.752     -0.133     5.7782     73.841     86.337  90.646288     1.2813      7.730    82.0744 9.4645e+02     4.3314      0.736      1.068    27.4422 0.0000e+00
      0.718     -0.135     5.8112     73.846     86.475  90.834338     1.2202      7.732    83.4647 1.0973e+03     4.1842      0.705      1.023    27.4430 0.0000e+00
      0.683     -0.125     5.8309     73.917     86.587  90.990367     1.1949      7.737    84.6952 1.0928e+03     4.1229      0.671      0.973    27.4459 0.0000e+00
      0.645     -0.102     5.8362     74.060     86.632  91.070461     1.2003      7.741    86.1115 1.0611e+03     4.1364      0.632      0.916    27.4615 0.0000e+00
      0.611     -0.069     5.8315     74.271     86.577  91.039791     1.2019      7.746    87.8564 1.0693e+03     4.2105      0.595      0.862    27.4886 0.0000e+00
      0.591     -0.033     5.8262     74.572     86.526  91.001081     1.2144      7.752    89.5307 1.0234e+03     5.1555      0.572      0.830    27.5155 0.0000e+00
      0.589      0.001     5.8303     74.932     86.503  90.983954     1.2518      7.757    90.6099 1.0186e+03     6.9210      0.570      0.827    27.5368 0.0000e+00
      0.605      0.023     5.8402     75.262     86.478  90.959888     1.2798      7.761    91.3545 1.0806e+03     7.8615      0.589      0.853    27.5566 0.0000e+00
      0.633      0.028     5.8534     75.533     86.484  90.964442     1.2781      7.763    92.3390 1.0396e+03     7.8851      0.622      0.903    27.5735 0.0000e+00
      0.657      0.013     5.8766     75.747     86.558  91.039012     1.2809      7.765    93.7367 9.1085e+02     7.6842      0.652      0.945    27.5811 0.0000e+00
      0.663     -0.020     5.9093     75.898     86.673  91.162087     1.2973      7.767    95.3485 8.5256e+02     7.3455      0.657      0.952    27.5846 0.0000e+00
      0.651     -0.060     5.9347     75.979     86.743  91.244429     1.3017      7.769    96.6847 8.7181e+02     7.1724      0.643      0.932    27.5861 0.0000e+00
      0.624     -0.093     5.9562     75.978     86.756  91.271609     1.3005      7.771    97.5889 9.7831e+02     7.1614      0.619      0.898    27.5843 0.0000e+00
      0.582     -0.109     5.9736     75.882     86.773  91.299990     1.2663      7.774    98.3655 1.1674e+03     6.5298      0.574      0.832    27.5809 0.0000e+00
      0.533     -0.107     5.9858     75.751     86.796  91.333262     1.1883      7.776    99.4496 1.2863e+03     5.2409      0.517      0.749    27.5803 0.0000e+00
      0.497     -0.088     5.9916     75.697     86.810  91.355980     1.1393      7.779   100.7157 1.3080e+03     4.4895      0.481      0.696    27.5874 0.0000e+00
      0.480     -0.061     5.9916     75.770     86.830  91.383935     1.1314      7.781   101.8871 1.3531e+03     4.3791      0.467      0.677    27.5965 0.0000e+00
      0.475     -0.032     5.9821     75.884     86.855  91.416940     1.1516      7.783   103.1151 1.4103e+03     4.3498      0.463      0.671    27.6023 0.0000e+00
      0.480     -0.009     5.9666     75.942     86.870  91.437116     1.1830      7.785   104.1205 1.3151e+03     4.3745      0.468      0.679    27.6071 0.0000e+00
      0.488     -0.001     5.9603     76.018     86.866  91.437137     1.1955      7.787   104.5786 1.1136e+03     4.4385      0.480      0.697    27.6115 0.0000e+00
      0.494     -0.007     5.9679     76.176     86.846  91.417202     1.2022      7.789   104.8683 1.0688e+03     4.4747      0.487      0.706    27.6156 0.0000e+00
      0.495     -0.024     5.9831     76.341     86.816  91.386838     1.2310      7.791   105.3860 1.1055e+03     4.4373      0.488      0.707    27.6194 0.0000e+00
      0.489     -0.047     5.9818     76.456     86.816  91.387947     1.2766      7.793   106.1059 1.1741e+03     4.3622      0.484      0.702    27.6224 0.0000e+00
      0.473     -0.070     5.9846     76.522     86.852  91.430607     1.2961      7.795   106.6037 1.2306e+03     4.3173      0.467      0.678    27.6248 0.0000e+00
      0.448     -0.085     6.0021     76.558     86.871  91.457549     1.2834      7.798   106.6729 1.0904e+03     4.3042      0.441      0.640    27.6256 0.0000e+00
      0.416     -0.086     6.0153     76.575     86.867  91.459372     1.2234      7.800   106.8568 1.0139e+03     4.2732      0.411      0.596    27.6254 0.0000e+00
      0.381     -0.073     6.0247     76.597     86.859  91.452663     1.1282      7.801   107.4504 1.1413e+03     4.2151      0.371      0.538    27.6260 0.0000e+00
      0.354     -0.049     6.0283     76.649     86.846  91.440013     1.0730      7.803   108.4299 1.2489e+03     4.1826      0.340      0.492    27.6284 0.0000e+00
      0.344     -0.019     6.0312     76.708     86.840  91.433594     1.0635      7.807   109.8368 1.2675e+03     4.1865      0.330      0.479    27.6333 0.0000e+00
      0.352      0.012     6.0310     76.703     86.845  91.438635     1.0971      7.811   111.0393 1.3397e+03     4.1944      0.342      0.496    27.6377 0.0000e+00
      0.370      0.043     6.0314     76.565     86.845  91.437384     1.1630      7.813   111.6986 1.3905e+03     4.1759      0.364      0.527    27.6381 0.0000e+00
      0.387      0.075     6.0365     76.337     86.828  91.418460     1.1941      7.815   112.4732 1.2896e+03     4.1339      0.381      0.552    27.6378 0.0000e+00
      0.402      0.106     6.0428     76.145     86.814  91.400580     1.1813      7.817   113.4360 1.1916e+03     4.1306      0.395      0.572    27.6386 0.0000e+00
      0.421      0.130     6.0459     76.029     86.830  91.411940     1.1752      7.819   114.3055 1.0683e+03     4.1706      0.408      0.592    27.6379 0.0000e+00
      0.455      0.141     6.0341     75.961     86.852  91.428628     1.1869      7.819   115.1568 9.5544e+02     4.4461      0.434      0.629    27.6370 0.0000e+00
      0.514      0.140     6.0101     75.913     86.840  91.411584     1.1985      7.821   115.8128 9.5343e+02     5.0026      0.500      0.726    27.6373 0.0000e+00
      0.578      0.130     5.9950     75.846     86.829  91.396612     1.2075      7.824   116.9893 9.8683e+02     5.3308      0.580      0.841    27.6362 0.0000e+00
      0.616      0.113     5.9877     75.762     86.810  91.374771     1.2123      7.826   118.9712 1.1462e+03     5.3402      0.615      0.891    27.6321 0.0000e+00
      0.626      0.089     5.9826     75.708     86.778  91.338266     1.2388      7.827   120.4171 1.2750e+03     5.2531      0.617      0.893    27.6274 0.0000e+00
      0.628      0.061     5.9817     75.705     86.782  91.336729     1.2874      7.828   121.1355 1.1203e+03     5.1315      0.613      0.889    27.6247 0.0000e+00
      0.634      0.039     5.9760     75.736     86.806  91.356173     1.3008      7.830   121.6345 9.1940e+02     5.0988      0.617      0.894    27.6236 0.0000e+00
      0.649      0.026     5.9674     75.763     86.833  91.382601     1.2928      7.831   122.0617 8.8187e+02     5.0978      0.637      0.924    27.6231 0.0000e+00
      0.662      0.020     5.9628     75.766     86.849  91.401926     1.2897      7.832   122.6012 9.1295e+02     4.9826      0.654      0.948    27.6221 0.0000e+00
      0.667      0.014     5.9637     75.781     86.842  91.399072     1.2793      7.832   123.1678 8.8700e+02     4.7988      0.655      0.950    27.6177 0.0000e+00
      0.665      0.008     5.9676     75.817     86.848  91.411695     1.2756      7.834   123.7504 9.1182e+02     4.6858      0.652      0.946    27.6129 0.0000e+00
      0.661      0.004     5.9714     75.852     86.858  91.427388     1.2702      7.836   124.3969 9.9362e+02     4.6414      0.649      0.941    27.6120 0.0000e+00
      0.657      0.004     5.9691     75.906     86.828  91.398061     1.2390      7.837   124.9613 9.5532e+02     4.6036      0.644      0.934    27.6138 0.0000e+00
      0.656      0.009     5.9696     75.998     86.807  91.375035     1.1981      7.838   125.4133 9.0242e+02     4.5702      0.642      0.931    27.6177 0.0000e+00
      0.661      0.013     5.9741     76.111     86.835  91.403321     1.1841      7.838   125.8168 9.0223e+02     4.5792      0.647      0.938    27.6216 0.0000e+00
      0.670      0.013     5.9748     76.194     86.855  91.422135     1.1936      7.837   126.2260 9.2468e+02     4.6442      0.656      0.952    27.6243 0.0000e+00
      0.680      0.006     5.9786     76.203     86.845  91.411759     1.2053      7.836   126.6611 9.6186e+02     4.7409      0.667      0.969    27.6252 0.0000e+00
      0.685     -0.011     5.9863     76.149     86.836  91.405040     1.2091      7.836   127.0341 9.5648e+02     4.8266      0.675      0.980    27.6246 0.0000e+00
      0.683     -0.038     5.9968     76.085     86.833  91.404495     1.2064      7.834   126.8645 9.9998e+02     4.8604      0.673      0.976    27.6236 0.0000e+00
      0.673     -0.075     6.0056     76.061     86.828  91.405176     1.2053      7.832   125.9008 9.9386e+02     4.8421      0.664      0.962    27.6222 0.0000e+00
      0.651     -0.127     6.0053     76.064     86.829  91.413285     1.1711      7.831   124.9329 8.3731e+02     4.5716      0.643      0.933    27.6228 0.0000e+00
      0.619     -0.194     5.9995     76.050     86.844  91.438961     1.1090      7.832   124.5402 7.7358e+02     4.1174      0.608      0.882    27.6240 0.0000e+00
      0.574     -0.270     5.9922     76.052     86.849  91.461311     1.0871      7.833   125.3681 7.2554e+02     3.9271      0.570      0.827    27.6254 0.0000e+00
      0.505     -0.340     5.9901     76.131     86.858  91.492803     1.0979      7.836   127.5432 4.9847e+02     3.9441      0.509      0.738    27.6288 0.0000e+00
      0.400     -0.391     5.9932     76.310     86.903  91.565433     1.1400      7.839   128.9854 2.7600e+02     3.9482      0.404      0.585    27.6328 0.0000e+00
      0.263     -0.422     5.9891     76.529     86.947  91.640085     1.2220      7.841   127.2333 2.5448e+02     3.9426      0.263      0.382    27.6381 0.0000e+00
      0.115     -0.438     5.9867     76.655     86.971  91.696021     1.2648      7.843   126.2329 6.5430e+02     3.9091      0.102      0.149    27.6471 0.0000e+00
     -0.005     -0.438     5.9907     76.582     86.975  91.733121     1.2664      7.846   130.0542 1.0588e+03     3.9193     -0.025     -0.035    27.6603 0.0000e+00
     -0.088     -0.417     6.0039     76.206     86.989  91.770795     1.3665      7.848   131.2782 1.1832e+03     4.3396     -0.084     -0.121    27.6752 0.0000e+00
     -0.172     -0.372     6.0254     75.566     87.050  91.833644     2.5656      7.851   127.7815 1.2272e+03     6.6001     -0.154     -0.223    27.6921 0.0000e+00
     -0.281     -0.316     6.0342     74.934     87.099  91.857163     4.7786      7.856   126.9228 8.0839e+02    10.1743     -0.276     -0.400    27.7088 0.0000e+00
     -0.391     -0.259     6.0313     74.537     87.081  91.800764     5.9930      7.859   129.4143 3.4635e+02    12.0631     -0.399     -0.578    27.7295 0.0000e+00
     -0.462     -0.205     5.9998     74.339     87.039  91.723942     6.1039      7.861   131.8358 2.5653e+02    12.2551     -0.473     -0.685    27.7481 0.0000e+00
     -0.487     -0.178     5.9397     74.267     87.021  91.691295     6.1110      7.861   132.7121 2.2273e+02    12.2568     -0.482     -0.700    27.7473 0.0000e+00
     -0.491 -9.990e-29     5.8832 -9.990e-29 -9.990e-29 -9.990e-29 -9.990e-29 -9.990e-29 -9.990e-29 1.8851e+02 -9.990e-29     -0.480     -0.697    27.7267 0.0000e+00
     -0.491 -9.990e-29     5.8582 -9.990e-29 -9.990e-29 -9.990e-29 -9.990e-29 -9.990e-29 -9.990e-29 1.5425e+02 -9.990e-29     -0.482     -0.700    27.7025 0.0000e+00
     -0.491 -9.990e-29     5.8495 -9.990e-29 -9.990e-29 -9.990e-29 -9.990e-29 -9.990e-29 -9.990e-29 1.3775e+02 -9.990e-29     -0.481     -0.697    27.6809 0.0000e+00
     -0.491 -9.990e-29     5.8395 -9.990e-29 -9.990e-29 -9.990e-29 -9.990e-29 -9.990e-29 -9.990e-29 1.3521e+02 -9.990e-29     -0.482     -0.699    27.6691 0.0000e+00
