* Sea-Bird SBE19plus  Data File:
* FileName = C:\R\Reservoirs\Data\DataNotYetUploadedToEDI\Raw_CTD\RawDownloads\070722_ccr50_SBE19plus01907809_0002.hex
* Software version 2.8.0.119
* Temperature SN = 7809
* Conductivity SN = 7809
* System UpLoad Time = Jul 07 2022 15:45:05
* <ApplicationData>
* <Seaterm232>
* <SoftwareVersion>2.8.0.119</SoftwareVersion>
* <BuildDate>07-Nov-2018</BuildDate>
* </Seaterm232>
* </ApplicationData>
* <InstrumentState>
* <HardwareData DeviceType='SBE19plus' SerialNumber='01907809'>
*
*    <Manufacturer>Sea-Bird Electronics, Inc.</Manufacturer>
*
*    <FirmwareVersion>3.1.8</FirmwareVersion>
*
*    <FirmwareDate>Mar  9 2016 16:22:29</FirmwareDate>
*
*    <CommandSetVersion>1.4</CommandSetVersion>
*
*    <PCBAssembly PCBSerialNum='120721' AssemblyNum='41054J'/>
*
*    <PCBAssembly PCBSerialNum='120715' AssemblyNum='41967A'/>
*
*    <PCBAssembly PCBSerialNum='116699' AssemblyNum='41606'/>
*
*    <PCBAssembly PCBSerialNum='120719' AssemblyNum='41059D'/>
*
*    <MfgDate>28-Apr-2017</MfgDate>
*
*    <InternalSensors>
*
*       <Sensor id='Main Temperature'>
*
*          <type>temperature0</type>
*
*          <SerialNumber>01907809</SerialNumber>
*
*       </Sensor>
*
*       <Sensor id='Main Conductivity'>
*
*          <type>conductivity-0</type>
*
*          <SerialNumber>01907809</SerialNumber>
*
*       </Sensor>
*
*       <Sensor id='Main Pressure'>
*
*          <type>strain-0</type>
*
*          <SerialNumber>10586018</SerialNumber>
*
*       </Sensor>
*
*    </InternalSensors>
*
*    <ExternalSensors>
*
*       <Sensor id='volt 0'>
*
*          <type>pH</type>
*
*          <SerialNumber>27-0363</SerialNumber>
*
*       </Sensor>
*
*       <Sensor id='volt 1'>
*
*          <type>ORP</type>
*
*          <SerialNumber>27-0363</SerialNumber>
*
*       </Sensor>
*
*       <Sensor id='volt 2'>
*
*          <type>OXY</type>
*
*          <SerialNumber>43-0434</SerialNumber>
*
*       </Sensor>
*
*       <Sensor id='volt 3'>
*
*          <type>PAR</type>
*
*          <SerialNumber>1122</SerialNumber>
*
*       </Sensor>
*
*       <Sensor id='volt 4'>
*
*          <type>ECO AFL/FL</type>
*
*          <SerialNumber>FLNTURT-2496</SerialNumber>
*
*       </Sensor>
*
*       <Sensor id='volt 5'>
*
*          <type>ECO-NTU</type>
*
*          <SerialNumber>FLNTURT-2496</SerialNumber>
*
*       </Sensor>
*
*       <Sensor id='serial'>
*
*          <type>not assigned</type>
*
*          <SerialNumber>not assigned</SerialNumber>
*
*       </Sensor>
*
*    </ExternalSensors>
*
* </HardwareData>
* <StatusData DeviceType='SBE19plus' SerialNumber='01907809'>
*
*    <DateTime>2022-07-07T12:43:51</DateTime>
*
*    <LoggingState>not logging</LoggingState>
*
*    <EventSummary numEvents='0'/>
*
*    <Power>
*
*       <vMain>12.3</vMain>
*
*       <vLith>8.6</vLith>
*
*       <iMain>63.1</iMain>
*
*       <iPump>43.8</iPump>
*
*       <iExt01>19.5</iExt01>
*
*       <iExt2345>37.5</iExt2345>
*
*    </Power>
*
*    <MemorySummary>
*
*       <Bytes>154215</Bytes>
*
*       <Samples>6705</Samples>
*
*       <SamplesFree>2854083</SamplesFree>
*
*       <SampleLength>23</SampleLength>
*
*       <Profiles>7</Profiles>
*
*    </MemorySummary>
*
* </StatusData>
* <ConfigurationData DeviceType='SBE19plus' SerialNumber='01907809'>
*
*    <ProfileMode>
*
*       <ScansToAverage>1</ScansToAverage>
*
*       <MinimumCondFreq>5</MinimumCondFreq>
*
*       <PumpDelay>40</PumpDelay>
*
*       <AutoRun>no</AutoRun>
*
*       <IgnoreSwitch>no</IgnoreSwitch>
*
*    </ProfileMode>
*
*    <Battery>
*
*       <Type>alkaline</Type>
*
*       <CutOff>7.5</CutOff>
*
*    </Battery>
*
*    <DataChannels>
*
*       <ExtVolt0>yes</ExtVolt0>
*
*       <ExtVolt1>yes</ExtVolt1>
*
*       <ExtVolt2>yes</ExtVolt2>
*
*       <ExtVolt3>yes</ExtVolt3>
*
*       <ExtVolt4>yes</ExtVolt4>
*
*       <ExtVolt5>yes</ExtVolt5>
*
*       <SBE38>no</SBE38>
*
*       <WETLABS>no</WETLABS>
*
*       <OPTODE>no</OPTODE>
*
*       <SBE63>no</SBE63>
*
*       <SeaFET>no</SeaFET>
*
*       <GTD>no</GTD>
*
*    </DataChannels>
*
*    <EchoCharacters>yes</EchoCharacters>
*
*    <OutputExecutedTag>yes</OutputExecutedTag>
*
*    <OutputFormat>raw HEX</OutputFormat>
*
* </ConfigurationData>
* <CalibrationCoefficients DeviceType='SBE19plus' SerialNumber='01907809'>
*
*    <Calibration format='TEMP1' id='Main Temperature'>
*
*       <SerialNum>01907809</SerialNum>
*
*       <CalDate>25-Sep-21</CalDate>
*
*       <TA0>1.232513e-03</TA0>
*
*       <TA1>2.763223e-04</TA1>
*
*       <TA2>-9.501887e-07</TA2>
*
*       <TA3>1.718014e-07</TA3>
*
*       <TOFFSET>0.000000e+00</TOFFSET>
*
*    </Calibration>
*
*    <Calibration format='WBCOND0' id='Main Conductivity'>
*
*       <SerialNum>01907809</SerialNum>
*
*       <CalDate>25-Sep-21</CalDate>
*
*       <G>-1.004440e+00</G>
*
*       <H>1.264604e-01</H>
*
*       <I>-7.854363e-05</I>
*
*       <J>2.210938e-05</J>
*
*       <CPCOR>-9.570000e-08</CPCOR>
*
*       <CTCOR>3.250000e-06</CTCOR>
*
*       <CSLOPE>1.000000e+00</CSLOPE>
*
*    </Calibration>
*
*    <Calibration format='STRAIN0' id='Main Pressure'>
*
*       <SerialNum>10586018</SerialNum>
*
*       <CalDate>10-Sep-21</CalDate>
*
*       <PA0>4.789196e-02</PA0>
*
*       <PA1>4.853655e-04</PA1>
*
*       <PA2>-3.689276e-12</PA2>
*
*       <PTCA0>5.254946e+05</PTCA0>
*
*       <PTCA1>1.325193e+01</PTCA1>
*
*       <PTCA2>-3.889275e-01</PTCA2>
*
*       <PTCB0>2.516687e+01</PTCB0>
*
*       <PTCB1>3.750000e-04</PTCB1>
*
*       <PTCB2>0.000000e+00</PTCB2>
*
*       <PTEMPA0>-5.401644e+01</PTEMPA0>
*
*       <PTEMPA1>5.390655e+01</PTEMPA1>
*
*       <PTEMPA2>-2.194112e-02</PTEMPA2>
*
*       <POFFSET>-1.280000e-01</POFFSET>
*
*       <PRANGE>1.600000e+02</PRANGE>
*
*    </Calibration>
*
*    <Calibration format='VOLT0' id='Volt 0'>
*
*       <OFFSET>-4.920000e-02</OFFSET>
*
*       <SLOPE>1.248122e+00</SLOPE>
*
*    </Calibration>
*
*    <Calibration format='VOLT0' id='Volt 1'>
*
*       <OFFSET>-4.784000e-02</OFFSET>
*
*       <SLOPE>1.248871e+00</SLOPE>
*
*    </Calibration>
*
*    <Calibration format='VOLT0' id='Volt 2'>
*
*       <OFFSET>-4.864632e-02</OFFSET>
*
*       <SLOPE>1.248714e+00</SLOPE>
*
*    </Calibration>
*
*    <Calibration format='VOLT0' id='Volt 3'>
*
*       <OFFSET>-4.743790e-02</OFFSET>
*
*       <SLOPE>1.248571e+00</SLOPE>
*
*    </Calibration>
*
*    <Calibration format='VOLT0' id='Volt 4'>
*
*       <OFFSET>-4.671263e-02</OFFSET>
*
*       <SLOPE>1.248951e+00</SLOPE>
*
*    </Calibration>
*
*    <Calibration format='VOLT0' id='Volt 5'>
*
*       <OFFSET>-4.871053e-02</OFFSET>
*
*       <SLOPE>1.249136e+00</SLOPE>
*
*    </Calibration>
*
*    <Calibration format='FREQ0' id='external frequency channel'>
*
*       <EXTFREQSF>1.000014e+00</EXTFREQSF>
*
*    </Calibration>
*
* </CalibrationCoefficients>
* <EventCounters DeviceType='SBE19plus' SerialNumber='01907809'>
*
*    <EventSummary numEvents='0'/>
*
* </EventCounters></InstrumentState>
* <Headers>
*
* cast   2 07 Jul 2022 07:46:11 samples 1734 to 2306, avg = 1, stop = mag switch
*
# nquan = 15
# nvalues = 573                         
# units = specified
# name 0 = depFM: Depth [fresh water, m]
# name 1 = dz/dtM: Descent Rate [m/s]
# name 2 = sbeox0Mg/L: Oxygen, SBE 43 [mg/l]
# name 3 = sbeox0PS: Oxygen, SBE 43 [% saturation]
# name 4 = specc: Specific Conductance [uS/cm]
# name 5 = c0uS/cm: Conductivity [uS/cm]
# name 6 = flECO-AFL: Fluorescence, WET Labs ECO-AFL/FL [mg/m^3]
# name 7 = ph: pH
# name 8 = orp: Oxidation Reduction Potential [mV]
# name 9 = par/sat/log: PAR/Logarithmic, Satlantic
# name 10 = turbWETntu0: Turbidity, WET Labs ECO [NTU]
# name 11 = prdM: Pressure, Strain Gauge [db]
# name 12 = prdE: Pressure, Strain Gauge [psi]
# name 13 = tv290C: Temperature [ITS-90, deg C]
# name 14 = flag:  0.000e+00
# span 0 =     -0.496,      5.304       
# span 1 =     -0.438,      0.320       
# span 2 =     4.5912,     7.4053       
# span 3 =     58.092,     91.283       
# span 4 =      6.570,     90.462       
# span 5 =   6.884497,  94.123284       
# span 6 =    -2.0364,   227.4850       
# span 7 =      6.994,      8.146       
# span 8 =   124.2207,   210.1243       
# span 9 = 2.3689e+01, 2.1556e+03       
# span 10 =    -0.3560,    23.3781      
# span 11 =     -0.489,      5.204      
# span 12 =     -0.709,      7.547      
# span 13 =    21.9153,    27.6105      
# span 14 = 0.0000e+00, 0.0000e+00      
# interval = seconds: 0.25
# start_time = Jul 07 2022 07:46:11 [Instrument's time stamp, header]
# bad_flag = -9.990e-29
# <Sensors count="9" >
#   <sensor Channel="1" >
#     <!-- Count, Temperature -->
#     <TemperatureSensor SensorID="58" >
#       <SerialNumber>7809</SerialNumber>
#       <CalibrationDate>25-Sep-21</CalibrationDate>
#       <A0>1.23251324e-003</A0>
#       <A1>2.76322262e-004</A1>
#       <A2>-9.50188734e-007</A2>
#       <A3>1.71801404e-007</A3>
#       <Slope>1.00000000</Slope>
#       <Offset>0.0000</Offset>
#     </TemperatureSensor>
#   </sensor>
#   <sensor Channel="2" >
#     <!-- Frequency 0, Conductivity -->
#     <ConductivitySensor SensorID="3" >
#       <SerialNumber>7809</SerialNumber>
#       <CalibrationDate>25-Sep-21</CalibrationDate>
#       <UseG_J>1</UseG_J>
#       <!-- Cell const and series R are applicable only for wide range sensors. -->
#       <SeriesR>0.0000</SeriesR>
#       <CellConst>2000.0000</CellConst>
#       <ConductivityType>0</ConductivityType>
#       <Coefficients equation="0" >
#         <A>0.00000000e+000</A>
#         <B>0.00000000e+000</B>
#         <C>0.00000000e+000</C>
#         <D>0.00000000e+000</D>
#         <M>0.0</M>
#         <CPcor>-9.57000000e-008</CPcor>
#       </Coefficients>
#       <Coefficients equation="1" >
#         <G>-1.00443970e+000</G>
#         <H>1.26460406e-001</H>
#         <I>-7.85436262e-005</I>
#         <J>2.21093811e-005</J>
#         <CPcor>-9.57000000e-008</CPcor>
#         <CTcor>3.2500e-006</CTcor>
#         <!-- WBOTC not applicable unless ConductivityType = 1. -->
#         <WBOTC>0.00000000e+000</WBOTC>
#       </Coefficients>
#       <Slope>1.00000000</Slope>
#       <Offset>0.00000</Offset>
#     </ConductivitySensor>
#   </sensor>
#   <sensor Channel="3" >
#     <!-- Count, Pressure, Strain Gauge -->
#     <PressureSensor SensorID="46" >
#       <SerialNumber>7809</SerialNumber>
#       <CalibrationDate>10-Sep-21</CalibrationDate>
#       <PA0>4.78919585e-002</PA0>
#       <PA1>4.85365526e-004</PA1>
#       <PA2>-3.68927597e-012</PA2>
#       <PTEMPA0>-5.40164371e+001</PTEMPA0>
#       <PTEMPA1>5.39065456e+001</PTEMPA1>
#       <PTEMPA2>-2.19411190e-002</PTEMPA2>
#       <PTCA0>5.25494622e+005</PTCA0>
#       <PTCA1>1.32519328e+001</PTCA1>
#       <PTCA2>-3.88927502e-001</PTCA2>
#       <PTCB0>2.51668750e+001</PTCB0>
#       <PTCB1>3.75000000e-004</PTCB1>
#       <PTCB2>0.00000000e+000</PTCB2>
#       <Offset>0.000000</Offset>
#     </PressureSensor>
#   </sensor>
#   <sensor Channel="4" >
#     <!-- A/D voltage 0, Oxygen, SBE 43 -->
#     <OxygenSensor SensorID="38" >
#       <SerialNumber>0434</SerialNumber>
#       <CalibrationDate>25-Sep-21</CalibrationDate>
#       <Use2007Equation>1</Use2007Equation>
#       <CalibrationCoefficients equation="0" >
#         <!-- Coefficients for Owens-Millard equation. -->
#         <Boc>0.0000</Boc>
#         <Soc>0.0000e+000</Soc>
#         <offset>0.0000</offset>
#         <Pcor>0.00e+000</Pcor>
#         <Tcor>0.0000</Tcor>
#         <Tau>0.0</Tau>
#       </CalibrationCoefficients>
#       <CalibrationCoefficients equation="1" >
#         <!-- Coefficients for Sea-Bird equation - SBE calibration in 2007 and later. -->
#         <Soc>4.7287e-001</Soc>
#         <offset>-0.5046</offset>
#         <A>-3.6094e-003</A>
#         <B> 1.1544e-004</B>
#         <C>-1.3802e-006</C>
#         <D0> 2.5826e+000</D0>
#         <D1> 1.92634e-004</D1>
#         <D2>-4.64803e-002</D2>
#         <E> 3.6000e-002</E>
#         <Tau20> 0.7700</Tau20>
#         <H1>-3.3000e-002</H1>
#         <H2> 5.0000e+003</H2>
#         <H3> 1.4500e+003</H3>
#       </CalibrationCoefficients>
#     </OxygenSensor>
#   </sensor>
#   <sensor Channel="5" >
#     <!-- A/D voltage 1, PAR/Logarithmic, Satlantic -->
#     <PARLog_SatlanticSensor SensorID="76" >
#       <SerialNumber>1122</SerialNumber>
#       <CalibrationDate>08-Sep-2021</CalibrationDate>
#       <a0>9.6751e-001</a0>
#       <a1>8.0992e-001</a1>
#       <Im>1.3589e+000</Im>
#       <Multiplier>1.0000e+000</Multiplier>
#     </PARLog_SatlanticSensor>
#   </sensor>
#   <sensor Channel="6" >
#     <!-- A/D voltage 2, pH -->
#     <pH_Sensor SensorID="43" >
#       <SerialNumber>0363</SerialNumber>
#       <CalibrationDate>16-Sep-21</CalibrationDate>
#       <Slope>4.5144</Slope>
#       <Offset>2.4957</Offset>
#     </pH_Sensor>
#   </sensor>
#   <sensor Channel="7" >
#     <!-- A/D voltage 3, Oxidation Reduction Potential -->
#     <OxidationReductionPotentialSensor SensorID="41" >
#       <SerialNumber>0363</SerialNumber>
#       <CalibrationDate>16-Sep-21</CalibrationDate>
#       <B>2.499480</B>
#       <M>-0.496195</M>
#       <Offset>0.0</Offset>
#     </OxidationReductionPotentialSensor>
#   </sensor>
#   <sensor Channel="8" >
#     <!-- A/D voltage 4, Fluorometer, WET Labs ECO-AFL/FL -->
#     <FluoroWetlabECO_AFL_FL_Sensor SensorID="20" >
#       <SerialNumber>FLNTURT-2496</SerialNumber>
#       <CalibrationDate>02-Sep-2021</CalibrationDate>
#       <ScaleFactor>4.80000000e+001</ScaleFactor>
#       <!-- Dark output -->
#       <Vblank>0.0550</Vblank>
#     </FluoroWetlabECO_AFL_FL_Sensor>
#   </sensor>
#   <sensor Channel="9" >
#     <!-- A/D voltage 5, Turbidity Meter, WET Labs, ECO-NTU -->
#     <TurbidityMeter SensorID="67" >
#       <SerialNumber>FLNTURT-2496</SerialNumber>
#       <CalibrationDate>02-Sep-2021</CalibrationDate>
#       <ScaleFactor>197.000000</ScaleFactor>
#       <!-- Dark output -->
#       <DarkVoltage>0.070000</DarkVoltage>
#     </TurbidityMeter>
#   </sensor>
# </Sensors>
# datcnv_date = Jul 08 2022 12:26:19, 7.26.7.129 [datcnv_vars = 14]
# datcnv_in = C:\R\Reservoirs\Data\DataNotYetUploadedToEDI\Raw_CTD\RawDownloads\070722_ccr21_SBE19plus01907809_0002.hex C:\R\Reservoirs\Data\DataNotYetUploadedToEDI\Raw_CTD\RawDownloads\SBE19plusV2_7809_Old_CTD.xmlcon
# datcnv_skipover = 0
# datcnv_ox_hysteresis_correction = yes
# datcnv_ox_tau_correction = yes
# filter_date = Jul 08 2022 12:27:36, 7.26.7.129
# filter_in = C:\R\Reservoirs\Data\DataNotYetUploadedToEDI\Raw_CTD\RawDownloads\070722_ccr21_SBE19plus01907809_0002.cnv
# filter_low_pass_tc_A = 0.030
# filter_low_pass_tc_B = 0.150
# filter_low_pass_A_vars = sbeox0Mg/L prdM prdE tv290C
# filter_low_pass_B_vars = depFM dz/dtM sbeox0PS specc c0uS/cm flECO-AFL ph orp par/sat/log turbWETntu0
# alignctd_date = Jul 08 2022 12:28:19, 7.26.7.129
# alignctd_in = C:\R\Reservoirs\Data\DataNotYetUploadedToEDI\Raw_CTD\RawDownloads\070722_ccr21_SBE19plus01907809_0002.cnv
# alignctd_adv = dz/dtM 1.000, sbeox0PS 1.000, specc 1.000, c0uS/cm 1.000, flECO-AFL 1.000, ph 1.000, orp 1.000, turbWETntu0 1.000                                                                                                   
# file_type = ascii
*END*
     -0.496      0.073     6.9936     85.686     76.507  78.731110    -2.0364      7.046   130.6284 1.6542e+03    22.9255     -0.485     -0.703    25.6691 0.0000e+00
     -0.491      0.127     6.9920     85.651     86.381  89.580055    -1.6028      7.099   131.9364 2.0136e+03    23.3781     -0.487     -0.705    25.6805 0.0000e+00
     -0.463      0.187     6.9962     85.655     87.098  90.900130     3.6902      7.098   127.1074 2.1556e+03    23.1005     -0.473     -0.686    25.6637 0.0000e+00
     -0.397      0.245     6.9789     85.782     86.975  91.132311    62.1777      7.077   124.7259 1.7991e+03    20.1498     -0.397     -0.575    25.8084 0.0000e+00
     -0.307      0.293     6.9053     86.100     86.831  91.179778   169.3901      7.051   124.2207 1.1094e+03    14.7900     -0.301     -0.437    26.3597 0.0000e+00
     -0.211      0.320     6.8350     86.583     86.659  91.092836   227.4205      7.025   124.6987 9.9939e+02    11.8566     -0.208     -0.303    26.8996 0.0000e+00
     -0.113      0.319     6.7935     87.173     86.514  90.971410   227.4850      7.005   125.7729 1.5870e+03    11.2929     -0.108     -0.156    27.2182 0.0000e+00
     -0.023      0.290     6.7764     87.787     86.462  90.919763   170.1038      6.995   130.9281 1.6290e+03     8.4526     -0.019     -0.028    27.4178 0.0000e+00
      0.054      0.246     6.7915     88.288     86.467  90.913465    64.0530      6.994   136.6116 9.1134e+02     3.4419      0.060      0.087    27.5167 0.0000e+00
      0.111      0.198     6.8256     88.634     86.474  90.895241     6.1805      7.000   135.2956 3.4945e+02     0.7531      0.118      0.171    27.5641 0.0000e+00
      0.146      0.153     6.8717     88.874     86.437  90.826531     0.9202      7.008   132.6552 1.8482e+02     0.5372      0.148      0.215    27.5740 0.0000e+00
      0.168      0.113     6.9264     89.011     86.361  90.718487     0.4516      7.018   133.1656 1.4996e+02     0.6952      0.166      0.240    27.5746 0.0000e+00
      0.186      0.082     6.9676     89.026     86.337  90.669757     0.4139      7.027   134.0677 1.4198e+02     0.9552      0.181      0.262    27.5675 0.0000e+00
      0.204      0.061     6.9937     88.966     86.430  90.745970     0.4060      7.035   134.7001 1.4299e+02     1.0153      0.201      0.291    27.5503 0.0000e+00
      0.219      0.046     7.0158     88.950     86.566  90.876935     0.4061      7.042   135.3057 1.5442e+02     0.9439      0.217      0.315    27.5313 0.0000e+00
      0.229      0.035     7.0296     88.883     86.658  90.981565     0.4150      7.049   135.9688 2.0264e+02     0.8775      0.227      0.329    27.5162 0.0000e+00
      0.234      0.027     7.0319     88.237     86.705  91.057296     0.4139      7.057   136.4371 5.4606e+02     0.7937      0.231      0.335    27.5018 0.0000e+00
      0.237      0.022     7.0236     86.588     86.711  91.093218     0.4013      7.070   136.7523 8.6558e+02     0.7158      0.232      0.336    27.4890 0.0000e+00
      0.239      0.023     7.0222     84.217     86.691  91.098036     0.3882      7.088   137.0262 7.8434e+02     0.6532      0.235      0.339    27.4789 0.0000e+00
      0.243      0.032     7.0357     81.675     86.691  91.115586     0.3885      7.112   137.4262 8.1682e+02     0.6517      0.237      0.343    27.4834 0.0000e+00
      0.248      0.047     7.0013     79.232     86.680  91.114683     0.4042      7.138   137.9750 7.8871e+02     0.6981      0.241      0.350    27.5034 0.0000e+00
      0.258      0.062     6.8553     77.083     86.649  91.087128     0.4115      7.159   138.4128 7.1782e+02     0.7011      0.250      0.363    27.5224 0.0000e+00
      0.278      0.077     6.6455     75.486     86.657  91.100352     0.4104      7.175   138.8477 9.5963e+02     0.6889      0.268      0.388    27.5363 0.0000e+00
      0.308      0.086     6.4402     74.420     86.642  91.083818     0.3990      7.191   139.2754 1.0421e+03     0.7546      0.302      0.437    27.5472 0.0000e+00
      0.338      0.086     6.2446     73.702     86.582  91.014385     0.3659      7.207   139.4542 8.2651e+02     0.8815      0.335      0.485    27.5523 0.0000e+00
      0.363      0.075     6.0613     73.281     86.597  91.023838     0.3343      7.226   139.8048 6.5544e+02     0.9245      0.354      0.514    27.5533 0.0000e+00
      0.386      0.062     5.9379     73.126     86.645  91.070946     0.3250      7.247   140.7617 8.3553e+02     0.8993      0.380      0.551    27.5581 0.0000e+00
      0.401      0.055     5.8626     73.124     86.600  91.011698     0.3365      7.269   141.9897 1.0796e+03     0.9190      0.403      0.585    27.5599 0.0000e+00
      0.400      0.060     5.8049     73.071     86.490  90.879712     0.3489      7.289   142.9517 1.0252e+03     0.9577      0.393      0.570    27.5513 0.0000e+00
      0.395      0.072     5.7736     72.806     86.434  90.810335     0.3498      7.304   143.6177 8.9285e+02     0.9563      0.376      0.547    27.5486 0.0000e+00
      0.410      0.089     5.7631     72.374     86.438  90.808681     0.3468      7.315   144.1043 7.6147e+02     0.9371      0.392      0.569    27.5499 0.0000e+00
      0.447      0.112     5.7709     72.033     86.494  90.859697     0.3382      7.328   144.5334 6.0947e+02     0.9302      0.438      0.634    27.5423 0.0000e+00
      0.492      0.141     5.7738     72.018     86.558  90.918488     0.3295      7.344   146.3959 5.2524e+02     0.9070      0.486      0.705    27.5287 0.0000e+00
      0.532      0.167     5.7522     72.359     86.533  90.883665     0.3327      7.362   149.4169 5.2018e+02     0.8955      0.524      0.759    27.5236 0.0000e+00
      0.569      0.179     5.7094     72.990     86.484  90.820139     0.3351      7.377   150.9464 6.2858e+02     0.9275      0.556      0.806    27.5237 0.0000e+00
      0.614      0.175     5.6742     73.721     86.470  90.786218     0.3332      7.389   152.2412 8.4908e+02     0.9188      0.593      0.860    27.5164 0.0000e+00
      0.674      0.160     5.6754     74.220     86.440  90.727823     0.3359      7.398   154.4030 1.0592e+03     0.8925      0.661      0.959    27.5117 0.0000e+00
      0.733      0.137     5.7037     74.260     86.425  90.686298     0.3428      7.407   155.4030 1.1346e+03     0.9515      0.732      1.061    27.5079 0.0000e+00
      0.768      0.106     5.7578     73.810     86.484  90.729176     0.3490      7.415   155.4698 1.0702e+03     1.0165      0.761      1.103    27.5020 0.0000e+00
      0.783      0.067     5.8294     72.935     86.564  90.801147     0.3445      7.424   155.7265 1.0796e+03     0.9950      0.770      1.117    27.4906 0.0000e+00
      0.787      0.028     5.8767     71.762     86.618  90.857068     0.3389      7.432   156.1844 1.1699e+03     0.9315      0.774      1.122    27.4728 0.0000e+00
      0.785     -0.002     5.8815     70.561     86.650  90.896644     0.3389      7.439   156.6183 1.1826e+03     0.9318      0.772      1.119    27.4578 0.0000e+00
      0.776     -0.020     5.8449     69.706     86.644  90.898167     0.3453      7.446   156.8429 1.1739e+03     0.9986      0.763      1.107    27.4462 0.0000e+00
      0.764     -0.030     5.7738     69.285     86.618  90.875494     0.3578      7.455   157.0068 1.0301e+03     1.0214      0.748      1.085    27.4384 0.0000e+00
      0.754     -0.036     5.6750     69.000     86.616  90.876859     0.3738      7.463   157.2232 8.1145e+02     0.9683      0.740      1.071    27.4387 0.0000e+00
      0.747     -0.040     5.5647     68.589     86.650  90.914674     0.3971      7.473   157.4809 7.5976e+02     0.9035      0.734      1.064    27.4439 0.0000e+00
      0.739     -0.039     5.4929     68.093     86.682  90.951209     0.4057      7.483   157.7992 7.9864e+02     0.8867      0.726      1.052    27.4488 0.0000e+00
      0.727     -0.032     5.4724     67.726     86.665  90.937108     0.3956      7.493   158.1471 8.7563e+02     0.9019      0.714      1.036    27.4516 0.0000e+00
      0.712     -0.020     5.4586     67.609     86.602  90.871346     0.3907      7.503   158.4168 9.3641e+02     0.9166      0.698      1.013    27.4525 0.0000e+00
      0.700     -0.008     5.4235     67.575     86.525  90.791923     0.3968      7.511   157.2753 1.0686e+03     0.9284      0.681      0.987    27.4539 0.0000e+00
      0.700      0.002     5.3762     67.340     86.472  90.739817     0.4112      7.516   154.4975 1.4696e+03     0.9413      0.681      0.986    27.4557 0.0000e+00
      0.715      0.008     5.3423     66.966     86.486  90.750004     0.4151      7.521   152.4496 1.6025e+03     0.9699      0.701      1.015    27.4595 0.0000e+00
      0.730      0.011     5.3372     66.819     86.532  90.787915     0.4101      7.527   151.7866 1.2495e+03     1.0010      0.721      1.046    27.4581 0.0000e+00
      0.734      0.011     5.3490     67.094     86.563  90.816681     0.4088      7.534   151.6445 1.0852e+03     0.9765      0.725      1.052    27.4569 0.0000e+00
      0.727      0.009     5.3270     67.632     86.583  90.843478     0.3993      7.541   151.7628 1.1065e+03     0.9124      0.713      1.034    27.4643 0.0000e+00
      0.720      0.006     5.2821     68.056     86.590  90.857598     0.3869      7.549   152.0126 1.0066e+03     0.8746      0.704      1.022    27.4611 0.0000e+00
      0.720      0.006     5.2670     68.160     86.590  90.860242     0.3848      7.556   152.3420 1.0103e+03     0.8961      0.704      1.021    27.4501 0.0000e+00
      0.725      0.009     5.2920     67.953     86.607  90.875450     0.3979      7.561   152.4756 1.1218e+03     0.9666      0.710      1.030    27.4486 0.0000e+00
      0.734      0.012     5.3501     67.541     86.645  90.914308     0.4120      7.566   152.4232 1.0743e+03     1.0099      0.720      1.044    27.4539 0.0000e+00
      0.742      0.015     5.3874     67.148     86.675  90.948568     0.4145      7.571   152.6548 1.0202e+03     1.0091      0.729      1.058    27.4592 0.0000e+00
      0.745      0.017     5.3936     67.002     86.635  90.908185     0.3943      7.576   152.8669 1.1328e+03     0.9575      0.734      1.064    27.4597 0.0000e+00
      0.742      0.016     5.3766     67.121     86.537  90.807537     0.3505      7.581   152.7510 1.2067e+03     0.8984      0.728      1.056    27.4575 0.0000e+00
      0.741      0.006     5.3361     67.256     86.476  90.748978     0.3261      7.588   152.7164 1.1502e+03     0.8749      0.721      1.045    27.4556 0.0000e+00
      0.751     -0.008     5.2979     67.244     86.500  90.772413     0.3331      7.596   152.8781 1.0412e+03     0.8450      0.733      1.063    27.4582 0.0000e+00
      0.765     -0.011     5.2834     67.359     86.632  90.900145     0.3433      7.606   153.1579 1.0056e+03     0.8445      0.757      1.098    27.4600 0.0000e+00
      0.762      0.011     5.3038     68.180     86.747  91.021690     0.3582      7.617   153.4318 1.0168e+03     0.8685      0.759      1.100    27.4585 0.0000e+00
      0.732      0.056     5.3211     70.006     86.670  90.970317     0.3879      7.629   153.4370 9.4951e+02     0.8964      0.722      1.048    27.4658 0.0000e+00
      0.705      0.106     5.3115     72.370     86.525  90.851300     0.4019      7.643   153.3072 8.6517e+02     0.9074      0.668      0.968    27.4665 0.0000e+00
      0.732      0.149     5.3020     74.504     86.466  90.790803     0.3948      7.653   154.1853 8.2586e+02     0.9000      0.687      0.997    27.4544 0.0000e+00
      0.824      0.171     5.3531     76.046     86.453  90.747511     0.4020      7.660   156.5688 7.9978e+02     0.9092      0.805      1.168    27.4493 0.0000e+00
      0.930      0.160     5.5127     76.896     86.452  90.709314     0.4149      7.668   157.9486 8.0241e+02     0.9153      0.928      1.346    27.4722 0.0000e+00
      1.001      0.104     5.7253     76.905     86.484  90.710409     0.4093      7.677   157.1017 8.1001e+02     0.9399      0.999      1.448    27.5040 0.0000e+00
      1.024      0.009     5.9001     76.072     86.552  90.760708     0.4001      7.686   156.8262 6.9756e+02     0.9681      1.021      1.480    27.5012 0.0000e+00
      1.000     -0.100     6.0236     74.752     86.601  90.808780     0.4125      7.694   157.8012 5.9902e+02     0.9828      0.998      1.447    27.4769 0.0000e+00
      0.931     -0.193     6.1005     73.488     86.559  90.782987     0.4257      7.700   157.9627 7.2931e+02     0.9806      0.920      1.335    27.4545 0.0000e+00
      0.841     -0.255     6.1048     72.622     86.457  90.703213     0.4188      7.703   158.3492 9.0707e+02     0.9413      0.823      1.192    27.4356 0.0000e+00
      0.751     -0.287     6.0298     72.063     86.408  90.670869     0.4033      7.705   159.8076 8.9709e+02     0.9183      0.731      1.060    27.4205 0.0000e+00
      0.676     -0.293     5.9076     71.657     86.446  90.709869     0.3888      7.709   159.6790 1.0622e+03     0.9078      0.658      0.956    27.4181 0.0000e+00
      0.610     -0.281     5.7941     71.522     86.476  90.729682     0.3930      7.713   158.5147 1.3848e+03     0.9168      0.603      0.873    27.4314 0.0000e+00
      0.542     -0.262     5.7296     71.681     86.475  90.719658     0.4040      7.717   158.6360 1.4267e+03     0.9575      0.534      0.774    27.4513 0.0000e+00
      0.472     -0.243     5.6933     71.840     86.473  90.715828     0.4053      7.722   159.3380 1.3437e+03     0.9904      0.459      0.667    27.4656 0.0000e+00
      0.408     -0.224     5.6526     71.702     86.439  90.683370     0.4086      7.726   159.1740 1.5066e+03     1.0073      0.396      0.574    27.4614 0.0000e+00
      0.353     -0.204     5.6401     71.136     86.399  90.645134     0.4113      7.730   159.0612 1.8820e+03     0.9563      0.344      0.499    27.4511 0.0000e+00
      0.305     -0.182     5.6663     70.229     86.386  90.635027     0.4128      7.733   159.9530 1.9005e+03     0.8870      0.297      0.431    27.4463 0.0000e+00
      0.263     -0.163     5.6863     69.171     86.375  90.624756     0.4088      7.736   160.5785 1.6220e+03     0.8860      0.255      0.370    27.4456 0.0000e+00
      0.228     -0.148     5.6796     67.997     86.396  90.648111     0.3969      7.740   161.2044 1.4989e+03     0.9103      0.222      0.322    27.4483 0.0000e+00
      0.198     -0.138     5.6324     66.709     86.469  90.726675     0.3937      7.744   161.4113 1.3686e+03     0.9428      0.195      0.282    27.4519 0.0000e+00
      0.165     -0.125     5.5512     65.487     86.544  90.811670     0.3958      7.748   159.9827 1.2924e+03     0.9710      0.164      0.238    27.4529 0.0000e+00
      0.129     -0.109     5.4689     64.577     86.567  90.849215     0.3972      7.751   158.0418 1.5446e+03     0.9440      0.127      0.184    27.4531 0.0000e+00
      0.094     -0.087     5.3781     64.075     86.506  90.799149     0.3934      7.754   158.5073 1.7748e+03     0.8889      0.090      0.130    27.4547 0.0000e+00
      0.068     -0.060     5.2699     63.858     86.411  90.715021     0.3745      7.758   161.4812 1.6826e+03     0.8513      0.061      0.088    27.4539 0.0000e+00
      0.057     -0.033     5.1651     63.824     86.347  90.658627     0.3527      7.763   163.1108 1.3211e+03     0.8312      0.050      0.072    27.4572 0.0000e+00
      0.059     -0.010     5.0879     64.038     86.322  90.625980     0.3375      7.767   163.0678 8.6067e+02     0.8504      0.055      0.078    27.4670 0.0000e+00
      0.070      0.006     5.0541     64.560     86.357  90.638194     0.3402      7.771   163.0264 7.2856e+02     0.9127      0.068      0.098    27.4750 0.0000e+00
      0.082      0.013     5.0400     65.205     86.418  90.679093     0.3687      7.775   162.9546 1.1491e+03     0.9707      0.085      0.123    27.4833 0.0000e+00
      0.087      0.011     5.0330     65.649     86.427  90.675371     0.4072      7.777   163.0604 1.7251e+03     1.0052      0.090      0.130    27.4950 0.0000e+00
      0.085      0.004     5.0459     65.727     86.416  90.656759     0.4232      7.780   163.3584 1.9896e+03     1.0221      0.083      0.120    27.4925 0.0000e+00
      0.083     -0.003     5.0950     65.472     86.407  90.644798     0.4118      7.783   163.4613 2.0315e+03     0.9693      0.081      0.117    27.4698 0.0000e+00
      0.080     -0.010     5.1602     65.013     86.358  90.594328     0.3861      7.786   163.4438 2.0414e+03     0.8795      0.082      0.118    27.4551 0.0000e+00
      0.075     -0.020     5.1985     64.452     86.326  90.555193     0.3545      7.788   163.4912 2.0426e+03     0.8582      0.073      0.106    27.4511 0.0000e+00
      0.073     -0.037     5.2049     63.967     86.343  90.553109     0.3380      7.792   163.5177 2.0540e+03     0.8837      0.069      0.099    27.4463 0.0000e+00
      0.074     -0.055     5.1789     63.906     86.384  90.569099     0.3368      7.797   163.5066 2.0775e+03     0.9145      0.078      0.112    27.4449 0.0000e+00
      0.064     -0.065     5.1409     64.426     86.450  90.621324     0.3312      7.803   163.4422 2.0431e+03     0.8886      0.073      0.107    27.4468 0.0000e+00
      0.032     -0.059     5.0944     65.284     86.498  90.675867     0.3195      7.809   163.3414 1.7259e+03     0.7755      0.035      0.053    27.4472 0.0000e+00
     -0.010     -0.039     5.0428     66.087     86.457  90.656325     0.3119      7.815   163.2339 1.4813e+03     0.7079     -0.017     -0.025    27.4339 0.0000e+00
     -0.036     -0.014     5.0341     66.671     86.352  90.575835     0.3058      7.821   163.2609 1.7696e+03     0.7202     -0.046     -0.068    27.4130 0.0000e+00
     -0.031      0.001     5.0853     67.335     86.302  90.529295     0.3381      7.828   163.8406 2.0654e+03     0.8217     -0.041     -0.059    27.4016 0.0000e+00
      0.003      0.003     5.1668     68.599     86.335  90.538703     0.4105      7.834   164.4781 2.1119e+03     0.9790     -0.003     -0.004    27.4048 0.0000e+00
      0.044     -0.003     5.2341     70.328     86.390  90.562382     0.4488      7.839   164.3434 2.1175e+03     1.0507      0.057      0.082    27.4198 0.0000e+00
      0.054     -0.012     5.2714     71.918     86.403  90.561204     0.4593      7.844   163.9326 2.0829e+03     1.1085      0.077      0.111    27.4439 0.0000e+00
      0.014     -0.021     5.2982     73.328     86.353  90.524433     0.4464      7.850   163.8135 2.0510e+03     1.3014      0.019      0.028    27.4523 0.0000e+00
     -0.039     -0.026     5.4027     74.564     86.302  90.499309     0.3929      7.856   163.7645 2.0447e+03     1.5385     -0.056     -0.080    27.4292 0.0000e+00
     -0.056     -0.024     5.5771     75.321     86.305  90.511805     0.3530      7.861   163.5979 2.0498e+03     1.6187     -0.071     -0.104    27.4038 0.0000e+00
     -0.034     -0.009     5.6924     75.646     86.355  90.548371     0.3386      7.865   163.5197 2.0423e+03     1.5881     -0.033     -0.048    27.3920 0.0000e+00
     -0.007      0.016     5.7979     75.690     86.385  90.559915     0.3438      7.869   163.6794 1.8908e+03     1.3729      0.003      0.004    27.4048 0.0000e+00
      0.003      0.034     5.9147     75.370     86.361  90.524182     0.3740      7.873   163.8948 1.4432e+03     0.9643      0.009      0.012    27.4316 0.0000e+00
     -0.000      0.035     5.9650     74.663     86.334  90.497803     0.3964      7.876   164.0585 1.0702e+03     0.7468     -0.004     -0.006    27.4369 0.0000e+00
      0.000      0.026     5.9852     73.687     86.326  90.495301     0.4064      7.879   164.1962 1.2848e+03     0.7587     -0.006     -0.008    27.4213 0.0000e+00
      0.011      0.018     5.9976     72.593     86.325  90.493935     0.4204      7.882   164.3545 1.7617e+03     0.8341      0.012      0.018    27.4072 0.0000e+00
      0.022      0.014     5.9729     71.587     86.320  90.481295     0.4244      7.883   164.5955 1.9964e+03     0.9072      0.026      0.037    27.4011 0.0000e+00
      0.026      0.011     5.9121     70.831     86.313  90.469620     0.4125      7.884   164.7880 2.0360e+03     0.9254      0.027      0.039    27.4033 0.0000e+00
      0.025      0.006     5.8312     70.315     86.322  90.479928     0.4010      7.887   164.7900 2.0356e+03     0.9179      0.024      0.035    27.4111 0.0000e+00
      0.023      0.003     5.7381     69.902     86.318  90.478770     0.4021      7.890   164.7913 2.0306e+03     0.8844      0.022      0.032    27.4101 0.0000e+00
      0.020      0.004     5.6535     69.459     86.294  90.455620     0.4095      7.892   164.9754 2.0288e+03     0.8283      0.019      0.028    27.4024 0.0000e+00
      0.019      0.009     5.5950     68.908     86.294  90.454358     0.4157      7.893   165.1228 2.0315e+03     0.7858      0.017      0.025    27.4000 0.0000e+00
      0.021      0.012     5.5588     68.288     86.309  90.463512     0.4188      7.894   165.1107 2.0354e+03     0.7806      0.018      0.027    27.4016 0.0000e+00
      0.030      0.012     5.5296     67.696     86.299  90.439125     0.4143      7.896   165.1734 2.0379e+03     0.7657      0.028      0.041    27.4044 0.0000e+00
      0.040      0.009     5.4968     67.142     86.291  90.413799     0.3935      7.899   165.2793 2.0375e+03     0.7412      0.043      0.062    27.4059 0.0000e+00
      0.045      0.004     5.4532     66.685     86.299  90.411603     0.3580      7.902   165.2721 2.0300e+03     0.7926      0.048      0.070    27.4053 0.0000e+00
      0.040     -0.001     5.3980     66.417     86.304  90.412550     0.3349      7.904   165.3450 2.0071e+03     0.9083      0.041      0.060    27.4028 0.0000e+00
      0.032     -0.003     5.3551     66.235     86.316  90.425237     0.3310      7.905   165.5573 1.9286e+03     0.9797      0.031      0.046    27.3926 0.0000e+00
      0.027     -0.001     5.3111     65.984     86.326  90.437837     0.3355      7.906   165.1727 1.7578e+03     0.9385      0.026      0.038    27.3810 0.0000e+00
      0.026      0.004     5.2686     65.642     86.323  90.437740     0.3475      7.906   164.3941 1.5474e+03     0.8876      0.025      0.036    27.3748 0.0000e+00
      0.030      0.008     5.2537     65.284     86.311  90.424068     0.3598      7.907   163.8867 1.3645e+03     0.9116      0.027      0.040    27.3730 0.0000e+00
      0.039      0.007     5.2444     65.004     86.297  90.399688     0.3683      7.908   163.4267 1.2236e+03     0.9210      0.038      0.056    27.3735 0.0000e+00
      0.049      0.004     5.2246     64.845     86.306  90.397282     0.3757      7.908   163.3055 1.1499e+03     0.8295      0.051      0.073    27.3741 0.0000e+00
      0.051     -0.001     5.1946     64.793     86.310  90.394962     0.3820      7.909   163.2823 1.0684e+03     0.6936      0.054      0.079    27.3775 0.0000e+00
      0.043     -0.006     5.1632     64.847     86.287  90.371622     0.3869      7.911   163.2317 8.9080e+02     0.6450      0.044      0.064    27.3783 0.0000e+00
      0.032     -0.011     5.1400     65.003     86.280  90.369412     0.3859      7.913   163.2101 8.0845e+02     0.6523      0.026      0.037    27.3713 0.0000e+00
      0.030     -0.013     5.1297     65.190     86.279  90.368254     0.3864      7.915   163.0206 1.0252e+03     0.6442      0.027      0.040    27.3627 0.0000e+00
      0.032     -0.011     5.1263     65.311     86.274  90.357624     0.4009      7.917   163.2641 1.4284e+03     0.6499      0.034      0.049    27.3576 0.0000e+00
      0.029     -0.006     5.1286     65.237     86.288  90.368028     0.4099      7.917   164.1756 1.7581e+03     0.6864      0.028      0.040    27.3592 0.0000e+00
      0.025     -0.001     5.1445     64.886     86.288  90.366880     0.4039      7.918   165.0923 1.8951e+03     0.7439      0.024      0.035    27.3647 0.0000e+00
      0.025      0.002     5.1608     64.298     86.268  90.343742     0.4041      7.919   165.6582 1.9123e+03     0.7998      0.024      0.035    27.3649 0.0000e+00
      0.028      0.005     5.1746     63.497     86.268  90.342595     0.4122      7.921   166.2859 1.8992e+03     0.8494      0.028      0.040    27.3599 0.0000e+00
      0.030      0.008     5.1738     62.546     86.280  90.353010     0.4104      7.922   165.8849 1.8812e+03     0.8659      0.030      0.043    27.3568 0.0000e+00
      0.033      0.010     5.1411     61.561     86.273  90.342492     0.4068      7.924   163.9073 1.8592e+03     0.8965      0.031      0.045    27.3565 0.0000e+00
      0.037      0.012     5.0960     60.574     86.277  90.342586     0.4193      7.925   163.1959 1.8376e+03     0.9111      0.036      0.052    27.3559 0.0000e+00
      0.041      0.017     5.0319     59.661     86.290  90.354146     0.4278      7.927   164.5108 1.8276e+03     0.8040      0.041      0.059    27.3554 0.0000e+00
      0.042      0.022     4.9498     58.948     86.291  90.355082     0.4181      7.928   164.9210 1.8281e+03     0.6949      0.042      0.061    27.3540 0.0000e+00
      0.044      0.025     4.8746     58.457     86.289  90.353907     0.4110      7.929   163.8536 1.8289e+03     0.6845      0.041      0.059    27.3518 0.0000e+00
      0.054      0.022     4.7941     58.160     86.278  90.339939     0.4082      7.931   163.1339 1.8243e+03     0.7471      0.049      0.070    27.3493 0.0000e+00
      0.069      0.017     4.7163     58.092     86.258  90.313365     0.4012      7.934   163.1891 1.8123e+03     0.8363      0.069      0.100    27.3478 0.0000e+00
      0.079      0.011     4.6604     58.316     86.238  90.286915     0.4083      7.936   163.4891 1.7962e+03     0.9088      0.084      0.121    27.3479 0.0000e+00
      0.079      0.003     4.6234     58.846     86.230  90.274452     0.4274      7.938   163.6636 1.7772e+03     0.9749      0.080      0.116    27.3489 0.0000e+00
      0.070     -0.003     4.5983     59.592     86.248  90.289832     0.4254      7.940   163.6634 1.7546e+03     0.9864      0.065      0.096    27.3486 0.0000e+00
      0.062     -0.006     4.5912     60.361     86.423  90.472870     0.4005      7.940   163.8310 1.7291e+03     0.9462      0.059      0.085    27.3441 0.0000e+00
      0.059     -0.004     4.6082     61.219     86.810  90.897979     0.3840      7.941   164.2265 1.6870e+03     0.9330      0.057      0.084    27.3401 0.0000e+00
      0.058      0.004     4.6527     63.086     87.118  91.296922     0.3915      7.943   164.8322 1.5752e+03     0.9291      0.056      0.082    27.3385 0.0000e+00
      0.061      0.013     4.7183     66.975     87.173  91.481547     0.4003      7.944   165.2179 1.3402e+03     0.8981      0.060      0.085    27.3367 0.0000e+00
      0.068      0.020     4.7852     72.363     87.117  91.540859     0.3991      7.946   164.8459 1.0341e+03     0.9006      0.067      0.097    27.3345 0.0000e+00
      0.077      0.026     4.8260     77.809     87.074  91.569147     0.4097      7.948   164.5507 7.7343e+02     0.9595      0.076      0.110    27.3344 0.0000e+00
      0.084      0.032     4.9182     82.409     87.039  91.569346     0.4207      7.949   164.7463 6.2612e+02     0.9951      0.081      0.119    27.3768 0.0000e+00
      0.090      0.037     5.2433     85.895     86.998  91.543326     0.4152      7.950   164.9742 6.7266e+02     0.9889      0.087      0.126    27.4698 0.0000e+00
      0.098      0.042     5.7156     88.271     86.960  91.508908     0.4025      7.952   165.0684 9.2495e+02     0.9531      0.095      0.138    27.5442 0.0000e+00
      0.111      0.047     6.1601     89.529     86.924  91.471137     0.3915      7.953   165.1108 1.1544e+03     0.9041      0.107      0.157    27.5808 0.0000e+00
      0.126      0.052     6.5286     89.754     86.924  91.468147     0.3905      7.955   165.1426 1.1839e+03     0.8745      0.123      0.179    27.5998 0.0000e+00
      0.140      0.057     6.7968     89.237     86.931  91.472746     0.3903      7.956   165.1955 1.1902e+03     0.8676      0.138      0.200    27.6077 0.0000e+00
      0.154      0.062     6.9875     88.365     86.924  91.463154     0.3969      7.958   165.6642 1.2213e+03     0.8897      0.150      0.219    27.6105 0.0000e+00
      0.169      0.066     7.0847     87.468     86.943  91.479329     0.4122      7.959   166.1632 1.1375e+03     0.9370      0.165      0.240    27.6095 0.0000e+00
      0.186      0.070     7.0937     86.723     86.945  91.477554     0.4175      7.960   166.0671 1.0740e+03     0.9614      0.183      0.264    27.6073 0.0000e+00
      0.206      0.074     7.0420     86.201     86.915  91.441693     0.4105      7.961   165.6204 1.0790e+03     0.9447      0.201      0.291    27.6056 0.0000e+00
      0.226      0.077     6.9628     85.891     86.906  91.427237     0.3944      7.962   165.7520 1.0540e+03     0.9066      0.221      0.321    27.6041 0.0000e+00
      0.247      0.080     6.8889     85.709     86.913  91.429932     0.3893      7.963   166.4543 9.8198e+02     0.8758      0.242      0.352    27.6022 0.0000e+00
      0.268      0.082     6.8282     85.561     86.901  91.410687     0.3989      7.964   167.4000 8.7434e+02     0.8799      0.265      0.384    27.6000 0.0000e+00
      0.288      0.082     6.7881     85.450     86.884  91.385282     0.4019      7.967   169.0128 7.7916e+02     0.8879      0.282      0.409    27.5976 0.0000e+00
      0.308      0.082     6.7660     85.409     86.884  91.377084     0.4090      7.970   170.2960 6.9322e+02     0.9049      0.300      0.436    27.5949 0.0000e+00
      0.331      0.081     6.7566     85.413     86.891  91.375146     0.4264      7.972   170.6116 6.5769e+02     0.9484      0.325      0.471    27.5920 0.0000e+00
      0.352      0.079     6.7440     85.392     86.886  91.361838     0.4294      7.974   170.1609 6.8354e+02     0.9694      0.346      0.502    27.5884 0.0000e+00
      0.372      0.076     6.7339     85.297     86.874  91.343331     0.4195      7.975   169.4928 7.0752e+02     0.9542      0.365      0.529    27.5839 0.0000e+00
      0.392      0.073     6.7327     85.175     86.877  91.342128     0.4238      7.976   169.4171 7.1293e+02     0.9017      0.385      0.558    27.5789 0.0000e+00
      0.410      0.069     6.7353     85.083     86.886  91.347279     0.4399      7.977   169.2452 6.8115e+02     0.8471      0.403      0.585    27.5737 0.0000e+00
      0.427      0.066     6.7372     85.038     86.884  91.342009     0.4484      7.978   168.7913 6.5396e+02     0.8740      0.418      0.607    27.5690 0.0000e+00
      0.442      0.066     6.7273     85.056     86.886  91.341999     0.4519      7.980   168.7476 6.5709e+02     0.9537      0.433      0.628    27.5652 0.0000e+00
      0.457      0.071     6.7161     85.112     86.894  91.347144     0.4572      7.981   169.0606 6.3596e+02     0.9571      0.449      0.651    27.5625 0.0000e+00
      0.472      0.077     6.7096     85.123     86.891  91.340625     0.4621      7.981   169.4785 6.1069e+02     0.8810      0.462      0.670    27.5604 0.0000e+00
      0.490      0.083     6.7050     85.077     86.881  91.326753     0.4605      7.982   169.9285 6.1354e+02     0.8533      0.476      0.690    27.5590 0.0000e+00
      0.516      0.087     6.7067     85.031     86.866  91.306579     0.4545      7.983   170.5439 6.0909e+02     0.8958      0.504      0.732    27.5577 0.0000e+00
      0.546      0.087     6.7154     85.013     86.851  91.287463     0.4568      7.986   171.1544 6.0203e+02     0.9159      0.536      0.779    27.5560 0.0000e+00
      0.571      0.084     6.7166     85.023     86.852  91.286364     0.4552      7.988   171.5457 6.0554e+02     0.8913      0.562      0.815    27.5537 0.0000e+00
      0.591      0.077     6.7103     85.034     86.861  91.293291     0.4515      7.988   171.8331 5.9124e+02     0.9065      0.581      0.843    27.5515 0.0000e+00
      0.608      0.068     6.7072     85.057     86.876  91.307631     0.4622      7.989   171.9617 5.6969e+02     0.9626      0.598      0.867    27.5495 0.0000e+00
      0.623      0.061     6.7051     85.112     86.901  91.332576     0.4681      7.991   172.0682 5.6132e+02     0.9886      0.611      0.887    27.5476 0.0000e+00
      0.635      0.057     6.7079     85.169     86.910  91.340555     0.4643      7.992   172.1752 5.5785e+02     0.9818      0.622      0.903    27.5461 0.0000e+00
      0.646      0.057     6.7085     85.215     86.912  91.340507     0.4662      7.993   172.1366 5.4870e+02     0.9492      0.633      0.918    27.5447 0.0000e+00
      0.660      0.060     6.7086     85.276     86.905  91.331994     0.4749      7.993   172.0315 5.3200e+02     0.9025      0.646      0.938    27.5435 0.0000e+00
      0.676      0.066     6.7152     85.343     86.877  91.301207     0.4774      7.994   172.0234 5.1571e+02     0.8603      0.663      0.962    27.5428 0.0000e+00
      0.694      0.072     6.7202     85.348     86.864  91.286178     0.4708      7.994   172.2968 4.9972e+02     0.8489      0.681      0.988    27.5421 0.0000e+00
      0.713      0.077     6.7224     85.242     86.857  91.277451     0.4703      7.994   173.5302 4.8918e+02     0.9011      0.698      1.013    27.5411 0.0000e+00
      0.734      0.082     6.7272     85.036     86.842  91.259266     0.4799      7.996   175.3214 4.9232e+02     0.9797      0.718      1.041    27.5402 0.0000e+00
      0.757      0.086     6.7356     84.797     86.842  91.257058     0.4867      7.998   176.1434 4.9127e+02     1.0135      0.743      1.077    27.5394 0.0000e+00
      0.780      0.088     6.7374     84.636     86.837  91.250745     0.4946      7.999   176.1562 4.7683e+02     0.9678      0.764      1.108    27.5387 0.0000e+00
      0.803      0.089     6.7285     84.588     86.835  91.246522     0.5084      8.001   175.7339 4.6338e+02     0.8714      0.787      1.142    27.5380 0.0000e+00
      0.826      0.089     6.7114     84.617     86.858  91.269576     0.5122      8.002   174.6511 4.5310e+02     0.8394      0.812      1.177    27.5367 0.0000e+00
      0.848      0.088     6.6878     84.721     86.865  91.275137     0.5081      8.002   173.6471 4.4355e+02     0.8884      0.831      1.205    27.5357 0.0000e+00
      0.870      0.087     6.6744     84.889     86.843  91.250182     0.5085      8.003   173.2304 4.3743e+02     0.9172      0.852      1.235    27.5349 0.0000e+00
      0.894      0.087     6.6735     85.064     86.818  91.222177     0.5169      8.004   173.0539 4.2941e+02     0.9476      0.878      1.273    27.5339 0.0000e+00
      0.916      0.089     6.6744     85.145     86.790  91.190870     0.5260      8.004   173.0627 4.1363e+02     0.9823      0.900      1.305    27.5329 0.0000e+00
      0.935      0.092     6.6834     85.060     86.792  91.189563     0.5271      8.004   173.2511 3.9735e+02     0.9609      0.915      1.328    27.5320 0.0000e+00
      0.957      0.094     6.6982     84.918     86.812  91.206369     0.5221      8.005   173.5250 3.8832e+02     0.9288      0.936      1.358    27.5308 0.0000e+00
      0.983      0.094     6.7147     84.855     86.813  91.203308     0.5152      8.007   173.8788 3.8016e+02     0.9018      0.963      1.397    27.5299 0.0000e+00
      1.011      0.093     6.7260     84.837     86.828  91.216120     0.5108      8.009   174.3454 3.6951e+02     0.8723      0.992      1.438    27.5289 0.0000e+00
      1.037      0.090     6.7144     84.814     86.848  91.234105     0.5100      8.010   174.8647 3.6121e+02     0.8806      1.018      1.476    27.5269 0.0000e+00
      1.060      0.082     6.6975     84.836     86.846  91.230013     0.5136      8.010   175.0817 3.5751e+02     0.8993      1.040      1.508    27.5243 0.0000e+00
      1.080      0.072     6.6958     84.899     86.846  91.230222     0.5380      8.011   175.2475 3.5364e+02     0.8938      1.060      1.538    27.5219 0.0000e+00
      1.097      0.062     6.6975     84.918     86.852  91.236628     0.5804      8.012   175.4926 3.4513e+02     0.8824      1.077      1.562    27.5200 0.0000e+00
      1.110      0.054     6.6923     84.904     86.859  91.243881     0.6022      8.012   175.2929 3.3768e+02     0.8634      1.089      1.580    27.5187 0.0000e+00
      1.120      0.049     6.6934     84.929     86.869  91.254333     0.5933      8.013   174.9839 3.3241e+02     0.8345      1.099      1.593    27.5179 0.0000e+00
      1.130      0.049     6.7038     84.985     86.851  91.235836     0.5811      8.014   175.1110 3.2529e+02     0.8073      1.109      1.608    27.5173 0.0000e+00
      1.140      0.053     6.7039     85.016     86.828  91.210995     0.5786      8.014   175.3685 3.1502e+02     0.8081      1.118      1.621    27.5174 0.0000e+00
      1.152      0.060     6.6994     85.005     86.827  91.208309     0.5808      8.015   175.2574 3.0376e+02     0.8446      1.129      1.635    27.5176 0.0000e+00
      1.167      0.070     6.7022     84.970     86.824  91.203362     0.5911      8.015   175.0582 2.9051e+02     0.9063      1.143      1.657    27.5176 0.0000e+00
      1.188      0.081     6.7091     84.927     86.836  91.214752     0.6027      8.016   175.5407 2.7216e+02     0.9729      1.163      1.686    27.5176 0.0000e+00
      1.211      0.091     6.7117     84.888     86.841  91.218859     0.6044      8.018   176.3597 2.5376e+02     0.9670      1.189      1.724    27.5173 0.0000e+00
      1.235      0.098     6.7101     84.872     86.816  91.189426     0.5955      8.021   176.8729 2.4027e+02     0.9030      1.211      1.756    27.5163 0.0000e+00
      1.262      0.100     6.7073     84.894     86.806  91.176796     0.5784      8.023   176.8418 2.3218e+02     0.8829      1.236      1.792    27.5151 0.0000e+00
      1.293      0.100     6.7034     84.921     86.822  91.193311     0.5716      8.023   176.1543 2.2940e+02     0.8949      1.270      1.843    27.5146 0.0000e+00
      1.321      0.099     6.7004     84.912     86.828  91.198353     0.5802      8.023   175.6165 2.2899e+02     0.9104      1.297      1.881    27.5140 0.0000e+00
      1.344      0.098     6.6980     84.899     86.806  91.174170     0.5823      8.024   175.8458 2.2665e+02     0.9344      1.318      1.911    27.5126 0.0000e+00
      1.366      0.099     6.7010     84.915     86.789  91.155257     0.5813      8.026   176.2596 2.2300e+02     0.9450      1.339      1.942    27.5114 0.0000e+00
      1.387      0.100     6.7055     84.935     86.795  91.160417     0.5845      8.028   176.2314 2.2110e+02     0.9366      1.360      1.973    27.5106 0.0000e+00
      1.411      0.101     6.7030     84.928     86.808  91.172972     0.5791      8.028   175.9353 2.2090e+02     0.9366      1.381      2.005    27.5098 0.0000e+00
      1.441      0.103     6.7005     84.916     86.816  91.179890     0.5742      8.030   175.6043 2.2151e+02     0.9436      1.411      2.046    27.5092 0.0000e+00
      1.472      0.103     6.7034     84.931     86.816  91.180472     0.5760      8.033   175.4125 2.2461e+02     0.9193      1.447      2.100    27.5086 0.0000e+00
      1.499      0.103     6.7062     84.961     86.816  91.180002     0.5756      8.035   175.4237 2.2824e+02     0.9155      1.471      2.135    27.5079 0.0000e+00
      1.522      0.101     6.7051     84.995     86.812  91.174212     0.5771      8.035   175.4821 2.2881e+02     0.9669      1.491      2.163    27.5073 0.0000e+00
      1.547      0.097     6.7020     85.029     86.813  91.174052     0.5857      8.036   175.6016 2.2805e+02     0.9936      1.518      2.202    27.5068 0.0000e+00
      1.572      0.093     6.7047     84.986     86.818  91.178055     0.5964      8.037   175.7497 2.2829e+02     0.9656      1.541      2.236    27.5067 0.0000e+00
      1.595      0.091     6.7076     84.814     86.801  91.159027     0.6067      8.039   175.8966 2.2724e+02     0.9015      1.564      2.268    27.5064 0.0000e+00
      1.619      0.091     6.7090     84.620     86.780  91.134741     0.6271      8.039   176.0870 2.2355e+02     0.8329      1.588      2.303    27.5059 0.0000e+00
      1.641      0.091     6.7147     84.545     86.786  91.138739     0.6441      8.039   176.8471 2.2021e+02     0.8197      1.610      2.335    27.5057 0.0000e+00
      1.663      0.094     6.7148     84.570     86.792  91.143781     0.6361      8.039   178.2039 2.1827e+02     0.8782      1.632      2.366    27.5047 0.0000e+00
      1.685      0.100     6.6969     84.599     86.785  91.132106     0.6307      8.040   178.9842 2.1630e+02     0.9606      1.652      2.398    27.5035 0.0000e+00
      1.708      0.105     6.6757     84.619     86.783  91.124743     0.6377      8.042   178.6240 2.1307e+02     0.9961      1.671      2.425    27.5025 0.0000e+00
      1.737      0.110     6.6716     84.653     86.781  91.118333     0.6374      8.043   177.8927 2.0884e+02     0.9651      1.701      2.468    27.5014 0.0000e+00
      1.771      0.112     6.6780     84.675     86.786  91.118173     0.6348      8.044   177.5412 2.0468e+02     0.9268      1.739      2.521    27.5007 0.0000e+00
      1.803      0.111     6.6803     84.658     86.795  91.122798     0.6395      8.045   177.3864 2.0084e+02     0.9090      1.769      2.565    27.4982 0.0000e+00
      1.833      0.108     6.6804     84.610     86.788  91.110665     0.6443      8.045   177.2251 1.9732e+02     0.8871      1.799      2.608    27.4950 0.0000e+00
      1.860      0.104     6.6853     84.556     86.779  91.098625     0.6427      8.045   177.1392 1.9464e+02     0.8665      1.825      2.647    27.4920 0.0000e+00
      1.882      0.101     6.6881     84.550     86.785  91.104391     0.6374      8.045   177.2947 1.9196e+02     0.8652      1.847      2.678    27.4889 0.0000e+00
      1.903      0.101     6.6866     84.624     86.798  91.116788     0.6296      8.047   177.6422 1.8852e+02     0.9052      1.866      2.706    27.4858 0.0000e+00
      1.926      0.101     6.6827     84.697     86.803  91.121351     0.6321      8.049   177.8994 1.8481e+02     0.9409      1.887      2.737    27.4835 0.0000e+00
      1.955      0.100     6.6771     84.724     86.780  91.095976     0.6505      8.051   178.0818 1.8046e+02     0.9206      1.916      2.779    27.4822 0.0000e+00
      1.986      0.098     6.6741     84.762     86.751  91.064313     0.6606      8.052   178.2133 1.7641e+02     0.8983      1.949      2.826    27.4817 0.0000e+00
      2.015      0.093     6.6840     84.783     86.745  91.056436     0.6471      8.052   178.2839 1.7349e+02     0.9104      1.978      2.869    27.4814 0.0000e+00
      2.038      0.086     6.6927     84.729     86.754  91.064315     0.6285      8.052   178.3330 1.7104e+02     0.9309      2.001      2.903    27.4811 0.0000e+00
      2.056      0.076     6.6893     84.644     86.784  91.095987     0.6263      8.053   178.5485 1.6909e+02     0.9412      2.017      2.926    27.4808 0.0000e+00
      2.071      0.069     6.6952     84.599     86.809  91.121452     0.6376      8.054   178.9965 1.6729e+02     0.9662      2.031      2.946    27.4797 0.0000e+00
      2.086      0.064     6.6999     84.629     86.806  91.117879     0.6486      8.054   179.5340 1.6532e+02     0.9940      2.045      2.967    27.4781 0.0000e+00
      2.101      0.063     6.6931     84.736     86.806  91.116359     0.6594      8.055   180.2305 1.6377e+02     0.9701      2.060      2.988    27.4775 0.0000e+00
      2.117      0.063     6.6840     84.863     86.795  91.103080     0.6603      8.057   180.7917 1.6231e+02     0.9167      2.075      3.010    27.4775 0.0000e+00
      2.134      0.062     6.6803     84.925     86.778  91.084489     0.6509      8.058   180.5557 1.6030e+02     0.8957      2.092      3.034    27.4776 0.0000e+00
      2.153      0.062     6.6819     84.906     86.776  91.082316     0.6449      8.058   179.7852 1.5835e+02     0.9212      2.112      3.063    27.4770 0.0000e+00
      2.169      0.062     6.6921     84.841     86.770  91.076808     0.6382      8.057   179.7358 1.5711e+02     0.9514      2.129      3.088    27.4757 0.0000e+00
      2.181      0.066     6.7061     84.751     86.775  91.081480     0.6368      8.057   180.4745 1.5600e+02     0.9188      2.139      3.102    27.4745 0.0000e+00
      2.193      0.072     6.7108     84.658     86.771  91.075210     0.6448      8.058   180.8005 1.5435e+02     0.8685      2.148      3.116    27.4739 0.0000e+00
      2.210      0.078     6.7079     84.592     86.763  91.064587     0.6508      8.059   180.5809 1.5246e+02     0.8895      2.165      3.140    27.4744 0.0000e+00
      2.233      0.083     6.7021     84.571     86.779  91.080199     0.6601      8.060   180.4000 1.5071e+02     0.9343      2.189      3.174    27.4751 0.0000e+00
      2.260      0.088     6.6948     84.601     86.774  91.073219     0.6733      8.061   180.2484 1.4893e+02     0.9314      2.215      3.213    27.4750 0.0000e+00
      2.287      0.089     6.6859     84.664     86.747  91.043769     0.6781      8.062   179.8660 1.4726e+02     0.8887      2.245      3.255    27.4739 0.0000e+00
      2.312      0.087     6.6812     84.744     86.746  91.042040     0.6843      8.062   179.3903 1.4616e+02     0.8627      2.270      3.293    27.4724 0.0000e+00
      2.331      0.086     6.6788     84.809     86.757  91.052312     0.6902      8.061   179.0570 1.4523e+02     0.8896      2.287      3.317    27.4715 0.0000e+00
      2.348      0.086     6.6823     84.789     86.747  91.040799     0.6917      8.061   178.9335 1.4433e+02     0.9409      2.302      3.339    27.4708 0.0000e+00
      2.365      0.091     6.6879     84.714     86.738  91.030001     0.7025      8.063   179.1016 1.4355e+02     0.9703      2.318      3.362    27.4702 0.0000e+00
      2.387      0.097     6.6938     84.652     86.758  91.048918     0.7130      8.064   179.4541 1.4225e+02     0.9725      2.338      3.391    27.4699 0.0000e+00
      2.416      0.103     6.7035     84.597     86.789  91.078768     0.7017      8.065   179.8407 1.4035e+02     0.9333      2.367      3.433    27.4695 0.0000e+00
      2.449      0.104     6.7000     84.528     86.787  91.072979     0.6817      8.066   180.3339 1.3836e+02     0.8712      2.402      3.484    27.4687 0.0000e+00
      2.482      0.101     6.6909     84.458     86.760  91.042500     0.6797      8.067   180.5140 1.3660e+02     0.8371      2.436      3.533    27.4678 0.0000e+00
      2.509      0.094     6.6878     84.454     86.748  91.028169     0.6861      8.067   180.1246 1.3525e+02     0.8285      2.463      3.573    27.4666 0.0000e+00
      2.529      0.084     6.6839     84.547     86.751  91.026866     0.6920      8.066   179.9271 1.3402e+02     0.8354      2.481      3.599    27.4644 0.0000e+00
      2.545      0.075     6.6792     84.683     86.757  91.026739     0.7015      8.066   180.1921 1.3302e+02     0.8858      2.496      3.621    27.4625 0.0000e+00
      2.560      0.069     6.6706     84.785     86.767  91.026615     0.7086      8.066   180.7475 1.3208e+02     0.9596      2.511      3.641    27.4613 0.0000e+00
      2.577      0.067     6.6693     84.807     86.774  91.025355     0.7115      8.066   181.0495 1.3088e+02     0.9764      2.527      3.664    27.4606 0.0000e+00
      2.595      0.067     6.6791     84.772     86.768  91.011485     0.7035      8.066   180.7467 1.2970e+02     0.9533      2.545      3.691    27.4589 0.0000e+00
      2.612      0.072     6.6924     84.728     86.750  90.986073     0.6948      8.067   180.6134 1.2847e+02     0.9187      2.561      3.715    27.4546 0.0000e+00
      2.629      0.077     6.7033     84.696     86.747  90.972422     0.7062      8.068   180.9866 1.2723e+02     0.8650      2.578      3.739    27.4482 0.0000e+00
      2.647      0.081     6.7045     84.701     86.761  90.973582     0.7248      8.068   181.5589 1.2595e+02     0.8511      2.593      3.762    27.4424 0.0000e+00
      2.669      0.084     6.7002     84.749     86.802  91.000074     0.7291      8.068   181.7684 1.2418e+02     0.8868      2.615      3.793    27.4387 0.0000e+00
      2.695      0.085     6.6971     84.781     86.862  91.038380     0.7334      8.069   181.4557 1.2254e+02     0.9209      2.644      3.835    27.4358 0.0000e+00
      2.720      0.085     6.6948     84.750     86.908  91.055197     0.7509      8.070   181.1331 1.2146e+02     0.9564      2.669      3.872    27.4290 0.0000e+00
      2.740      0.084     6.6946     84.689     86.961  91.076181     0.7578      8.071   181.0521 1.2050e+02     0.9746      2.688      3.899    27.4211 0.0000e+00
      2.759      0.082     6.7023     84.649     87.012  91.101285     0.7498      8.070   181.0776 1.1953e+02     0.9366      2.705      3.923    27.4135 0.0000e+00
      2.778      0.082     6.7083     84.622     87.036  91.104345     0.7377      8.070   181.0111 1.1848e+02     0.8718      2.725      3.951    27.3996 0.0000e+00
      2.798      0.085     6.7066     84.565     87.064  91.113154     0.7277      8.071   180.8501 1.1737e+02     0.8408      2.744      3.979    27.3796 0.0000e+00
      2.819      0.091     6.7024     84.492     87.111  91.144178     0.7297      8.072   180.6799 1.1619e+02     0.8688      2.763      4.008    27.3586 0.0000e+00
      2.843      0.096     6.7015     84.477     87.138  91.161497     0.7365      8.072   180.6748 1.1470e+02     0.9019      2.787      4.042    27.3418 0.0000e+00
      2.869      0.099     6.7029     84.520     87.176  91.195359     0.7426      8.072   180.8747 1.1292e+02     0.9007      2.812      4.078    27.3310 0.0000e+00
      2.897      0.101     6.6995     84.554     87.224  91.235668     0.7465      8.072   181.1174 1.1106e+02     0.8883      2.840      4.120    27.3185 0.0000e+00
      2.926      0.104     6.6918     84.586     87.214  91.203773     0.7419      8.073   181.2861 1.0951e+02     0.8881      2.874      4.167    27.3066 0.0000e+00
      2.951      0.106     6.6908     84.662     87.231  91.191185     0.7359      8.073   181.5386 1.0836e+02     0.8981      2.896      4.198    27.3013 0.0000e+00
      2.973      0.106     6.6986     84.771     87.341  91.274173     0.7489      8.073   181.9331 1.0708e+02     0.9751      2.913      4.224    27.2994 0.0000e+00
      3.000      0.103     6.7008     84.886     87.466  91.380519     0.7747      8.075   182.0113 1.0532e+02     1.1026      2.940      4.264    27.2952 0.0000e+00
      3.032      0.099     6.7020     84.988     87.557  91.459609     0.7896      8.076   181.7970 1.0344e+02     1.1412      2.974      4.313    27.2831 0.0000e+00
      3.063      0.097     6.7121     85.052     87.755  91.658149     0.7960      8.076   181.8366 1.0187e+02     1.1338      3.007      4.361    27.2633 0.0000e+00
      3.086      0.097     6.7236     85.065     88.152  92.064214     0.7943      8.076   182.2318 1.0067e+02     1.1157      3.030      4.394    27.2436 0.0000e+00
      3.102      0.097     6.7348     85.020     88.518  92.426913     0.7930      8.076   182.6175 9.9437e+01     1.0255      3.042      4.412    27.2292 0.0000e+00
      3.120      0.096     6.7447     84.826     88.731  92.609773     0.7979      8.077   182.7995 9.7747e+01     0.9315      3.054      4.431    27.2205 0.0000e+00
      3.147      0.095     6.7510     84.353     88.850  92.685379     0.7951      8.078   182.8848 9.5713e+01     0.9009      3.082      4.472    27.2168 0.0000e+00
      3.180      0.094     6.7514     83.603     88.905  92.705095     0.7842      8.078   182.7886 9.3709e+01     0.8951      3.121      4.527    27.2144 0.0000e+00
      3.210      0.091     6.7511     82.703     88.942  92.720923     0.7906      8.078   182.5816 9.1984e+01     0.9639      3.152      4.571    27.2064 0.0000e+00
      3.231      0.087     6.7450     81.810     88.985  92.749531     0.8227      8.077   182.5326 9.0533e+01     1.1183      3.170      4.598    27.1819 0.0000e+00
      3.247      0.083     6.7101     81.032     89.047  92.796603     0.8481      8.076   182.5412 8.9221e+01     1.2247      3.184      4.618    27.1482 0.0000e+00
      3.262      0.082     6.6493     80.421     89.112  92.844920     0.8560      8.074   182.4274 8.7857e+01     1.2590      3.199      4.640    27.1271 0.0000e+00
      3.279      0.084     6.5739     80.037     89.174  92.888573     0.8515      8.074   182.3604 8.6256e+01     1.2265      3.214      4.661    27.1169 0.0000e+00
      3.302      0.088     6.5004     79.875     89.369  93.070009     0.8445      8.072   182.5923 8.4386e+01     1.1380      3.235      4.692    27.1088 0.0000e+00
      3.331      0.091     6.4399     79.819     89.815  93.512438     0.8450      8.069   182.9939 8.2503e+01     1.0774      3.267      4.738    27.0991 0.0000e+00
      3.360      0.094     6.3897     79.814     90.409  94.104473     0.8499      8.068   183.3454 8.0908e+01     1.0745      3.298      4.784    27.0884 0.0000e+00
      3.383      0.095     6.3595     79.837     90.462  94.123284     0.8695      8.067   183.6584 7.9513e+01     1.1028      3.320      4.814    27.0769 0.0000e+00
      3.403      0.094     6.3538     79.741     89.469  93.040216     0.8998      8.066   184.0251 7.8119e+01     1.1462      3.335      4.837    27.0638 0.0000e+00
      3.424      0.092     6.3523     79.378     88.359  91.819566     0.9165      8.064   184.4226 7.6714e+01     1.1895      3.356      4.868    27.0527 0.0000e+00
      3.449      0.089     6.3505     78.784     88.009  91.382817     0.9218      8.063   184.6792 7.5388e+01     1.2167      3.383      4.906    27.0389 0.0000e+00
      3.475      0.087     6.3618     78.359     87.889  91.193144     0.9473      8.061   184.7194 7.4202e+01     1.2017      3.409      4.944    27.0201 0.0000e+00
      3.500      0.087     6.3612     78.639     87.502  90.734221     0.9913      8.059   184.6503 7.3187e+01     1.1443      3.433      4.980    26.9929 0.0000e+00
      3.520      0.090     6.3379     79.649     87.622  90.793441     1.0127      8.057   184.7034 7.2354e+01     1.1038      3.453      5.009    26.9530 0.0000e+00
      3.537      0.095     6.2850     80.974     88.659  91.781804     1.0152      8.055   185.1037 7.1524e+01     1.1223      3.468      5.030    26.9072 0.0000e+00
      3.556      0.101     6.2315     82.383     89.163  92.192685     1.0296      8.053   185.6182 7.0524e+01     1.2983      3.484      5.054    26.8708 0.0000e+00
      3.583      0.107     6.2583     83.825     88.302  91.182997     1.0625      8.052   185.8483 6.9319e+01     1.5587      3.509      5.090    26.8413 0.0000e+00
      3.618      0.112     6.3611     85.006     87.198  89.937986     1.0872      8.051   185.9076 6.7996e+01     1.6746      3.547      5.145    26.8076 0.0000e+00
      3.655      0.113     6.4787     85.634     86.706  89.347279     1.0872      8.051   185.9908 6.6811e+01     1.7096      3.586      5.202    26.7616 0.0000e+00
      3.686      0.109     6.5939     85.876     86.735  89.317867     1.0789      8.052   185.9933 6.5839e+01     1.7767      3.617      5.246    26.6942 0.0000e+00
      3.712      0.102     6.7300     86.110     86.901  89.455129     1.0699      8.052   185.8513 6.4945e+01     1.8365      3.640      5.280    26.6202 0.0000e+00
      3.734      0.095     6.8465     86.547     86.817  89.353803     1.0706      8.051   185.6517 6.4156e+01     1.8530      3.663      5.313    26.5598 0.0000e+00
      3.754      0.091     6.8934     87.102     86.474  88.982815     1.0791      8.050   185.5585 6.3475e+01     1.8732      3.682      5.340    26.5124 0.0000e+00
      3.773      0.092     6.9045     87.569     86.134  88.593467     1.0810      8.050   185.8422 6.2694e+01     1.9104      3.698      5.364    26.4765 0.0000e+00
      3.795      0.094     6.9189     87.966     85.952  88.333656     1.1180      8.051   186.4148 6.1726e+01     2.0289      3.719      5.395    26.4593 0.0000e+00
      3.821      0.095     6.9574     88.428     85.972  88.257239     1.1940      8.052   186.8043 6.0588e+01     2.2466      3.746      5.432    26.4554 0.0000e+00
      3.850      0.092     7.0134     88.911     86.102  88.305118     1.2261      8.053   186.8510 5.9377e+01     2.3230      3.777      5.478    26.4489 0.0000e+00
      3.879      0.087     7.0514     89.331     86.182  88.340247     1.2066      8.053   186.8075 5.8357e+01     2.2692      3.807      5.522    26.4286 0.0000e+00
      3.903      0.079     7.0807     89.711     86.159  88.300462     1.1910      8.053   186.8809 5.7615e+01     2.2794      3.829      5.554    26.3866 0.0000e+00
      3.919      0.070     7.1308     90.090     86.020  88.141929     1.1965      8.053   187.1358 5.7021e+01     2.3436      3.844      5.575    26.3205 0.0000e+00
      3.931      0.064     7.1810     90.462     85.877  87.949229     1.2142      8.053   187.3093 5.6435e+01     2.3964      3.855      5.591    26.2629 0.0000e+00
      3.942      0.062     7.2151     90.771     85.883  87.877711     1.2217      8.053   187.1711 5.5754e+01     2.4059      3.865      5.606    26.2386 0.0000e+00
      3.957      0.064     7.2459     90.985     85.999  87.912835     1.2115      8.054   187.0991 5.4919e+01     2.3564      3.879      5.625    26.2351 0.0000e+00
      3.974      0.068     7.2759     91.161     86.081  87.928755     1.2077      8.054   187.1272 5.3966e+01     2.3098      3.897      5.652    26.2357 0.0000e+00
      3.994      0.074     7.3117     91.283     86.077  87.879367     1.2089      8.055   187.0807 5.2982e+01     2.3207      3.916      5.680    26.2072 0.0000e+00
      4.014      0.080     7.3465     91.213     86.059  87.824220     1.2019      8.056   187.1393 5.2031e+01     2.3514      3.937      5.710    26.1549 0.0000e+00
      4.034      0.084     7.3662     90.924     86.046  87.770522     1.1982      8.057   187.2339 5.1164e+01     2.3730      3.956      5.738    26.1035 0.0000e+00
      4.056      0.088     7.3863     90.563     85.996  87.675052     1.2052      8.057   187.1920 5.0268e+01     2.3768      3.976      5.766    26.0596 0.0000e+00
      4.081      0.090     7.4053     90.183     85.929  87.559867     1.2192      8.055   187.1481 4.9285e+01     2.3981      4.003      5.805    26.0400 0.0000e+00
      4.105      0.090     7.4042     89.730     85.879  87.458511     1.2262      8.055   187.2199 4.8329e+01     2.4250      4.027      5.840    26.0219 0.0000e+00
      4.129      0.091     7.3763     89.250     85.813  87.339507     1.2151      8.054   187.2849 4.7397e+01     2.3608      4.048      5.871    25.9955 0.0000e+00
      4.152      0.092     7.3489     88.860     85.736  87.201654     1.2012      8.053   187.4187 4.6532e+01     2.2367      4.073      5.906    25.9710 0.0000e+00
      4.174      0.095     7.3265     88.686     85.738  87.126674     1.1999      8.053   187.7190 4.5798e+01     2.1883      4.093      5.937    25.9426 0.0000e+00
      4.195      0.100     7.2905     88.771     85.770  87.068542     1.1998      8.052   187.9905 4.5109e+01     2.1853      4.113      5.965    25.9139 0.0000e+00
      4.220      0.104     7.2523     89.018     85.742  86.943638     1.2257      8.052   188.2069 4.4388e+01     2.1668      4.136      5.999    25.8841 0.0000e+00
      4.250      0.105     7.2204     89.275     85.732  86.824182     1.2878      8.052   188.4420 4.3619e+01     2.1690      4.165      6.042    25.8531 0.0000e+00
      4.282      0.103     7.2105     89.435     85.782  86.768326     1.3259      8.052   188.5955 4.2856e+01     2.1434      4.200      6.093    25.8065 0.0000e+00
      4.312      0.098     7.2282     89.452     85.862  86.776700     1.3284      8.053   188.6870 4.2200e+01     2.0964      4.231      6.137    25.7507 0.0000e+00
      4.336      0.091     7.2607     89.363     85.921  86.798170     1.3185      8.053   188.9459 4.1693e+01     2.0110      4.254      6.170    25.6987 0.0000e+00
      4.355      0.082     7.2932     89.278     85.914  86.773589     1.3064      8.052   189.3160 4.1268e+01     1.8627      4.272      6.196    25.6307 0.0000e+00
      4.371      0.073     7.3173     89.239     85.887  86.733751     1.3059      8.052   189.5487 4.0850e+01     1.8067      4.286      6.216    25.5603 0.0000e+00
      4.389      0.066     7.3237     89.242     85.872  86.697899     1.3218      8.051   189.6086 4.0460e+01     1.8453      4.304      6.242    25.5189 0.0000e+00
      4.407      0.062     7.3136     89.289     85.860  86.657920     1.3398      8.050   189.5236 4.0125e+01     1.8853      4.323      6.270    25.5006 0.0000e+00
      4.422      0.062     7.3074     89.370     85.874  86.631749     1.3576      8.048   189.4674 3.9841e+01     1.9154      4.338      6.291    25.4931 0.0000e+00
      4.434      0.066     7.3051     89.436     85.943  86.635698     1.3786      8.047   189.7037 3.9560e+01     1.9354      4.348      6.306    25.4902 0.0000e+00
      4.448      0.072     7.3069     89.422     86.037  86.641986     1.3779      8.047   190.1432 3.9234e+01     1.9222      4.361      6.325    25.4755 0.0000e+00
      4.465      0.079     7.3127     89.280     86.147  86.644071     1.3649      8.047   190.3942 3.8882e+01     1.8587      4.378      6.349    25.4594 0.0000e+00
      4.487      0.085     7.3233     88.962     86.289  86.660756     1.3470      8.047   190.4150 3.8440e+01     1.7824      4.397      6.377    25.4433 0.0000e+00
      4.514      0.089     7.3370     88.394     86.401  86.652820     1.3280      8.047   190.4805 3.7901e+01     1.7164      4.427      6.420    25.3997 0.0000e+00
      4.544      0.089     7.3435     87.504     86.473  86.611507     1.3339      8.046   190.6702 3.7423e+01     1.6754      4.459      6.467    25.3491 0.0000e+00
      4.568      0.086     7.3413     86.366     86.536  86.542494     1.3440      8.045   190.9025 3.7042e+01     1.6630      4.481      6.499    25.2895 0.0000e+00
      4.587      0.083     7.3280     85.162     86.534  86.390333     1.3508      8.044   191.1379 3.6744e+01     1.6345      4.499      6.526    25.2057 0.0000e+00
      4.604      0.082     7.2946     83.950     86.363  86.042914     1.3659      8.043   191.2790 3.6528e+01     1.5705      4.516      6.550    25.1366 0.0000e+00
      4.619      0.085     7.2267     82.726     86.074  85.520062     1.3682      8.041   191.3176 3.6256e+01     1.5723      4.530      6.569    25.0809 0.0000e+00
      4.638      0.090     7.1343     81.536     85.878  85.026520     1.3706      8.039   191.4336 3.5817e+01     1.6571      4.547      6.594    25.0011 0.0000e+00
      4.663      0.096     7.0465     80.405     85.844  84.651884     1.4272      8.038   191.6484 3.5299e+01     1.8431      4.571      6.631    24.9125 0.0000e+00
      4.693      0.101     6.9592     79.409     85.966  84.422385     1.5125      8.037   192.0224 3.4780e+01     2.1134      4.602      6.674    24.8244 0.0000e+00
      4.725      0.102     6.8720     78.711     86.215  84.348776     1.5523      8.037   192.5990 3.4273e+01     2.1930      4.635      6.722    24.6859 0.0000e+00
      4.754      0.098     6.7964     78.379     86.462  84.333494     1.5598      8.036   193.0284 3.3845e+01     2.1220      4.665      6.765    24.5060 0.0000e+00
      4.778      0.091     6.7262     78.328     86.545  84.237237     1.5775      8.035   193.0837 3.3467e+01     2.0755      4.686      6.796    24.3035 0.0000e+00
      4.798      0.082     6.6621     78.413     86.434  84.011007     1.5996      8.034   193.2687 3.3101e+01     1.9714      4.706      6.826    24.0882 0.0000e+00
      4.818      0.075     6.6242     78.463     86.304  83.759137     1.6026      8.032   193.7158 3.2798e+01     1.8888      4.727      6.856    23.9006 0.0000e+00
      4.833      0.070     6.6199     78.441     86.242  83.543531     1.5966      8.031   193.9293 3.2557e+01     1.8962      4.741      6.876    23.7466 0.0000e+00
      4.848      0.070     6.6311     78.437     86.229  83.374318     1.5940      8.031   193.9581 3.2315e+01     1.9245      4.754      6.895    23.6439 0.0000e+00
      4.864      0.072     6.6513     78.496     86.244  83.238431     1.5875      8.029   194.1493 3.2029e+01     1.9568      4.770      6.919    23.5980 0.0000e+00
      4.883      0.077     6.6657     78.618     86.259  83.107966     1.5848      8.027   194.5202 3.1704e+01     1.9455      4.788      6.944    23.5310 0.0000e+00
      4.904      0.083     6.6706     78.774     86.289  83.004307     1.5783      8.025   194.6567 3.1345e+01     1.8903      4.809      6.974    23.4261 0.0000e+00
      4.926      0.090     6.6822     78.947     86.272  82.874743     1.6170      8.023   194.5096 3.0948e+01     2.1091      4.831      7.006    23.3389 0.0000e+00
      4.950      0.095     6.6973     79.151     86.187  82.685325     1.7202      8.022   194.3757 3.0537e+01     2.6094      4.854      7.040    23.2517 0.0000e+00
      4.975      0.098     6.7200     79.377     86.130  82.493568     1.7854      8.020   194.3292 3.0126e+01     2.9186      4.879      7.076    23.1648 0.0000e+00
      5.001      0.098     6.7448     79.589     86.142  82.335654     1.7981      8.019   194.4636 2.9683e+01     3.0117      4.904      7.113    23.0866 0.0000e+00
      5.029      0.097     6.7657     79.737     86.224  82.237587     1.7983      8.018   194.8823 2.9240e+01     3.0518      4.932      7.153    23.0223 0.0000e+00
      5.056      0.095     6.7910     79.822     86.361  82.197404     1.7963      8.017   195.3475 2.8864e+01     3.1993      4.961      7.195    22.9717 0.0000e+00
      5.079      0.095     6.8208     79.852     86.502  82.167341     1.8151      8.015   195.5284 2.8533e+01     3.4970      4.983      7.227    22.8913 0.0000e+00
      5.099      0.096     6.8562     79.807     86.560  82.064541     1.8426      8.013   195.6926 2.8205e+01     3.6449      4.999      7.250    22.7856 0.0000e+00
      5.120      0.098     6.8818     79.685     86.561  81.907590     1.8635      8.012   195.9558 2.7838e+01     3.6895      5.019      7.279    22.6805 0.0000e+00
      5.145      0.099     6.9004     79.390     86.618  81.794789     1.9420      8.009   196.0437 2.7404e+01     3.9345      5.043      7.315    22.5829 0.0000e+00
      5.175      0.098     6.9187     78.835     86.713  81.717340     2.0763      8.007   196.0678 2.6944e+01     4.2839      5.074      7.359    22.4877 0.0000e+00
      5.205      0.093     6.9240     78.158     86.819  81.670033     2.1392      8.006   196.2477 2.6484e+01     4.4304      5.107      7.406    22.3968 0.0000e+00
      5.233      0.081     6.9287     77.532     86.927  81.667485     2.1287      8.004   196.4117 2.6085e+01     4.4068      5.135      7.447    22.3096 0.0000e+00
      5.255      0.066     6.9226     77.044     87.009  81.686392     2.1063      8.002   196.4155 2.5848e+01     4.3404      5.156      7.478    22.2123 0.0000e+00
      5.268      0.049     6.8795     76.715     87.047  81.707894     2.0858      8.000   196.4650 2.5750e+01     4.2768      5.169      7.496    22.1103 0.0000e+00
      5.274      0.034     6.8269     76.472     87.035  81.736778     2.0888      7.999   196.5807 2.5710e+01     4.2526      5.172      7.502    22.0198 0.0000e+00
      5.276      0.023     6.7791     76.330     86.994  81.781452     2.1008      7.996   196.6961 2.5669e+01     4.2185      5.174      7.504    21.9593 0.0000e+00
      5.279      0.016     6.7366     76.378     86.922  81.803268     2.1143      7.992   196.8280 2.5579e+01     4.2055      5.176      7.508    21.9300 0.0000e+00
      5.283      0.013     6.7158     76.569     86.857  81.810018     2.1350      7.989   196.8848 2.5453e+01     4.2321      5.180      7.514    21.9153 0.0000e+00
      5.287      0.011     6.6906     76.779     86.886  81.863161     2.1438      7.985   196.9525 2.5347e+01     4.2331      5.184      7.519    21.9397 0.0000e+00
      5.289      0.010     6.6642     76.943     86.972  81.937401     2.1371      7.984   197.1298 2.5242e+01     4.1829      5.187      7.524    22.0004 0.0000e+00
      5.291      0.009     6.6648     77.051     87.049  82.008518     2.1460      7.983   197.3079 2.5115e+01     4.1383      5.189      7.526    22.0521 0.0000e+00
      5.294      0.007     6.6804     77.132     87.110  82.087457     2.1759      7.981   197.4711 2.4991e+01     4.1380      5.192      7.530    22.1008 0.0000e+00
      5.296      0.005     6.6983     77.232     87.098  82.129189     2.1991      7.977   197.6406 2.4896e+01     4.1792      5.194      7.533    22.1134 0.0000e+00
      5.297      0.004     6.7155     77.346     87.025  82.131837     2.2100      7.974   197.7225 2.4834e+01     4.2261      5.194      7.533    22.0958 0.0000e+00
      5.297      0.003     6.7237     77.423     86.942  82.119579     2.2080      7.973   197.6870 2.4803e+01     4.1591      5.195      7.534    22.0968 0.0000e+00
      5.297      0.003     6.7277     77.466     86.873  82.108182     2.1919      7.971   197.7279 2.4787e+01     4.0177      5.195      7.534    22.1030 0.0000e+00
      5.298      0.003     6.7322     77.551     86.843  82.121226     2.1812      7.968   197.8727 2.4747e+01     3.9517      5.195      7.535    22.1373 0.0000e+00
      5.298      0.004     6.7382     77.688     86.835  82.150246     2.1872      7.966   197.8895 2.4630e+01     3.9414      5.196      7.536    22.1863 0.0000e+00
      5.299      0.004     6.7411     77.837     86.852  82.204881     2.1974      7.964   197.9305 2.4399e+01     3.9621      5.196      7.537    22.2240 0.0000e+00
      5.301      0.002     6.7360     78.002     86.870  82.273398     2.2053      7.962   198.1961 2.4110e+01     3.9969      5.198      7.541    22.2546 0.0000e+00
      5.303     -0.006     6.7403     78.133     86.812  82.279624     2.2068      7.958   198.4339 2.3833e+01     4.0209      5.201      7.544    22.2778 0.0000e+00
      5.304     -0.024     6.7540     78.202     86.835  82.343806     2.1997      7.954   198.4827 2.3689e+01     4.0128      5.203      7.546    22.2963 0.0000e+00
      5.304     -0.056     6.7603     78.234     87.117  82.668124     2.1849      7.951   198.6137 2.3991e+01     3.9325      5.204      7.547    22.3174 0.0000e+00
      5.297     -0.098     6.7750     78.297     87.431  83.150189     2.0787      7.948   198.8993 2.4819e+01     3.7678      5.200      7.541    22.3436 0.0000e+00
      5.274     -0.141     6.7817     78.515     87.478  83.532842     1.8892      7.944   199.0108 2.5854e+01     3.5933      5.181      7.515    22.3900 0.0000e+00
      5.226     -0.176     6.7819     78.914     87.229  83.672302     1.7911      7.940   199.0155 2.6894e+01     3.4963      5.133      7.446    22.4148 0.0000e+00
      5.158     -0.201     6.7868     79.456     86.946  83.692847     1.7913      7.936   199.2997 2.7973e+01     3.4479      5.060      7.340    22.4074 0.0000e+00
      5.084     -0.214     6.7704     80.062     86.850  83.781669     1.7835      7.932   199.6941 2.9017e+01     3.3161      4.981      7.224    22.5069 0.0000e+00
      5.021     -0.214     6.7631     80.638     86.925  83.983757     1.7553      7.928   199.7408 2.9821e+01     3.0984      4.917      7.131    22.7312 0.0000e+00
      4.976     -0.209     6.7651     81.128     87.103  84.293147     1.7337      7.923   199.5193 3.0440e+01     3.0019      4.877      7.074    22.9809 0.0000e+00
      4.936     -0.203     6.7919     81.513     87.280  84.662327     1.7137      7.919   199.3394 3.1113e+01     2.9697      4.842      7.023    23.1508 0.0000e+00
      4.893     -0.201     6.8374     81.859     87.351  85.015290     1.6717      7.916   199.3727 3.1916e+01     2.8791      4.801      6.963    23.2361 0.0000e+00
      4.842     -0.204     6.8773     82.199     87.254  85.255828     1.6250      7.913   199.4915 3.2860e+01     2.8285      4.751      6.890    23.3028 0.0000e+00
      4.782     -0.208     6.9144     82.504     87.099  85.409908     1.6160      7.910   199.5711 3.3913e+01     2.8704      4.690      6.802    23.3671 0.0000e+00
      4.719     -0.210     6.9278     82.783     87.064  85.607382     1.6290      7.908   199.7336 3.4892e+01     2.9077      4.625      6.708    23.4752 0.0000e+00
      4.662     -0.209     6.9347     83.048     87.184  85.927487     1.6408      7.906   199.9939 3.5702e+01     2.8016      4.567      6.624    23.6434 0.0000e+00
      4.614     -0.205     6.9381     83.298     87.304  86.292841     1.6589      7.904   200.2233 3.6428e+01     2.6122      4.523      6.561    23.8575 0.0000e+00
      4.569     -0.199     6.9380     83.566     87.171  86.465348     1.6724      7.903   200.1839 3.7185e+01     2.5301      4.482      6.501    24.0462 0.0000e+00
      4.520     -0.193     6.9458     83.874     86.853  86.424483     1.6710      7.902   199.9472 3.8063e+01     2.5267      4.434      6.431    24.1633 0.0000e+00
      4.467     -0.191     6.9558     84.137     86.634  86.371296     1.6508      7.901   199.7705 3.8979e+01     2.4683      4.380      6.352    24.2630 0.0000e+00
      4.416     -0.192     6.9588     84.310     86.574  86.394646     1.6273      7.901   199.7675 3.9781e+01     2.4054      4.327      6.277    24.3954 0.0000e+00
      4.369     -0.194     6.9523     84.480     86.559  86.452645     1.6199      7.901   199.8253 4.0546e+01     2.4145      4.285      6.215    24.5962 0.0000e+00
      4.324     -0.196     6.9592     84.712     86.512  86.500535     1.6196      7.901   199.7812 4.1429e+01     2.4082      4.242      6.154    24.7776 0.0000e+00
      4.274     -0.199     6.9728     84.983     86.442  86.528831     1.6152      7.902   199.8370 4.2395e+01     2.2947      4.193      6.082    24.8605 0.0000e+00
      4.222     -0.203     6.9783     85.268     86.377  86.540636     1.6089      7.902   199.9832 4.3410e+01     2.1350      4.141      6.006    24.8902 0.0000e+00
      4.168     -0.208     6.9861     85.582     86.370  86.579820     1.6099      7.902   199.9142 4.4515e+01     2.0492      4.087      5.928    24.9246 0.0000e+00
      4.114     -0.214     6.9987     85.919     86.442  86.684824     1.6106      7.902   199.6910 4.5703e+01     2.0766      4.034      5.851    24.9872 0.0000e+00
      4.060     -0.221     7.0143     86.247     86.506  86.793148     1.5845      7.902   199.5215 4.6966e+01     2.1243      3.983      5.777    25.0502 0.0000e+00
      4.005     -0.229     7.0306     86.505     86.515  86.872484     1.5351      7.903   199.4136 4.8415e+01     2.1138      3.928      5.696    25.0953 0.0000e+00
      3.947     -0.237     7.0537     86.651     86.480  86.944897     1.5041      7.903   199.3333 5.0136e+01     2.0866      3.871      5.614    25.1205 0.0000e+00
      3.886     -0.243     7.0810     86.756     86.379  86.969577     1.5015      7.904   199.4965 5.2218e+01     2.0690      3.814      5.531    25.1288 0.0000e+00
      3.819     -0.245     7.1062     86.886     86.304  86.980368     1.4952      7.906   199.9244 5.4571e+01     2.0370      3.746      5.434    25.1557 0.0000e+00
      3.751     -0.245     7.1257     87.032     86.293  87.011941     1.4608      7.906   200.0326 5.6778e+01     1.9736      3.674      5.330    25.1930 0.0000e+00
      3.686     -0.242     7.1260     87.209     86.346  87.097095     1.4106      7.907   199.6003 5.8655e+01     1.9176      3.613      5.240    25.2527 0.0000e+00
      3.626     -0.241     7.1189     87.417     86.588  87.374283     1.3880      7.909   199.2579 6.0198e+01     1.9398      3.555      5.156    25.3507 0.0000e+00
      3.570     -0.241     7.1262     87.613     87.065  87.947685     1.3951      7.911   199.6787 6.1547e+01     1.9689      3.500      5.076    25.3963 0.0000e+00
      3.514     -0.243     7.1350     87.834     87.393  88.499212     1.4217      7.911   200.2138 6.2988e+01     1.9287      3.448      5.002    25.4084 0.0000e+00
      3.453     -0.246     7.1454     88.144     87.181  88.575635     1.4600      7.912   200.0491 6.4629e+01     1.8635      3.389      4.917    25.4334 0.0000e+00
      3.385     -0.250     7.1652     88.491     86.765  88.363597     1.4835      7.913   199.8378 6.6429e+01     1.8295      3.321      4.816    25.4396 0.0000e+00
      3.315     -0.252     7.1756     88.709     86.560  88.224560     1.4896      7.914   199.8968 6.8200e+01     1.8242      3.250      4.712    25.4658 0.0000e+00
      3.249     -0.254     7.1725     88.664     86.645  88.293319     1.4496      7.916   199.8148 6.9749e+01     1.8683      3.184      4.618    25.6044 0.0000e+00
      3.187     -0.254     7.1714     88.401     86.930  88.559156     1.3752      7.916   199.5349 7.1139e+01     1.9868      3.125      4.533    25.8183 0.0000e+00
      3.127     -0.254     7.1877     88.092     87.294  88.959256     1.3390      7.917   199.3519 7.2617e+01     2.0953      3.068      4.449    25.9501 0.0000e+00
      3.064     -0.253     7.2084     87.880     87.611  89.379889     1.3360      7.918   199.4949 7.4242e+01     2.1558      3.006      4.359    25.9726 0.0000e+00
      2.999     -0.249     7.2060     87.782     87.729  89.639715     1.3059      7.919   199.7154 7.5905e+01     2.1037      2.942      4.267    25.9450 0.0000e+00
      2.930     -0.243     7.1821     87.721     87.752  89.812176     1.2418      7.921   199.8675 7.7596e+01     1.9429      2.873      4.167    25.9181 0.0000e+00
      2.862     -0.236     7.1504     87.591     87.792  90.002986     1.2023      7.921   200.2155 7.9218e+01     1.8519      2.802      4.064    25.9312 0.0000e+00
      2.802     -0.227     7.1253     87.355     87.747  90.103181     1.1939      7.922   200.5683 8.0570e+01     1.8567      2.744      3.981    25.9943 0.0000e+00
      2.752     -0.221     7.1083     87.084     87.472  89.942975     1.1572      7.923   200.5187 8.1806e+01     1.8311      2.698      3.913    26.0840 0.0000e+00
      2.703     -0.216     7.0961     86.799     87.203  89.719236     1.0912      7.925   200.1315 8.3227e+01     1.7466      2.652      3.847    26.1653 0.0000e+00
      2.651     -0.216     7.0767     86.424     87.323  89.814123     1.0534      7.925   199.6723 8.4881e+01     1.6888      2.602      3.774    26.2537 0.0000e+00
      2.595     -0.220     7.0424     86.004     87.660  90.136485     1.0417      7.926   199.6133 8.6753e+01     1.6439      2.545      3.692    26.3395 0.0000e+00
      2.535     -0.227     7.0090     85.699     87.881  90.437807     1.0157      7.926   199.7620 8.8667e+01     1.5801      2.485      3.604    26.4195 0.0000e+00
      2.475     -0.234     6.9859     85.583     87.935  90.659909     0.9817      7.925   199.5774 9.0497e+01     1.5322      2.426      3.519    26.4611 0.0000e+00
      2.416     -0.241     6.9598     85.590     87.879  90.787533     0.9622      7.925   199.4461 9.2504e+01     1.5430      2.370      3.438    26.4189 0.0000e+00
      2.356     -0.247     6.9238     85.580     87.781  90.836703     0.9639      7.928   199.3787 9.4857e+01     1.6082      2.311      3.352    26.3791 0.0000e+00
      2.293     -0.254     6.8917     85.460     87.633  90.809564     0.9859      7.930   199.0212 9.7452e+01     1.6029      2.250      3.263    26.4267 0.0000e+00
      2.226     -0.261     6.8702     85.283     87.432  90.713925     1.0194      7.931   198.6512 1.0033e+02     1.5134      2.185      3.170    26.5407 0.0000e+00
      2.157     -0.266     6.8608     85.136     87.292  90.634273     1.0442      7.932   198.8628 1.0354e+02     1.4483      2.114      3.067    26.6600 0.0000e+00
      2.086     -0.266     6.8541     84.982     87.251  90.609602     1.0448      7.933   199.2571 1.0694e+02     1.3963      2.046      2.966    26.7394 0.0000e+00
      2.016     -0.262     6.8342     84.778     87.226  90.606401     1.0262      7.935   199.1162 1.1051e+02     1.3291      1.976      2.867    26.8022 0.0000e+00
      1.947     -0.257     6.8055     84.603     87.182  90.595609     0.9776      7.937   199.0520 1.1412e+02     1.2508      1.906      2.765    26.8837 0.0000e+00
      1.883     -0.253     6.7919     84.519     87.167  90.606335     0.8987      7.939   198.9973 1.1762e+02     1.2007      1.844      2.674    26.9215 0.0000e+00
      1.825     -0.251     6.7836     84.473     87.201  90.672556     0.8543      7.943   198.4553 1.2127e+02     1.2363      1.789      2.595    26.9125 0.0000e+00
      1.765     -0.251     6.7614     84.433     87.219  90.760506     0.8568      7.945   197.9193 1.2532e+02     1.2371      1.733      2.513    26.9263 0.0000e+00
      1.702     -0.254     6.7409     84.447     87.190  90.843263     0.8544      7.946   197.7639 1.2983e+02     1.1418      1.670      2.421    26.9565 0.0000e+00
      1.636     -0.256     6.7365     84.554     87.125  90.910348     0.8417      7.947   197.8669 1.3499e+02     1.0743      1.604      2.327    26.9660 0.0000e+00
      1.567     -0.256     6.7333     84.710     87.035  90.936007     0.8450      7.949   198.0474 1.4077e+02     1.0703      1.539      2.231    26.9744 0.0000e+00
      1.496     -0.252     6.7225     84.824     86.926  90.899358     0.8524      7.951   198.2251 1.4670e+02     1.0938      1.465      2.125    27.0150 0.0000e+00
      1.429     -0.246     6.7145     84.892     86.852  90.848852     0.8228      7.953   198.3799 1.5250e+02     1.1192      1.396      2.026    27.0827 0.0000e+00
      1.370     -0.239     6.7127     84.954     86.848  90.834058     0.7706      7.956   198.4568 1.5870e+02     1.1373      1.343      1.948    27.1704 0.0000e+00
      1.315     -0.231     6.7216     85.001     86.877  90.847629     0.7451      7.958   198.2951 1.6616e+02     1.1425      1.291      1.872    27.2436 0.0000e+00
      1.258     -0.224     6.7240     85.016     86.925  90.885752     0.7474      7.961   197.8876 1.7571e+02     1.1485      1.233      1.789    27.2892 0.0000e+00
      1.201     -0.218     6.7251     84.963     86.959  90.913487     0.7492      7.964   197.4871 1.8858e+02     1.1750      1.177      1.708    27.3042 0.0000e+00
      1.145     -0.213     6.7342     84.834     86.965  90.928637     0.7416      7.966   197.4106 2.0361e+02     1.1558      1.123      1.629    27.2861 0.0000e+00
      1.089     -0.207     6.7382     84.701     86.954  90.941769     0.7311      7.968   197.7372 2.1596e+02     1.0872      1.067      1.548    27.2775 0.0000e+00
      1.036     -0.195     6.7416     84.600     86.929  90.945139     0.7220      7.971   197.8221 2.2623e+02     1.0636      1.014      1.471    27.2721 0.0000e+00
      0.986     -0.180     6.7399     84.485     86.924  90.969434     0.7220      7.974   197.4047 2.3639e+02     1.1086      0.967      1.403    27.2632 0.0000e+00
      0.938     -0.164     6.7255     84.380     86.908  90.981235     0.7315      7.977   197.5085 2.4254e+02     1.1533      0.918      1.333    27.2691 0.0000e+00
      0.897     -0.148     6.7110     84.366     86.873  90.960702     0.7451      7.980   198.3888 2.4666e+02     1.1598      0.874      1.268    27.2856 0.0000e+00
      0.866     -0.131     6.7045     84.426     86.887  90.975535     0.7527      7.984   199.0136 2.5358e+02     1.1535      0.848      1.230    27.3046 0.0000e+00
      0.839     -0.112     6.6927     84.481     86.935  91.033406     0.7323      7.989   198.5239 2.6860e+02     1.0765      0.826      1.198    27.3186 0.0000e+00
      0.809     -0.090     6.6774     84.496     86.960  91.088172     0.6983      7.993   197.6308 2.8817e+02     0.9467      0.794      1.150    27.3393 0.0000e+00
      0.782     -0.066     6.6761     84.464     86.957  91.129077     0.6828      7.998   197.8521 2.9759e+02     0.8823      0.761      1.105    27.3520 0.0000e+00
      0.765     -0.042     6.6851     84.401     86.924  91.146549     0.6793      8.003   198.7903 2.9558e+02     0.8785      0.747      1.085    27.3437 0.0000e+00
      0.759     -0.020     6.6897     84.361     86.847  91.108752     0.6714      8.008   199.2519 2.9068e+02     0.9000      0.743      1.077    27.3452 0.0000e+00
      0.762     -0.004     6.6888     84.383     86.787  91.053652     0.6535      8.012   199.3029 2.8702e+02     0.9375      0.743      1.078    27.3639 0.0000e+00
      0.774      0.001     6.6832     84.448     86.811  91.052616     0.6470      8.016   199.3211 2.7827e+02     0.9906      0.760      1.101    27.3898 0.0000e+00
      0.785     -0.007     6.6725     84.520     86.874  91.096180     0.6587      8.020   199.2145 2.6465e+02     1.0299      0.774      1.120    27.4225 0.0000e+00
      0.787     -0.020     6.6635     84.615     86.907  91.135256     0.6534      8.024   198.9604 2.5796e+02     1.0024      0.776      1.125    27.4558 0.0000e+00
      0.777     -0.030     6.6657     84.740     86.897  91.143585     0.6330      8.027   198.8298 2.5488e+02     0.9321      0.768      1.114    27.4612 0.0000e+00
      0.756     -0.025     6.6759     84.866     86.877  91.133335     0.6281      8.032   198.8402 2.5158e+02     0.8975      0.744      1.079    27.4339 0.0000e+00
      0.730     -0.005     6.6825     84.946     86.884  91.138507     0.6370      8.036   198.7413 2.5938e+02     0.9251      0.712      1.033    27.4156 0.0000e+00
      0.715      0.024     6.6884     84.919     86.888  91.142518     0.6481      8.041   198.5804 2.8474e+02     0.9584      0.692      1.003    27.4235 0.0000e+00
      0.727      0.047     6.6981     84.795     86.849  91.118250     0.6793      8.045   198.4437 3.0668e+02     1.0261      0.701      1.016    27.4391 0.0000e+00
      0.767      0.057     6.7076     84.663     86.814  91.099448     0.7238      8.049   198.2930 2.9976e+02     1.1288      0.746      1.083    27.4471 0.0000e+00
      0.817      0.055     6.7175     84.603     86.823  91.105973     0.7356      8.052   198.3075 2.7459e+02     1.1413      0.810      1.175    27.4419 0.0000e+00
      0.845      0.046     6.7158     84.629     86.863  91.133550     0.7223      8.054   198.3602 2.5699e+02     1.1095      0.845      1.226    27.4360 0.0000e+00
      0.835      0.031     6.7005     84.669     86.912  91.178524     0.7213      8.056   198.2418 2.5387e+02     1.1197      0.828      1.200    27.4516 0.0000e+00
      0.808      0.016     6.6862     84.696     86.923  91.204643     0.7227      8.058   198.1672 2.4977e+02     1.1281      0.785      1.138    27.4680 0.0000e+00
      0.796      0.005     6.6806     84.734     86.888  91.195037     0.7227      8.060   198.1457 2.3766e+02     1.1428      0.769      1.116    27.4623 0.0000e+00
      0.811      0.001     6.6881     84.756     86.862  91.189587     0.7378      8.061   197.9819 2.2697e+02     1.1949      0.793      1.150    27.4491 0.0000e+00
      0.833      0.000     6.6932     84.778     86.864  91.202371     0.7398      8.064   197.7354 2.2525e+02     1.1782      0.823      1.193    27.4427 0.0000e+00
      0.844     -0.007     6.6909     84.840     86.879  91.222455     0.7143      8.068   197.2305 2.3733e+02     1.0424      0.833      1.208    27.4527 0.0000e+00
      0.839     -0.025     6.6946     84.867     86.894  91.241682     0.6956      8.071   196.2659 2.4279e+02     0.9189      0.826      1.199    27.4742 0.0000e+00
      0.822     -0.048     6.6938     84.780     86.893  91.244097     0.6886      8.071   195.3647 2.1927e+02     0.8811      0.808      1.173    27.4880 0.0000e+00
      0.798     -0.066     6.6920     84.615     86.899  91.251660     0.6706      8.072   194.8515 1.8432e+02     0.8931      0.782      1.135    27.4909 0.0000e+00
      0.773     -0.072     6.7003     84.438     86.910  91.269541     0.6534      8.075   194.5354 1.5782e+02     0.8929      0.756      1.097    27.4927 0.0000e+00
      0.751     -0.068     6.7057     84.297     86.899  91.269550     0.6546      8.079   194.2958 1.4049e+02     0.8784      0.736      1.067    27.4953 0.0000e+00
      0.734     -0.059     6.6959     84.243     86.872  91.251783     0.6513      8.082   194.1053 1.3013e+02     0.8886      0.718      1.041    27.4982 0.0000e+00
      0.721     -0.054     6.6808     84.239     86.862  91.245495     0.6218      8.083   193.9528 1.2209e+02     0.8799      0.706      1.023    27.4966 0.0000e+00
      0.712     -0.065     6.6667     84.228     86.876  91.257124     0.5817      8.084   193.6567 1.1400e+02     0.8413      0.695      1.008    27.4989 0.0000e+00
      0.708     -0.098     6.6508     84.276     86.888  91.265219     0.5658      8.086   193.0201 1.1187e+02     0.8658      0.693      1.006    27.5090 0.0000e+00
      0.702     -0.150     6.6477     84.455     86.903  91.279781     0.5710      8.088   192.1924 1.1757e+02     0.9370      0.697      1.010    27.5164 0.0000e+00
      0.672     -0.215     6.6507     84.660     86.927  91.306026     0.5779      8.091   191.4791 1.2476e+02     0.9509      0.674      0.978    27.5182 0.0000e+00
      0.605     -0.284     6.6472     84.777     86.942  91.328225     0.5905      8.094   191.0201 1.3586e+02     0.9315      0.607      0.880    27.5148 0.0000e+00
      0.503     -0.351     6.6468     84.829     86.955  91.357451     0.5990      8.096   191.3750 1.5492e+02     0.9416      0.498      0.721    27.5125 0.0000e+00
      0.387     -0.407     6.6657     84.846     86.979  91.405092     0.5974      8.099   193.1028 1.7897e+02     0.9709      0.377      0.547    27.5114 0.0000e+00
      0.271     -0.438     6.6876     84.835     87.006  91.459200     0.6126      8.103   193.7564 2.2182e+02     1.2166      0.267      0.389    27.5109 0.0000e+00
      0.155     -0.432     6.6926     84.748     87.022  91.503035     0.8161      8.108   192.2229 2.9143e+02     4.2196      0.152      0.221    27.5137 0.0000e+00
      0.033     -0.390     6.6959     84.418     86.987  91.490038     1.1943      8.111   190.9089 3.5180e+02     9.7822      0.036      0.052    27.5231 0.0000e+00
     -0.091     -0.326     6.6950     83.629     86.913  91.429259     1.4064      8.114   189.4840 3.6807e+02    12.8278     -0.098     -0.141    27.5380 0.0000e+00
     -0.186     -0.261     6.6925     82.303     86.883  91.404044     1.3991      8.115   186.3520 3.5202e+02    12.8625     -0.208     -0.302    27.5522 0.0000e+00
     -0.229     -0.214     6.6894     80.702     86.925  91.439523     1.0312      8.116   182.2072 3.2984e+02     9.7911     -0.237     -0.344    27.5683 0.0000e+00
     -0.234     -0.188     6.6682     79.326     86.984  91.476710     0.3544      8.120   181.2710 3.0907e+02     4.0789     -0.231     -0.335    27.5838 0.0000e+00
     -0.234     -0.173     6.6096     78.556     87.016  91.472128    -0.0173      8.126   185.6153 3.0726e+02     0.9450     -0.217     -0.315    27.5936 0.0000e+00
     -0.269     -0.167     6.4963     78.431     87.034  91.447646    -0.0597      8.128   191.1114 3.0758e+02     0.6279     -0.237     -0.343    27.5986 0.0000e+00
     -0.356     -0.165     6.3539     78.657     87.059  91.434976    -0.0837      8.129   195.0682 2.6751e+02     0.4155     -0.348     -0.504    27.5939 0.0000e+00
     -0.446     -0.158     6.2354     78.800     87.097  91.446037    -0.1156      8.131   197.8367 2.0589e+02     0.0847     -0.465     -0.674    27.5783 0.0000e+00
     -0.488     -0.134     6.1762     78.572     87.124  91.454174    -0.1283      8.133   199.7191 1.5964e+02    -0.0581     -0.489     -0.709    27.5555 0.0000e+00
     -0.496     -0.093     6.1788     78.019     87.154  91.469753    -0.1203      8.134   201.2225 1.3907e+02    -0.0130     -0.484     -0.703    27.5273 0.0000e+00
     -0.496     -0.047     6.2130     77.369     87.200  91.507198    -0.1109      8.135   202.5064 1.2280e+02    -0.0537     -0.487     -0.706    27.5041 0.0000e+00
     -0.495     -0.014     6.2359     76.703     87.225  91.525393    -0.1068      8.137   203.5414 1.0086e+02    -0.1745     -0.485     -0.703    27.4888 0.0000e+00
     -0.495     -0.002     6.2166     75.877     87.206  91.498980    -0.1119      8.138   204.1862 8.6666e+01    -0.2434     -0.486     -0.705    27.4769 0.0000e+00
     -0.495 -1.196e-09     6.1647     74.784     87.157  91.442165    -0.1224      8.138   204.2794 7.8845e+01    -0.2723     -0.484     -0.703    27.4686 0.0000e+00
     -0.495 -1.316e-08     6.1109     73.490     87.131  91.410717    -0.1257      8.137   204.2379 7.1515e+01    -0.2838     -0.485     -0.704    27.4623 0.0000e+00
     -0.496 -1.448e-07     6.0655     72.058     87.100  91.373082    -0.1197      8.135   204.2006 6.2189e+01    -0.2812     -0.486     -0.705    27.4578 0.0000e+00
     -0.496 -1.448e-07     6.0053     70.517     86.495  90.732770    -0.1162      8.135   204.1728 5.1691e+01    -0.2744     -0.486     -0.705    27.4542 0.0000e+00
     -0.496 -1.316e-08     5.9144     68.957     79.706  83.605164    -0.1155      8.135   204.1597 4.3288e+01    -0.2358     -0.486     -0.705    27.4507 0.0000e+00
     -0.496 -1.196e-09     5.8107     67.418     64.201  67.338262    -0.1115      8.135   204.0426 3.8964e+01    -0.2248     -0.486     -0.705    27.4490 0.0000e+00
     -0.496 -1.088e-10     5.6991     65.938     46.659  48.935524    -0.1099      8.136   204.1331 3.7642e+01    -0.2777     -0.486     -0.705    27.4472 0.0000e+00
     -0.495 -9.890e-12     5.5728     64.634     33.239  34.856623    -0.1209      8.138   204.5657 3.8134e+01    -0.3280     -0.486     -0.704    27.4431 0.0000e+00
     -0.495 -8.990e-13     5.4494     63.539     26.867  28.168103    -0.1282      8.140   204.6275 4.2117e+01    -0.3207     -0.486     -0.704    27.4389 0.0000e+00
     -0.495 -8.170e-14     5.3294     62.630     24.588  25.774091    -0.1066      8.139   204.3641 4.8952e+01    -0.2577     -0.486     -0.705    27.4371 0.0000e+00
     -0.495 -7.430e-15     5.2063     61.967     20.758  21.756187    -0.0759      8.138   205.1656 5.2148e+01    -0.2507     -0.485     -0.704    27.4339 0.0000e+00
     -0.495 -6.755e-16     5.1043     61.621     14.140  14.818051    -0.0643      8.137   208.2963 4.8049e+01    -0.3038     -0.486     -0.704    27.4257 0.0000e+00
     -0.495 -6.140e-17     5.0214     61.564      8.263   8.658475    -0.0670      8.132   210.1243 4.1642e+01    -0.3187     -0.486     -0.705    27.4142 0.0000e+00
     -0.495 -5.580e-18     4.9470     61.626      6.570   6.884497    -0.0745      8.132   206.7915 4.0637e+01    -0.3282     -0.486     -0.704    27.4028 0.0000e+00
     -0.495 -5.075e-19     4.8936     61.649      7.753   8.124085    -0.0885      8.135   196.6505 4.9191e+01    -0.3511     -0.486     -0.704    27.3950 0.0000e+00
     -0.495 -4.651e-20     4.8658     61.586     10.481  10.982299    -0.1121      8.140   187.5728 6.2468e+01    -0.3560     -0.486     -0.705    27.3907 0.0000e+00
     -0.495 -8.387e-21     4.8686     61.533     12.352  12.942243    -0.1264      8.146   185.7403 6.9503e+01    -0.3536     -0.485     -0.704    27.3887 0.0000e+00
     -0.495 -9.990e-29     4.8782 -9.990e-29 -9.990e-29 -9.990e-29 -9.990e-29 -9.990e-29 -9.990e-29 6.8970e+01 -9.990e-29     -0.486     -0.704    27.3870 0.0000e+00
     -0.495 -9.990e-29     4.8814 -9.990e-29 -9.990e-29 -9.990e-29 -9.990e-29 -9.990e-29 -9.990e-29 6.5755e+01 -9.990e-29     -0.486     -0.704    27.3855 0.0000e+00
     -0.495 -9.990e-29     4.8744 -9.990e-29 -9.990e-29 -9.990e-29 -9.990e-29 -9.990e-29 -9.990e-29 6.2404e+01 -9.990e-29     -0.486     -0.704    27.3830 0.0000e+00
     -0.495 -9.990e-29     4.8630 -9.990e-29 -9.990e-29 -9.990e-29 -9.990e-29 -9.990e-29 -9.990e-29 6.1029e+01 -9.990e-29     -0.485     -0.704    27.3811 0.0000e+00
