* Sea-Bird SBE19plus  Data File:
* FileName = C:\R\Reservoirs\Data\DataNotYetUploadedToEDI\Raw_CTD\RawDownloads\070722_ccr50_SBE19plus01907809_0005.hex
* Software version 2.8.0.119
* Temperature SN = 7809
* Conductivity SN = 7809
* System UpLoad Time = Jul 07 2022 15:45:48
* <ApplicationData>
* <Seaterm232>
* <SoftwareVersion>2.8.0.119</SoftwareVersion>
* <BuildDate>07-Nov-2018</BuildDate>
* </Seaterm232>
* </ApplicationData>
* <InstrumentState>
* <HardwareData DeviceType='SBE19plus' SerialNumber='01907809'>
*
*    <Manufacturer>Sea-Bird Electronics, Inc.</Manufacturer>
*
*    <FirmwareVersion>3.1.8</FirmwareVersion>
*
*    <FirmwareDate>Mar  9 2016 16:22:29</FirmwareDate>
*
*    <CommandSetVersion>1.4</CommandSetVersion>
*
*    <PCBAssembly PCBSerialNum='120721' AssemblyNum='41054J'/>
*
*    <PCBAssembly PCBSerialNum='120715' AssemblyNum='41967A'/>
*
*    <PCBAssembly PCBSerialNum='116699' AssemblyNum='41606'/>
*
*    <PCBAssembly PCBSerialNum='120719' AssemblyNum='41059D'/>
*
*    <MfgDate>28-Apr-2017</MfgDate>
*
*    <InternalSensors>
*
*       <Sensor id='Main Temperature'>
*
*          <type>temperature0</type>
*
*          <SerialNumber>01907809</SerialNumber>
*
*       </Sensor>
*
*       <Sensor id='Main Conductivity'>
*
*          <type>conductivity-0</type>
*
*          <SerialNumber>01907809</SerialNumber>
*
*       </Sensor>
*
*       <Sensor id='Main Pressure'>
*
*          <type>strain-0</type>
*
*          <SerialNumber>10586018</SerialNumber>
*
*       </Sensor>
*
*    </InternalSensors>
*
*    <ExternalSensors>
*
*       <Sensor id='volt 0'>
*
*          <type>pH</type>
*
*          <SerialNumber>27-0363</SerialNumber>
*
*       </Sensor>
*
*       <Sensor id='volt 1'>
*
*          <type>ORP</type>
*
*          <SerialNumber>27-0363</SerialNumber>
*
*       </Sensor>
*
*       <Sensor id='volt 2'>
*
*          <type>OXY</type>
*
*          <SerialNumber>43-0434</SerialNumber>
*
*       </Sensor>
*
*       <Sensor id='volt 3'>
*
*          <type>PAR</type>
*
*          <SerialNumber>1122</SerialNumber>
*
*       </Sensor>
*
*       <Sensor id='volt 4'>
*
*          <type>ECO AFL/FL</type>
*
*          <SerialNumber>FLNTURT-2496</SerialNumber>
*
*       </Sensor>
*
*       <Sensor id='volt 5'>
*
*          <type>ECO-NTU</type>
*
*          <SerialNumber>FLNTURT-2496</SerialNumber>
*
*       </Sensor>
*
*       <Sensor id='serial'>
*
*          <type>not assigned</type>
*
*          <SerialNumber>not assigned</SerialNumber>
*
*       </Sensor>
*
*    </ExternalSensors>
*
* </HardwareData>
* <StatusData DeviceType='SBE19plus' SerialNumber='01907809'>
*
*    <DateTime>2022-07-07T12:43:51</DateTime>
*
*    <LoggingState>not logging</LoggingState>
*
*    <EventSummary numEvents='0'/>
*
*    <Power>
*
*       <vMain>12.3</vMain>
*
*       <vLith>8.6</vLith>
*
*       <iMain>63.1</iMain>
*
*       <iPump>43.8</iPump>
*
*       <iExt01>19.5</iExt01>
*
*       <iExt2345>37.5</iExt2345>
*
*    </Power>
*
*    <MemorySummary>
*
*       <Bytes>154215</Bytes>
*
*       <Samples>6705</Samples>
*
*       <SamplesFree>2854083</SamplesFree>
*
*       <SampleLength>23</SampleLength>
*
*       <Profiles>7</Profiles>
*
*    </MemorySummary>
*
* </StatusData>
* <ConfigurationData DeviceType='SBE19plus' SerialNumber='01907809'>
*
*    <ProfileMode>
*
*       <ScansToAverage>1</ScansToAverage>
*
*       <MinimumCondFreq>5</MinimumCondFreq>
*
*       <PumpDelay>40</PumpDelay>
*
*       <AutoRun>no</AutoRun>
*
*       <IgnoreSwitch>no</IgnoreSwitch>
*
*    </ProfileMode>
*
*    <Battery>
*
*       <Type>alkaline</Type>
*
*       <CutOff>7.5</CutOff>
*
*    </Battery>
*
*    <DataChannels>
*
*       <ExtVolt0>yes</ExtVolt0>
*
*       <ExtVolt1>yes</ExtVolt1>
*
*       <ExtVolt2>yes</ExtVolt2>
*
*       <ExtVolt3>yes</ExtVolt3>
*
*       <ExtVolt4>yes</ExtVolt4>
*
*       <ExtVolt5>yes</ExtVolt5>
*
*       <SBE38>no</SBE38>
*
*       <WETLABS>no</WETLABS>
*
*       <OPTODE>no</OPTODE>
*
*       <SBE63>no</SBE63>
*
*       <SeaFET>no</SeaFET>
*
*       <GTD>no</GTD>
*
*    </DataChannels>
*
*    <EchoCharacters>yes</EchoCharacters>
*
*    <OutputExecutedTag>yes</OutputExecutedTag>
*
*    <OutputFormat>raw HEX</OutputFormat>
*
* </ConfigurationData>
* <CalibrationCoefficients DeviceType='SBE19plus' SerialNumber='01907809'>
*
*    <Calibration format='TEMP1' id='Main Temperature'>
*
*       <SerialNum>01907809</SerialNum>
*
*       <CalDate>25-Sep-21</CalDate>
*
*       <TA0>1.232513e-03</TA0>
*
*       <TA1>2.763223e-04</TA1>
*
*       <TA2>-9.501887e-07</TA2>
*
*       <TA3>1.718014e-07</TA3>
*
*       <TOFFSET>0.000000e+00</TOFFSET>
*
*    </Calibration>
*
*    <Calibration format='WBCOND0' id='Main Conductivity'>
*
*       <SerialNum>01907809</SerialNum>
*
*       <CalDate>25-Sep-21</CalDate>
*
*       <G>-1.004440e+00</G>
*
*       <H>1.264604e-01</H>
*
*       <I>-7.854363e-05</I>
*
*       <J>2.210938e-05</J>
*
*       <CPCOR>-9.570000e-08</CPCOR>
*
*       <CTCOR>3.250000e-06</CTCOR>
*
*       <CSLOPE>1.000000e+00</CSLOPE>
*
*    </Calibration>
*
*    <Calibration format='STRAIN0' id='Main Pressure'>
*
*       <SerialNum>10586018</SerialNum>
*
*       <CalDate>10-Sep-21</CalDate>
*
*       <PA0>4.789196e-02</PA0>
*
*       <PA1>4.853655e-04</PA1>
*
*       <PA2>-3.689276e-12</PA2>
*
*       <PTCA0>5.254946e+05</PTCA0>
*
*       <PTCA1>1.325193e+01</PTCA1>
*
*       <PTCA2>-3.889275e-01</PTCA2>
*
*       <PTCB0>2.516687e+01</PTCB0>
*
*       <PTCB1>3.750000e-04</PTCB1>
*
*       <PTCB2>0.000000e+00</PTCB2>
*
*       <PTEMPA0>-5.401644e+01</PTEMPA0>
*
*       <PTEMPA1>5.390655e+01</PTEMPA1>
*
*       <PTEMPA2>-2.194112e-02</PTEMPA2>
*
*       <POFFSET>-1.280000e-01</POFFSET>
*
*       <PRANGE>1.600000e+02</PRANGE>
*
*    </Calibration>
*
*    <Calibration format='VOLT0' id='Volt 0'>
*
*       <OFFSET>-4.920000e-02</OFFSET>
*
*       <SLOPE>1.248122e+00</SLOPE>
*
*    </Calibration>
*
*    <Calibration format='VOLT0' id='Volt 1'>
*
*       <OFFSET>-4.784000e-02</OFFSET>
*
*       <SLOPE>1.248871e+00</SLOPE>
*
*    </Calibration>
*
*    <Calibration format='VOLT0' id='Volt 2'>
*
*       <OFFSET>-4.864632e-02</OFFSET>
*
*       <SLOPE>1.248714e+00</SLOPE>
*
*    </Calibration>
*
*    <Calibration format='VOLT0' id='Volt 3'>
*
*       <OFFSET>-4.743790e-02</OFFSET>
*
*       <SLOPE>1.248571e+00</SLOPE>
*
*    </Calibration>
*
*    <Calibration format='VOLT0' id='Volt 4'>
*
*       <OFFSET>-4.671263e-02</OFFSET>
*
*       <SLOPE>1.248951e+00</SLOPE>
*
*    </Calibration>
*
*    <Calibration format='VOLT0' id='Volt 5'>
*
*       <OFFSET>-4.871053e-02</OFFSET>
*
*       <SLOPE>1.249136e+00</SLOPE>
*
*    </Calibration>
*
*    <Calibration format='FREQ0' id='external frequency channel'>
*
*       <EXTFREQSF>1.000014e+00</EXTFREQSF>
*
*    </Calibration>
*
* </CalibrationCoefficients>
* <EventCounters DeviceType='SBE19plus' SerialNumber='01907809'>
*
*    <EventSummary numEvents='0'/>
*
* </EventCounters></InstrumentState>
* <Headers>
*
* cast   5 07 Jul 2022 08:17:23 samples 2981 to 3678, avg = 1, stop = mag switch
*
# nquan = 15
# nvalues = 698                         
# units = specified
# name 0 = depFM: Depth [fresh water, m]
# name 1 = dz/dtM: Descent Rate [m/s]
# name 2 = sbeox0Mg/L: Oxygen, SBE 43 [mg/l]
# name 3 = sbeox0PS: Oxygen, SBE 43 [% saturation]
# name 4 = specc: Specific Conductance [uS/cm]
# name 5 = c0uS/cm: Conductivity [uS/cm]
# name 6 = flECO-AFL: Fluorescence, WET Labs ECO-AFL/FL [mg/m^3]
# name 7 = ph: pH
# name 8 = orp: Oxidation Reduction Potential [mV]
# name 9 = par/sat/log: PAR/Logarithmic, Satlantic
# name 10 = turbWETntu0: Turbidity, WET Labs ECO [NTU]
# name 11 = prdM: Pressure, Strain Gauge [db]
# name 12 = prdE: Pressure, Strain Gauge [psi]
# name 13 = tv290C: Temperature [ITS-90, deg C]
# name 14 = flag:  0.000e+00
# span 0 =     -0.491,      3.356       
# span 1 =     -0.272,      0.311       
# span 2 =     3.7195,     6.9357       
# span 3 =     46.633,     87.983       
# span 4 =      0.956,     89.063       
# span 5 =   0.980260,  93.458256       
# span 6 =    -0.1450,     2.6069       
# span 7 =      7.966,      8.295       
# span 8 =    91.5664,   223.3765       
# span 9 = 5.5676e+01, 2.6880e+03       
# span 10 =    -1.1106,    25.0835      
# span 11 =     -0.483,      3.292      
# span 12 =     -0.701,      4.774      
# span 13 =    26.2654,    28.0065      
# span 14 = 0.0000e+00, 0.0000e+00      
# interval = seconds: 0.25
# start_time = Jul 07 2022 08:17:23 [Instrument's time stamp, header]
# bad_flag = -9.990e-29
# <Sensors count="9" >
#   <sensor Channel="1" >
#     <!-- Count, Temperature -->
#     <TemperatureSensor SensorID="58" >
#       <SerialNumber>7809</SerialNumber>
#       <CalibrationDate>25-Sep-21</CalibrationDate>
#       <A0>1.23251324e-003</A0>
#       <A1>2.76322262e-004</A1>
#       <A2>-9.50188734e-007</A2>
#       <A3>1.71801404e-007</A3>
#       <Slope>1.00000000</Slope>
#       <Offset>0.0000</Offset>
#     </TemperatureSensor>
#   </sensor>
#   <sensor Channel="2" >
#     <!-- Frequency 0, Conductivity -->
#     <ConductivitySensor SensorID="3" >
#       <SerialNumber>7809</SerialNumber>
#       <CalibrationDate>25-Sep-21</CalibrationDate>
#       <UseG_J>1</UseG_J>
#       <!-- Cell const and series R are applicable only for wide range sensors. -->
#       <SeriesR>0.0000</SeriesR>
#       <CellConst>2000.0000</CellConst>
#       <ConductivityType>0</ConductivityType>
#       <Coefficients equation="0" >
#         <A>0.00000000e+000</A>
#         <B>0.00000000e+000</B>
#         <C>0.00000000e+000</C>
#         <D>0.00000000e+000</D>
#         <M>0.0</M>
#         <CPcor>-9.57000000e-008</CPcor>
#       </Coefficients>
#       <Coefficients equation="1" >
#         <G>-1.00443970e+000</G>
#         <H>1.26460406e-001</H>
#         <I>-7.85436262e-005</I>
#         <J>2.21093811e-005</J>
#         <CPcor>-9.57000000e-008</CPcor>
#         <CTcor>3.2500e-006</CTcor>
#         <!-- WBOTC not applicable unless ConductivityType = 1. -->
#         <WBOTC>0.00000000e+000</WBOTC>
#       </Coefficients>
#       <Slope>1.00000000</Slope>
#       <Offset>0.00000</Offset>
#     </ConductivitySensor>
#   </sensor>
#   <sensor Channel="3" >
#     <!-- Count, Pressure, Strain Gauge -->
#     <PressureSensor SensorID="46" >
#       <SerialNumber>7809</SerialNumber>
#       <CalibrationDate>10-Sep-21</CalibrationDate>
#       <PA0>4.78919585e-002</PA0>
#       <PA1>4.85365526e-004</PA1>
#       <PA2>-3.68927597e-012</PA2>
#       <PTEMPA0>-5.40164371e+001</PTEMPA0>
#       <PTEMPA1>5.39065456e+001</PTEMPA1>
#       <PTEMPA2>-2.19411190e-002</PTEMPA2>
#       <PTCA0>5.25494622e+005</PTCA0>
#       <PTCA1>1.32519328e+001</PTCA1>
#       <PTCA2>-3.88927502e-001</PTCA2>
#       <PTCB0>2.51668750e+001</PTCB0>
#       <PTCB1>3.75000000e-004</PTCB1>
#       <PTCB2>0.00000000e+000</PTCB2>
#       <Offset>0.000000</Offset>
#     </PressureSensor>
#   </sensor>
#   <sensor Channel="4" >
#     <!-- A/D voltage 0, Oxygen, SBE 43 -->
#     <OxygenSensor SensorID="38" >
#       <SerialNumber>0434</SerialNumber>
#       <CalibrationDate>25-Sep-21</CalibrationDate>
#       <Use2007Equation>1</Use2007Equation>
#       <CalibrationCoefficients equation="0" >
#         <!-- Coefficients for Owens-Millard equation. -->
#         <Boc>0.0000</Boc>
#         <Soc>0.0000e+000</Soc>
#         <offset>0.0000</offset>
#         <Pcor>0.00e+000</Pcor>
#         <Tcor>0.0000</Tcor>
#         <Tau>0.0</Tau>
#       </CalibrationCoefficients>
#       <CalibrationCoefficients equation="1" >
#         <!-- Coefficients for Sea-Bird equation - SBE calibration in 2007 and later. -->
#         <Soc>4.7287e-001</Soc>
#         <offset>-0.5046</offset>
#         <A>-3.6094e-003</A>
#         <B> 1.1544e-004</B>
#         <C>-1.3802e-006</C>
#         <D0> 2.5826e+000</D0>
#         <D1> 1.92634e-004</D1>
#         <D2>-4.64803e-002</D2>
#         <E> 3.6000e-002</E>
#         <Tau20> 0.7700</Tau20>
#         <H1>-3.3000e-002</H1>
#         <H2> 5.0000e+003</H2>
#         <H3> 1.4500e+003</H3>
#       </CalibrationCoefficients>
#     </OxygenSensor>
#   </sensor>
#   <sensor Channel="5" >
#     <!-- A/D voltage 1, PAR/Logarithmic, Satlantic -->
#     <PARLog_SatlanticSensor SensorID="76" >
#       <SerialNumber>1122</SerialNumber>
#       <CalibrationDate>08-Sep-2021</CalibrationDate>
#       <a0>9.6751e-001</a0>
#       <a1>8.0992e-001</a1>
#       <Im>1.3589e+000</Im>
#       <Multiplier>1.0000e+000</Multiplier>
#     </PARLog_SatlanticSensor>
#   </sensor>
#   <sensor Channel="6" >
#     <!-- A/D voltage 2, pH -->
#     <pH_Sensor SensorID="43" >
#       <SerialNumber>0363</SerialNumber>
#       <CalibrationDate>16-Sep-21</CalibrationDate>
#       <Slope>4.5144</Slope>
#       <Offset>2.4957</Offset>
#     </pH_Sensor>
#   </sensor>
#   <sensor Channel="7" >
#     <!-- A/D voltage 3, Oxidation Reduction Potential -->
#     <OxidationReductionPotentialSensor SensorID="41" >
#       <SerialNumber>0363</SerialNumber>
#       <CalibrationDate>16-Sep-21</CalibrationDate>
#       <B>2.499480</B>
#       <M>-0.496195</M>
#       <Offset>0.0</Offset>
#     </OxidationReductionPotentialSensor>
#   </sensor>
#   <sensor Channel="8" >
#     <!-- A/D voltage 4, Fluorometer, WET Labs ECO-AFL/FL -->
#     <FluoroWetlabECO_AFL_FL_Sensor SensorID="20" >
#       <SerialNumber>FLNTURT-2496</SerialNumber>
#       <CalibrationDate>02-Sep-2021</CalibrationDate>
#       <ScaleFactor>4.80000000e+001</ScaleFactor>
#       <!-- Dark output -->
#       <Vblank>0.0550</Vblank>
#     </FluoroWetlabECO_AFL_FL_Sensor>
#   </sensor>
#   <sensor Channel="9" >
#     <!-- A/D voltage 5, Turbidity Meter, WET Labs, ECO-NTU -->
#     <TurbidityMeter SensorID="67" >
#       <SerialNumber>FLNTURT-2496</SerialNumber>
#       <CalibrationDate>02-Sep-2021</CalibrationDate>
#       <ScaleFactor>197.000000</ScaleFactor>
#       <!-- Dark output -->
#       <DarkVoltage>0.070000</DarkVoltage>
#     </TurbidityMeter>
#   </sensor>
# </Sensors>
# datcnv_date = Jul 08 2022 12:26:18, 7.26.7.129 [datcnv_vars = 14]
# datcnv_in = C:\R\Reservoirs\Data\DataNotYetUploadedToEDI\Raw_CTD\RawDownloads\070722_ccr10_SBE19plus01907809_0005.hex C:\R\Reservoirs\Data\DataNotYetUploadedToEDI\Raw_CTD\RawDownloads\SBE19plusV2_7809_Old_CTD.xmlcon
# datcnv_skipover = 0
# datcnv_ox_hysteresis_correction = yes
# datcnv_ox_tau_correction = yes
# filter_date = Jul 08 2022 12:27:36, 7.26.7.129
# filter_in = C:\R\Reservoirs\Data\DataNotYetUploadedToEDI\Raw_CTD\RawDownloads\070722_ccr10_SBE19plus01907809_0005.cnv
# filter_low_pass_tc_A = 0.030
# filter_low_pass_tc_B = 0.150
# filter_low_pass_A_vars = sbeox0Mg/L prdM prdE tv290C
# filter_low_pass_B_vars = depFM dz/dtM sbeox0PS specc c0uS/cm flECO-AFL ph orp par/sat/log turbWETntu0
# alignctd_date = Jul 08 2022 12:28:19, 7.26.7.129
# alignctd_in = C:\R\Reservoirs\Data\DataNotYetUploadedToEDI\Raw_CTD\RawDownloads\070722_ccr10_SBE19plus01907809_0005.cnv
# alignctd_adv = dz/dtM 1.000, sbeox0PS 1.000, specc 1.000, c0uS/cm 1.000, flECO-AFL 1.000, ph 1.000, orp 1.000, turbWETntu0 1.000                                                                                                   
# file_type = ascii
*END*
     -0.490      0.000     6.9338     85.898      0.972   0.997270    -0.0955      8.059   183.6588 2.6030e+03    -0.2879     -0.481     -0.697    26.2782 0.0000e+00
     -0.490      0.000     6.9339     85.909      0.956   0.980260    -0.1036      8.063   161.7218 2.6449e+03    -0.3722     -0.481     -0.697    26.2780 0.0000e+00
     -0.490      0.002     6.9332     85.905      1.049   1.076444    -0.1084      8.066   135.2068 2.6769e+03    -0.3917     -0.480     -0.697    26.2794 0.0000e+00
     -0.490      0.009     6.9321     85.900      2.589   2.666616    -0.0960      8.064    94.5146 2.6880e+03    -0.3186     -0.481     -0.697    26.2777 0.0000e+00
     -0.490      0.025     6.9334     85.911     13.968  14.446206    -0.0784      8.076    91.5664 2.6599e+03    -0.2059     -0.480     -0.697    26.2811 0.0000e+00
     -0.489      0.050     6.9357     85.911     43.302  44.976804    -0.0781      8.128   135.5249 2.6078e+03    -0.1219     -0.480     -0.697    26.2756 0.0000e+00
     -0.484      0.082     6.9340     85.888     74.395  77.597061    -0.0928      8.187   149.0113 2.4023e+03    -0.0206     -0.479     -0.695    26.2813 0.0000e+00
     -0.464      0.114     6.9345     85.866     87.120  91.251073    -0.0973      8.219   138.3908 1.7399e+03     0.8137     -0.465     -0.674    26.2654 0.0000e+00
     -0.422      0.142     6.9295     85.855     88.182  92.701135    -0.0833      8.239   136.6883 9.3445e+02     2.3490     -0.418     -0.608    26.3235 0.0000e+00
     -0.366      0.166     6.8855     85.859     88.196  92.968147    -0.0733      8.254   131.9534 5.7193e+02     3.2052     -0.358     -0.520    26.6789 0.0000e+00
     -0.310      0.186     6.8285     85.905     88.117  93.080905    -0.0592      8.258   124.5918 5.4866e+02     3.2742     -0.300     -0.435    27.1058 0.0000e+00
     -0.264      0.199     6.7933     86.039     88.007  93.110937     0.1040      8.258   120.7269 5.4310e+02     3.3887     -0.254     -0.370    27.3852 0.0000e+00
     -0.224      0.202     6.7695     86.303     87.890  93.077123     0.3930      8.260   120.3266 4.5891e+02     3.6676     -0.225     -0.326    27.5731 0.0000e+00
     -0.176      0.196     6.7530     86.696     87.769  92.990147     0.5392      8.261   120.4409 3.4148e+02     3.8451     -0.178     -0.258    27.7083 0.0000e+00
     -0.114      0.181     6.7419     87.155     87.661  92.886049     0.5558      8.261   120.9900 2.7232e+02     3.8612     -0.112     -0.162    27.8189 0.0000e+00
     -0.052      0.160     6.7405     87.557     87.619  92.835924     0.6113      8.260   121.9758 2.5410e+02     3.4512     -0.044     -0.064    27.9049 0.0000e+00
     -0.007      0.135     6.7555     87.826     87.634  92.829213     0.6933      8.259   123.0681 2.5255e+02     2.6463      0.002      0.003    27.9552 0.0000e+00
      0.018      0.106     6.7850     87.969     87.654  92.804878     0.7322      8.256   124.1299 2.5440e+02     2.1913      0.023      0.033    27.9735 0.0000e+00
      0.029      0.078     6.8256     87.983     87.636  92.732378     0.7234      8.253   125.0059 2.5788e+02     2.1168      0.030      0.043    27.9760 0.0000e+00
      0.035      0.056     6.8598     87.879     87.603  92.652017     0.7040      8.252   125.6576 2.6020e+02     2.0867      0.032      0.048    27.9731 0.0000e+00
      0.045      0.043     6.8801     87.716     87.645  92.659821     0.6966      8.252   126.1587 2.6470e+02     2.0668      0.042      0.062    27.9640 0.0000e+00
      0.058      0.038     6.8961     87.564     87.760  92.763090     0.7013      8.252   126.4188 2.7023e+02     2.0473      0.058      0.084    27.9324 0.0000e+00
      0.070      0.034     6.9018     87.476     87.858  92.883172     0.7019      8.252   126.5653 2.7215e+02     2.0549      0.070      0.102    27.8982 0.0000e+00
      0.080      0.027     6.8931     87.134     87.899  92.967148     0.7039      8.252   126.8974 2.6529e+02     2.0908      0.079      0.115    27.8750 0.0000e+00
      0.088      0.019     6.8838     85.942     87.909  93.015426     0.7177      8.250   127.3374 2.4219e+02     2.1061      0.088      0.126    27.8504 0.0000e+00
      0.092      0.014     6.8676     83.846     87.889  93.021829     0.7272      8.248   127.5838 2.1287e+02     2.1031      0.093      0.135    27.8351 0.0000e+00
      0.089      0.017     6.8664     81.406     87.772  92.917429     0.7269      8.247   127.8108 2.0391e+02     2.1231      0.090      0.131    27.8473 0.0000e+00
      0.083      0.023     6.8626     79.029     87.621  92.770584     0.7229      8.247   128.2754 2.0991e+02     2.1090      0.078      0.114    27.8783 0.0000e+00
      0.084      0.027     6.7677     76.716     87.566  92.708925     0.7122      8.248   128.8997 2.0947e+02     2.0686      0.076      0.111    27.9007 0.0000e+00
      0.100      0.027     6.5784     74.471     87.564  92.680626     0.7056      8.249   129.5079 2.0839e+02     2.0786      0.094      0.137    27.9143 0.0000e+00
      0.123      0.022     6.3726     72.390     87.601  92.682741     0.7096      8.249   129.9500 2.1149e+02     2.0936      0.125      0.181    27.9252 0.0000e+00
      0.137      0.011     6.1921     70.654     87.678  92.734438     0.7186      8.248   130.3735 2.1286e+02     2.0796      0.142      0.206    27.9346 0.0000e+00
      0.136     -0.003     6.0085     69.481     87.756  92.796936     0.7230      8.247   130.8425 2.1208e+02     2.0801      0.137      0.198    27.9369 0.0000e+00
      0.123     -0.017     5.8323     68.820     87.826  92.866064     0.7212      8.246   131.2332 2.0906e+02     2.0986      0.123      0.178    27.9163 0.0000e+00
      0.106     -0.024     5.6684     68.471     87.823  92.870770     0.7222      8.247   131.6566 2.0835e+02     2.0994      0.103      0.150    27.8912 0.0000e+00
      0.093     -0.020     5.5227     68.391     87.738  92.790259     0.7185      8.248   132.1749 2.0695e+02     2.0902      0.088      0.127    27.8752 0.0000e+00
      0.088     -0.009     5.4354     68.509     87.663  92.719282     0.7092      8.250   132.5104 1.9655e+02     2.0896      0.085      0.123    27.8626 0.0000e+00
      0.090      0.005     5.3931     68.597     87.645  92.712095     0.7101      8.251   132.4431 1.8385e+02     2.0911      0.086      0.125    27.8590 0.0000e+00
      0.099      0.019     5.3632     68.549     87.685  92.766967     0.7210      8.252   132.0504 1.7610e+02     2.1091      0.095      0.139    27.8677 0.0000e+00
      0.110      0.033     5.3562     68.457     87.720  92.810449     0.7320      8.254   131.7204 1.7470e+02     2.1359      0.110      0.159    27.8730 0.0000e+00
      0.117      0.048     5.3756     68.399     87.704  92.792714     0.7518      8.255   131.9797 1.8113e+02     2.1757      0.116      0.167    27.8756 0.0000e+00
      0.124      0.066     5.3848     68.346     87.719  92.806888     0.7774      8.255   134.6697 1.8776e+02     2.2497      0.119      0.171    27.8848 0.0000e+00
      0.138      0.090     5.3751     68.210     87.762  92.854635     0.7838      8.256   139.2934 1.8259e+02     2.3128      0.132      0.190    27.8919 0.0000e+00
      0.163      0.116     5.3655     67.934     87.705  92.797720     0.7713      8.259   141.7671 1.7060e+02     2.3230      0.158      0.229    27.8960 0.0000e+00
      0.196      0.136     5.3621     67.661     87.601  92.691030     0.7749      8.263   142.1231 1.6534e+02     2.3049      0.189      0.274    27.8959 0.0000e+00
      0.240      0.144     5.3607     67.621     87.615  92.709272     0.8028      8.266   142.3076 1.6863e+02     2.2993      0.229      0.330    27.8915 0.0000e+00
      0.297      0.135     5.3535     67.867     87.729  92.827516     0.8258      8.267   142.4488 1.7137e+02     2.3232      0.294      0.424    27.8945 0.0000e+00
      0.347      0.115     5.3273     68.356     87.825  92.912515     0.8365      8.267   142.5392 1.6761e+02     2.3555      0.352      0.510    27.8977 0.0000e+00
      0.373      0.089     5.2954     68.989     87.857  92.910297     0.8323      8.267   141.1635 1.6154e+02     2.3481      0.372      0.539    27.8976 0.0000e+00
      0.380      0.060     5.2934     69.573     87.860  92.864236     0.8160      8.266   138.3780 1.5987e+02     2.3015      0.375      0.543    27.9017 0.0000e+00
      0.380      0.037     5.3137     69.963     87.842  92.800646     0.8069      8.265   136.7357 1.6466e+02     2.2704      0.373      0.540    27.9014 0.0000e+00
      0.379      0.024     5.3539     70.164     87.792  92.713659     0.8135      8.264   136.5361 1.7152e+02     2.2454      0.370      0.537    27.8943 0.0000e+00
      0.382      0.021     5.4134     70.257     87.745  92.639094     0.8286      8.264   136.6531 1.7841e+02     2.1705      0.372      0.540    27.8720 0.0000e+00
      0.389      0.021     5.4662     70.188     87.726  92.598519     0.8398      8.264   136.8595 1.8645e+02     2.1155      0.379      0.550    27.8391 0.0000e+00
      0.402      0.020     5.4996     69.843     87.751  92.604579     0.8495      8.264   137.1391 1.9270e+02     2.1611      0.394      0.572    27.8138 0.0000e+00
      0.413      0.017     5.5119     69.285     87.807  92.648741     0.8541      8.264   137.5390 1.9596e+02     2.2099      0.408      0.593    27.7946 0.0000e+00
      0.417      0.014     5.5230     68.703     87.848  92.687336     0.8453      8.264   137.9940 1.9839e+02     2.2274      0.411      0.598    27.7807 0.0000e+00
      0.413      0.012     5.5248     68.195     87.849  92.689682     0.8348      8.265   138.4246 1.9915e+02     2.2714      0.405      0.587    27.7710 0.0000e+00
      0.408      0.012     5.4958     67.716     87.836  92.677113     0.8265      8.265   138.7878 1.9702e+02     2.2974      0.397      0.576    27.7577 0.0000e+00
      0.408      0.013     5.4463     67.225     87.822  92.662542     0.8206      8.264   139.2013 1.9281e+02     2.3028      0.397      0.576    27.7475 0.0000e+00
      0.418      0.015     5.3972     66.781     87.800  92.640674     0.8215      8.262   139.7249 1.8742e+02     2.3018      0.409      0.593    27.7463 0.0000e+00
      0.430      0.015     5.3599     66.492     87.821  92.667079     0.8298      8.262   140.1280 1.8177e+02     2.2511      0.424      0.614    27.7487 0.0000e+00
      0.437      0.014     5.3242     66.434     87.873  92.727446     0.8457      8.262   140.4617 1.7618e+02     2.1677      0.431      0.625    27.7494 0.0000e+00
      0.437      0.011     5.2831     66.542     87.878  92.734683     0.8553      8.261   140.9207 1.7136e+02     2.1127      0.429      0.623    27.7483 0.0000e+00
      0.434      0.006     5.2452     66.597     87.841  92.691002     0.8549      8.260   141.3761 1.6824e+02     2.0992      0.425      0.616    27.7494 0.0000e+00
      0.433      0.003     5.2192     66.408     87.806  92.644424     0.8493      8.259   141.7517 1.6649e+02     2.0728      0.423      0.614    27.7523 0.0000e+00
      0.434      0.003     5.2151     65.931     87.789  92.616609     0.8378      8.259   142.1070 1.6573e+02     2.0332      0.424      0.615    27.7561 0.0000e+00
      0.437      0.004     5.2317     65.276     87.787  92.609039     0.8315      8.259   142.4016 1.6677e+02     2.0302      0.429      0.622    27.7583 0.0000e+00
      0.440      0.005     5.2421     64.640     87.796  92.616477     0.8319      8.259   142.6464 1.6772e+02     2.0697      0.432      0.627    27.7559 0.0000e+00
      0.441      0.003     5.2286     64.162     87.821  92.642948     0.8338      8.258   142.9154 1.6645e+02     2.1012      0.432      0.627    27.7487 0.0000e+00
      0.442      0.000     5.1893     63.901     87.851  92.674744     0.8373      8.257   143.2452 1.6407e+02     2.1041      0.433      0.628    27.7416 0.0000e+00
      0.442     -0.003     5.1305     63.887     87.859  92.682976     0.8326      8.256   143.6237 1.6092e+02     2.1043      0.435      0.631    27.7388 0.0000e+00
      0.441     -0.003     5.0772     64.096     87.855  92.678896     0.8193      8.255   144.0496 1.5881e+02     2.0702      0.434      0.629    27.7382 0.0000e+00
      0.437     -0.001     5.0386     64.368     87.868  92.689000     0.8177      8.255   144.5231 1.5878e+02     2.0324      0.429      0.622    27.7385 0.0000e+00
      0.433      0.002     5.0168     64.446     87.864  92.677958     0.8300      8.255   144.8742 1.5865e+02     2.0574      0.424      0.614    27.7385 0.0000e+00
      0.433      0.006     5.0159     64.203     87.811  92.608963     0.8348      8.255   145.0259 1.5643e+02     2.0994      0.423      0.615    27.7386 0.0000e+00
      0.438      0.007     5.0360     63.682     87.773  92.554241     0.8341      8.256   145.1528 1.5274e+02     2.1308      0.429      0.622    27.7392 0.0000e+00
      0.446      0.005     5.0677     63.031     87.815  92.588596     0.8707      8.257   145.3762 1.4937e+02     2.1637      0.438      0.635    27.7377 0.0000e+00
      0.451      0.001     5.0771     62.523     87.869  92.642798     0.9365      8.258   145.6616 1.4662e+02     2.1554      0.445      0.645    27.7337 0.0000e+00
      0.451     -0.003     5.0564     62.452     87.861  92.637288     0.9641      8.257   145.9366 1.4487e+02     2.0988      0.444      0.645    27.7258 0.0000e+00
      0.444     -0.004     5.0135     62.860     87.811  92.585571     0.9544      8.257   146.2061 1.4476e+02     2.0600      0.437      0.633    27.7155 0.0000e+00
      0.435     -0.008     4.9546     63.466     87.758  92.526211     0.9363      8.256   146.4249 1.4570e+02     2.1308      0.425      0.617    27.7100 0.0000e+00
      0.431     -0.018     4.9042     63.956     87.739  92.491856     0.9123      8.254   147.9804 1.4635e+02     2.3056      0.418      0.607    27.7085 0.0000e+00
      0.436     -0.038     4.8964     64.341     87.765  92.488115     0.8960      8.254   151.0742 1.4961e+02     2.4316      0.423      0.615    27.7112 0.0000e+00
      0.443     -0.061     4.9387     64.949     87.798  92.480936     0.8977      8.256   152.7722 1.5747e+02     2.4245      0.439      0.638    27.7129 0.0000e+00
      0.434     -0.081     4.9979     65.992     87.814  92.468574     0.9158      8.258   152.8515 1.6337e+02     2.3901      0.440      0.638    27.7112 0.0000e+00
      0.395     -0.090     5.0369     67.223     87.816  92.465781     0.9409      8.259   152.8933 1.6257e+02     2.3920      0.396      0.574    27.7068 0.0000e+00
      0.340     -0.088     5.0564     68.277     87.785  92.447161     0.9514      8.260   152.9332 1.6045e+02     2.3447      0.328      0.476    27.6868 0.0000e+00
      0.298     -0.074     5.0970     69.077     87.755  92.434229     0.9431      8.262   152.9046 1.6033e+02     2.2961      0.282      0.407    27.6573 0.0000e+00
      0.285     -0.049     5.1912     69.639     87.755  92.436626     0.9398      8.263   152.8049 1.5831e+02     2.3165      0.271      0.392    27.6384 0.0000e+00
      0.294     -0.021     5.3038     69.987     87.749  92.412553     0.9454      8.264   152.5888 1.5263e+02     2.3522      0.287      0.416    27.6369 0.0000e+00
      0.309      0.001     5.3830     70.193     87.754  92.397488     0.9524      8.264   151.4097 1.4628e+02     2.3867      0.306      0.443    27.6476 0.0000e+00
      0.319      0.016     5.4441     70.195     87.811  92.445211     0.9660      8.264   149.2175 1.4256e+02     2.3920      0.317      0.458    27.6639 0.0000e+00
      0.319      0.029     5.4897     69.877     87.843  92.480842     0.9775      8.263   147.9362 1.4101e+02     2.3481      0.316      0.457    27.6663 0.0000e+00
      0.313      0.046     5.5126     69.307     87.794  92.446764     0.9749      8.262   147.9639 1.4034e+02     2.3686      0.307      0.446    27.6503 0.0000e+00
      0.311      0.072     5.5334     68.636     87.741  92.414740     0.9585      8.262   148.3479 1.4042e+02     2.4678      0.297      0.430    27.6364 0.0000e+00
      0.329      0.107     5.5403     67.883     87.726  92.411615     0.9384      8.263   148.7071 1.4159e+02     2.4893      0.310      0.450    27.6299 0.0000e+00
      0.371      0.152     5.5121     67.033     87.720  92.408995     0.9395      8.264   148.9516 1.4551e+02     2.4918      0.365      0.530    27.6291 0.0000e+00
      0.420      0.199     5.4595     66.156     87.693  92.383054     1.0135      8.262   149.1531 1.5217e+02     2.5672      0.412      0.598    27.6417 0.0000e+00
      0.475      0.235     5.4051     65.284     87.660  92.352318     1.1343      8.261   149.3369 1.5914e+02     2.6150      0.459      0.666    27.6607 0.0000e+00
      0.544      0.253     5.3485     64.485     87.667  92.355313     1.2011      8.261   149.6254 1.6259e+02     2.6250      0.528      0.767    27.6659 0.0000e+00
      0.624      0.251     5.2762     64.009     87.689  92.355666     1.2129      8.262   149.8876 1.5995e+02     2.6198      0.610      0.885    27.6656 0.0000e+00
      0.705      0.235     5.2077     64.134     87.720  92.356546     1.2602      8.263   149.9264 1.5488e+02     2.5863      0.697      1.012    27.6675 0.0000e+00
      0.772      0.206     5.1390     64.889     87.755  92.365897     1.3576      8.265   150.0076 1.5139e+02     2.5617      0.766      1.112    27.6708 0.0000e+00
      0.817      0.169     5.0670     65.949     87.748  92.341516     1.4166      8.267   150.2671 1.4900e+02     2.5617      0.807      1.171    27.6726 0.0000e+00
      0.845      0.131     5.0219     66.927     87.733  92.316083     1.4237      8.269   150.5686 1.4651e+02     2.5523      0.831      1.205    27.6567 0.0000e+00
      0.865      0.098     5.0308     67.607     87.736  92.312720     1.4518      8.270   150.8142 1.4424e+02     2.5502      0.849      1.232    27.6337 0.0000e+00
      0.883      0.075     5.1043     67.932     87.730  92.300848     1.5151      8.271   150.9134 1.4189e+02     2.6047      0.867      1.257    27.6186 0.0000e+00
      0.898      0.063     5.2004     67.892     87.732  92.299708     1.5570      8.272   151.0801 1.3918e+02     2.6644      0.882      1.279    27.6100 0.0000e+00
      0.912      0.057     5.2838     67.490     87.732  92.298933     1.5582      8.273   151.3669 1.3718e+02     2.6565      0.894      1.297    27.6053 0.0000e+00
      0.925      0.057     5.3379     66.745     87.725  92.291464     1.5378      8.274   151.6275 1.3621e+02     2.5437      0.907      1.315    27.6007 0.0000e+00
      0.939      0.064     5.3643     65.724     87.767  92.336582     1.5188      8.273   151.9078 1.3595e+02     2.3933      0.922      1.337    27.5975 0.0000e+00
      0.952      0.087     5.3613     64.621     87.822  92.399330     1.5288      8.272   152.1756 1.3642e+02     2.3414      0.932      1.352    27.5969 0.0000e+00
      0.967      0.133     5.3284     63.735     87.828  92.414266     1.5504      8.270   152.3702 1.3722e+02     2.3614      0.947      1.373    27.5966 0.0000e+00
      0.988      0.197     5.2705     63.585     87.796  92.389998     1.5714      8.269   152.5393 1.3798e+02     2.4289      0.966      1.401    27.5958 0.0000e+00
      1.027      0.259     5.1819     64.690     87.763  92.360266     1.6001      8.269   152.8436 1.3810e+02     2.5432      0.993      1.440    27.5960 0.0000e+00
      1.107      0.299     5.0892     66.847     87.775  92.372725     1.6141      8.269   153.2107 1.3593e+02     2.5821      1.065      1.545    27.5984 0.0000e+00
      1.232      0.311     5.0049     69.162     87.822  92.413451     1.6077      8.267   153.4504 1.3245e+02     2.5579      1.204      1.746    27.6044 0.0000e+00
      1.365      0.291     4.9694     70.842     87.829  92.407552     1.5972      8.264   153.5908 1.3067e+02     2.5234      1.361      1.973    27.6105 0.0000e+00
      1.453      0.243     5.0621     71.610     87.800  92.364964     1.6041      8.262   153.7895 1.3124e+02     2.4382      1.446      2.097    27.6134 0.0000e+00
      1.490      0.175     5.2651     71.563     87.788  92.343629     1.6329      8.262   154.0456 1.3388e+02     2.3473      1.468      2.127    27.6140 0.0000e+00
      1.500      0.102     5.4716     70.914     87.792  92.340334     1.6544      8.262   154.1935 1.3873e+02     2.3130      1.475      2.140    27.6086 0.0000e+00
      1.500      0.046     5.6104     69.822     87.782  92.325129     1.6564      8.263   154.2862 1.4420e+02     2.2964      1.471      2.134    27.5996 0.0000e+00
      1.498      0.018     5.6676     68.437     87.749  92.286954     1.6484      8.264   154.4781 1.4932e+02     2.2830      1.468      2.128    27.5923 0.0000e+00
      1.498      0.013     5.6566     66.938     87.727  92.260277     1.6488      8.263   154.7921 1.5512e+02     2.3214      1.470      2.131    27.5872 0.0000e+00
      1.499      0.018     5.6028     65.504     87.727  92.256922     1.6529      8.261   155.2444 1.6122e+02     2.3517      1.469      2.131    27.5840 0.0000e+00
      1.503      0.028     5.5133     64.306     87.720  92.246382     1.6484      8.259   156.5910 1.6637e+02     2.3082      1.471      2.133    27.5812 0.0000e+00
      1.513      0.037     5.3982     63.373     87.735  92.260017     1.6609      8.258   158.6840 1.7112e+02     2.2731      1.482      2.150    27.5792 0.0000e+00
      1.527      0.044     5.2767     62.615     87.770  92.294596     1.6957      8.258   159.9020 1.7584e+02     2.3030      1.498      2.172    27.5772 0.0000e+00
      1.541      0.047     5.1571     61.982     87.761  92.282939     1.7198      8.257   160.2180 1.7962e+02     2.3279      1.512      2.192    27.5746 0.0000e+00
      1.556      0.044     5.0619     61.420     87.728  92.246248     1.7194      8.256   160.4401 1.8258e+02     2.3355      1.525      2.213    27.5733 0.0000e+00
      1.570      0.037     4.9939     60.864     87.717  92.232491     1.6986      8.255   160.6081 1.8489e+02     2.3607      1.541      2.235    27.5723 0.0000e+00
      1.580      0.028     4.9333     60.288     87.731  92.243766     1.6769      8.254   160.7006 1.8668e+02     2.3591      1.552      2.251    27.5707 0.0000e+00
      1.584      0.022     4.8858     59.675     87.746  92.255404     1.6639      8.253   160.8711 1.8911e+02     2.3167      1.555      2.256    27.5695 0.0000e+00
      1.583      0.017     4.8439     59.046     87.739  92.246022     1.6422      8.253   161.1201 1.9227e+02     2.2577      1.552      2.251    27.5688 0.0000e+00
      1.583      0.011     4.8000     58.536     87.754  92.257496     1.6305      8.252   161.2164 1.9570e+02     2.2262      1.550      2.248    27.5672 0.0000e+00
      1.588      0.002     4.7555     58.279     87.772  92.266966     1.6477      8.251   161.1754 1.9945e+02     2.2768      1.555      2.256    27.5648 0.0000e+00
      1.596     -0.007     4.7080     58.289     87.752  92.233327     1.6669      8.251   161.2256 2.0392e+02     2.3582      1.567      2.272    27.5625 0.0000e+00
      1.599     -0.013     4.6539     58.544     87.762  92.232269     1.6706      8.251   161.3934 2.0972e+02     2.3898      1.573      2.281    27.5612 0.0000e+00
      1.590     -0.016     4.6079     58.967     87.789  92.254160     1.6600      8.251   161.5698 2.1691e+02     2.3516      1.562      2.266    27.5612 0.0000e+00
      1.573     -0.017     4.5902     59.442     87.784  92.243641     1.6461      8.251   161.8098 2.2465e+02     2.2719      1.542      2.236    27.5558 0.0000e+00
      1.560     -0.015     4.5909     59.837     87.776  92.232260     1.6443      8.251   162.1450 2.3166e+02     2.2459      1.526      2.212    27.5458 0.0000e+00
      1.559     -0.013     4.6143     60.032     87.788  92.243724     1.6472      8.251   162.4389 2.3714e+02     2.2769      1.525      2.213    27.5394 0.0000e+00
      1.566     -0.013     4.6514     60.007     87.801  92.255077     1.6396      8.252   162.6094 2.4126e+02     2.3059      1.536      2.228    27.5359 0.0000e+00
      1.572     -0.018     4.6918     59.800     87.794  92.242350     1.6266      8.252   162.6584 2.4384e+02     2.3222      1.544      2.240    27.5336 0.0000e+00
      1.572     -0.027     4.7286     59.496     87.774  92.217011     1.6234      8.251   162.6868 2.4359e+02     2.3375      1.546      2.242    27.5320 0.0000e+00
      1.561     -0.036     4.7433     59.287     87.763  92.203052     1.6257      8.251   162.8676 2.4160e+02     2.3886      1.536      2.227    27.5318 0.0000e+00
      1.540     -0.039     4.7402     59.332     87.762  92.200740     1.6299      8.252   163.1228 2.4101e+02     2.4618      1.511      2.192    27.5306 0.0000e+00
      1.517     -0.034     4.7231     59.566     87.751  92.189055     1.6409      8.252   163.2776 2.4134e+02     2.5046      1.484      2.153    27.5268 0.0000e+00
      1.503     -0.023     4.6929     59.841     87.751  92.188939     1.6499      8.252   163.3623 2.4093e+02     2.4963      1.468      2.129    27.5236 0.0000e+00
      1.504     -0.008     4.6697     60.110     87.758  92.199343     1.6479      8.252   163.3733 2.4064e+02     2.4985      1.471      2.133    27.5223 0.0000e+00
      1.513      0.006     4.6767     60.316     87.745  92.187676     1.6415      8.252   163.3234 2.4040e+02     2.5311      1.485      2.154    27.5222 0.0000e+00
      1.523      0.012     4.7022     60.367     87.734  92.175053     1.6476      8.252   163.0183 2.3974e+02     2.5149      1.494      2.168    27.5214 0.0000e+00
      1.531      0.011     4.7219     60.195     87.736  92.173894     1.6633      8.251   162.4370 2.3985e+02     2.4398      1.501      2.178    27.5216 0.0000e+00
      1.535      0.004     4.7457     59.793     87.739  92.173656     1.6724      8.251   162.0590 2.4015e+02     2.3743      1.509      2.188    27.5237 0.0000e+00
      1.532     -0.002     4.7645     59.260     87.740  92.172166     1.6744      8.250   162.2343 2.3830e+02     2.3381      1.505      2.183    27.5252 0.0000e+00
      1.523     -0.008     4.7702     58.727     87.725  92.155885     1.6713      8.249   162.7496 2.3603e+02     2.3093      1.491      2.163    27.5248 0.0000e+00
      1.517     -0.015     4.7584     58.556     87.675  92.103975     1.6595      8.247   162.7832 2.3636e+02     2.2990      1.484      2.152    27.5220 0.0000e+00
      1.517     -0.025     4.7227     59.746     87.623  92.053229     1.6480      8.246   162.8131 2.3777e+02     2.3162      1.487      2.156    27.5201 0.0000e+00
      1.519     -0.036     4.6769     63.224     87.615  92.051022     1.6408      8.246   163.1101 2.3877e+02     2.3463      1.493      2.166    27.5194 0.0000e+00
      1.513     -0.048     4.6320     68.527     87.631  92.077297     1.6312      8.246   163.0184 2.4085e+02     2.3563      1.488      2.159    27.5186 0.0000e+00
      1.495     -0.062     4.5871     74.135     87.658  92.116593     1.6236      8.245   163.1675 2.4519e+02     2.3333      1.470      2.131    27.5189 0.0000e+00
      1.470     -0.075     4.6388     78.862     87.673  92.144643     1.6159      8.244   163.5366 2.5150e+02     2.3083      1.443      2.092    27.5208 0.0000e+00
      1.444     -0.087     4.9316     82.414     87.679  92.162117     1.5960      8.243   163.4375 2.5944e+02     2.2930      1.414      2.052    27.5245 0.0000e+00
      1.421     -0.101     5.4034     84.887     87.707  92.200707     1.5651      8.242   163.1734 2.7069e+02     2.2846      1.394      2.022    27.5300 0.0000e+00
      1.400     -0.117     5.8816     86.334     87.724  92.229724     1.5425      8.241   163.2691 2.8428e+02     2.3086      1.372      1.990    27.5368 0.0000e+00
      1.377     -0.137     6.2556     86.824     87.738  92.258636     1.5397      8.240   163.3897 2.9878e+02     2.3789      1.353      1.962    27.5438 0.0000e+00
      1.346     -0.161     6.5287     86.540     87.760  92.295965     1.5394      8.239   163.2544 3.1704e+02     2.4172      1.328      1.926    27.5506 0.0000e+00
      1.298     -0.185     6.7244     85.855     87.752  92.299567     1.5051      8.239   163.2678 3.3697e+02     2.3615      1.276      1.851    27.5556 0.0000e+00
      1.239     -0.205     6.8354     85.149     87.746  92.302210     1.4497      8.239   163.8960 3.5851e+02     2.2862      1.215      1.762    27.5607 0.0000e+00
      1.176     -0.216     6.8697     84.564     87.764  92.327930     1.4264      8.239   164.5693 3.8397e+02     2.2590      1.155      1.674    27.5694 0.0000e+00
      1.113     -0.218     6.8345     84.083     87.784  92.356206     1.4152      8.239   164.2669 4.1427e+02     2.2705      1.091      1.582    27.5789 0.0000e+00
      1.055     -0.215     6.7663     83.695     87.809  92.389761     1.3729      8.240   163.8541 4.4731e+02     2.2891      1.029      1.493    27.5856 0.0000e+00
      1.006     -0.211     6.7075     83.400     87.826  92.415720     1.3231      8.241   164.2245 4.9594e+02     2.3141      0.984      1.427    27.5897 0.0000e+00
      0.962     -0.207     6.6636     83.217     87.818  92.415738     1.3051      8.242   164.5285 5.9015e+02     2.3666      0.946      1.372    27.5932 0.0000e+00
      0.912     -0.202     6.6244     83.142     87.788  92.389998     1.3039      8.242   164.3465 7.0785e+02     2.4120      0.898      1.302    27.5969 0.0000e+00
      0.854     -0.197     6.5941     83.120     87.758  92.358857     1.2840      8.242   164.4325 7.7875e+02     2.3851      0.838      1.214    27.6012 0.0000e+00
      0.796     -0.189     6.5691     83.115     87.756  92.357157     1.2559      8.242   164.6229 8.5106e+02     2.3143      0.777      1.128    27.6063 0.0000e+00
      0.746     -0.175     6.5535     83.122     87.765  92.369449     1.2464      8.242   164.4118 9.7928e+02     2.2734      0.730      1.057    27.6122 0.0000e+00
      0.701     -0.160     6.5502     83.157     87.770  92.380314     1.2440      8.242   164.3757 1.0805e+03     2.3005      0.686      0.994    27.6153 0.0000e+00
      0.666     -0.147     6.5488     83.248     87.806  92.424950     1.2280      8.242   164.4436 1.0929e+03     2.3685      0.647      0.939    27.6145 0.0000e+00
      0.640     -0.142     6.5489     83.368     87.837  92.464028     1.1940      8.242   164.1136 1.0477e+03     2.4115      0.627      0.908    27.6137 0.0000e+00
      0.615     -0.141     6.5491     83.466     87.838  92.471284     1.1570      8.241   163.7420 1.0566e+03     2.4454      0.608      0.881    27.6161 0.0000e+00
      0.581     -0.139     6.5492     83.527     87.870  92.512699     1.1385      8.241   163.4772 1.1387e+03     2.4371      0.573      0.830    27.6202 0.0000e+00
      0.536     -0.134     6.5574     83.603     87.922  92.583256     1.1294      8.243   163.4080 1.1358e+03     2.3792      0.527      0.765    27.6234 0.0000e+00
      0.487     -0.125     6.5682     83.710     87.938  92.624934     1.0801      8.247   164.0231 1.0723e+03     2.3946      0.475      0.689    27.6272 0.0000e+00
      0.448     -0.111     6.5761     83.735     87.923  92.635124     0.9999      8.249   164.4618 1.1191e+03     2.4874      0.429      0.622    27.6313 0.0000e+00
      0.429     -0.096     6.5791     83.649     87.915  92.642924     0.9589      8.251   163.7225 1.1304e+03     2.5448      0.416      0.604    27.6334 0.0000e+00
      0.420     -0.086     6.5813     83.602     87.919  92.655677     0.9501      8.251   162.9995 1.0484e+03     2.5417      0.415      0.602    27.6409 0.0000e+00
      0.409     -0.086     6.5937     83.658     87.920  92.662158     0.9357      8.250   163.0337 1.0316e+03     2.4833      0.403      0.583    27.6595 0.0000e+00
      0.392     -0.097     6.5962     83.755     87.914  92.657713     0.9174      8.249   163.2758 1.0014e+03     2.3857      0.385      0.558    27.6754 0.0000e+00
      0.368     -0.113     6.5801     83.815     87.921  92.665520     0.9116      8.248   164.1200 9.8472e+02     2.3527      0.367      0.533    27.6834 0.0000e+00
      0.331     -0.126     6.5750     83.826     87.945  92.692971     0.9072      8.248   165.1534 1.0697e+03     2.3577      0.330      0.478    27.6880 0.0000e+00
      0.285     -0.129     6.5818     83.869     87.977  92.735280     0.8817      8.248   165.2734 1.2323e+03     2.3089      0.277      0.401    27.6904 0.0000e+00
      0.242     -0.121     6.5912     83.936     88.017  92.795542     0.8444      8.249   165.0547 1.4628e+03     2.2745      0.234      0.339    27.6916 0.0000e+00
      0.207     -0.103     6.5983     83.992     88.046  92.849315     0.8227      8.250   165.0904 1.5986e+03     2.3170      0.199      0.289    27.6916 0.0000e+00
      0.184     -0.080     6.5930     84.030     88.051  92.876768     0.8185      8.250   165.0164 1.5661e+03     2.3459      0.175      0.254    27.6916 0.0000e+00
      0.174     -0.056     6.5983     84.010     88.031  92.873148     0.8100      8.251   164.8486 1.4064e+03     2.3157      0.168      0.244    27.6949 0.0000e+00
      0.170     -0.036     6.6036     83.906     88.016  92.869166     0.7954      8.253   165.0402 1.3112e+03     2.2936      0.167      0.243    27.7070 0.0000e+00
      0.165     -0.021     6.6050     83.752     88.032  92.892237     0.7842      8.253   165.5263 1.3357e+03     2.2845      0.163      0.236    27.7216 0.0000e+00
      0.160     -0.012     6.6089     83.635     88.033  92.897748     0.7745      8.253   165.9935 1.2306e+03     2.3074      0.156      0.226    27.7339 0.0000e+00
      0.156     -0.010     6.6066     83.577     88.008  92.872218     0.7521      8.254   165.8710 1.2410e+03     2.3310      0.151      0.219    27.7453 0.0000e+00
      0.157     -0.011     6.5973     83.546     88.035  92.901504     0.7213      8.254   165.3365 1.5233e+03     2.2975      0.153      0.222    27.7515 0.0000e+00
      0.160     -0.011     6.5811     83.569     88.119  92.997485     0.7099      8.255   165.3811 1.6772e+03     2.2773      0.159      0.230    27.7538 0.0000e+00
      0.157     -0.006     6.5709     83.650     88.170  93.078881     0.7148      8.256   165.7211 1.6552e+03     2.2922      0.157      0.227    27.7562 0.0000e+00
      0.148     -0.001     6.5690     83.731     88.166  93.122615     0.7214      8.255   165.9201 1.5795e+03     2.3068      0.144      0.209    27.7574 0.0000e+00
      0.141      0.004     6.5645     83.801     88.141  93.144804     0.7314      8.255   166.1522 1.4527e+03     2.3177      0.133      0.193    27.7559 0.0000e+00
      0.145      0.008     6.5654     83.856     88.116  93.156468     0.7359      8.254   166.4633 1.3386e+03     2.3204      0.138      0.201    27.7568 0.0000e+00
      0.156      0.009     6.5739     83.834     88.077  93.136527     0.7268      8.253   166.6705 1.1736e+03     2.3056      0.154      0.223    27.7725 0.0000e+00
      0.166      0.009     6.5751     83.724     88.032  93.094502     0.7127      8.253   166.6780 9.7073e+02     2.2417      0.166      0.240    27.8047 0.0000e+00
      0.169      0.005     6.5772     83.626     88.031  93.093482     0.7072      8.254   166.8128 8.5079e+02     2.1623      0.169      0.245    27.8346 0.0000e+00
      0.165     -0.002     6.5808     83.530     88.059  93.124203     0.7183      8.255   167.1814 8.0922e+02     2.1317      0.163      0.236    27.8569 0.0000e+00
      0.159     -0.008     6.5803     83.405     88.079  93.147991     0.7383      8.256   167.4354 8.0544e+02     2.1447      0.155      0.225    27.8692 0.0000e+00
      0.153     -0.010     6.5649     83.380     88.115  93.190333     0.7418      8.255   167.5606 8.4284e+02     2.1490      0.150      0.217    27.8693 0.0000e+00
      0.151     -0.007     6.5587     83.455     88.170  93.254627     0.7344      8.255   167.3179 8.8719e+02     2.1145      0.148      0.214    27.8685 0.0000e+00
      0.151     -0.002     6.5561     83.522     88.190  93.289467     0.7324      8.255   166.3079 8.9151e+02     2.1030      0.148      0.214    27.8692 0.0000e+00
      0.152      0.001     6.5366     83.563     88.176  93.293639     0.7261      8.254   165.5019 9.0586e+02     2.1133      0.149      0.215    27.8710 0.0000e+00
      0.154      0.000     6.5361     83.590     88.169  93.305104     0.7169      8.252   165.5745 9.6585e+02     2.0680      0.152      0.219    27.8726 0.0000e+00
      0.156     -0.006     6.5471     83.570     88.152  93.300947     0.7121      8.252   165.8086 9.8924e+02     2.0685      0.154      0.223    27.8748 0.0000e+00
      0.157     -0.016     6.5505     83.507     88.097  93.243390     0.7183      8.252   165.7521 9.4463e+02     2.1869      0.154      0.224    27.8831 0.0000e+00
      0.155     -0.022     6.5511     83.457     88.050  93.181515     0.7342      8.252   165.6654 8.9749e+02     2.2704      0.155      0.225    27.8955 0.0000e+00
      0.145     -0.022     6.5537     83.436     88.069  93.188700     0.7457      8.253   165.5340 8.5796e+02     2.2921      0.148      0.213    27.9070 0.0000e+00
      0.128     -0.012     6.5522     83.470     88.083  93.203056     0.7579      8.255   165.1096 8.1786e+02     2.3121      0.124      0.181    27.9158 0.0000e+00
      0.113      0.002     6.5423     83.477     88.043  93.164331     0.7734      8.256   164.8356 7.8431e+02     2.3081      0.104      0.151    27.9177 0.0000e+00
      0.113      0.014     6.5424     83.318     88.052  93.165609     0.7746      8.256   164.9744 7.4721e+02     2.2775      0.104      0.150    27.9077 0.0000e+00
      0.132      0.019     6.5389     83.078     88.113  93.218498     0.7636      8.256   165.2394 6.9602e+02     2.2488      0.126      0.182    27.8960 0.0000e+00
      0.158      0.016     6.5426     82.906     88.126  93.231476     0.7574      8.257   165.6311 6.4220e+02     2.2683      0.158      0.229    27.8988 0.0000e+00
      0.175      0.006     6.5518     82.843     88.085  93.195346     0.7669      8.257   166.0110 6.3060e+02     2.3092      0.180      0.261    27.9059 0.0000e+00
      0.170     -0.005     6.5337     82.870     88.051  93.163209     0.7866      8.257   166.1320 6.3927e+02     2.3339      0.174      0.253    27.8980 0.0000e+00
      0.146     -0.011     6.5116     82.933     88.052  93.160871     0.7955      8.257   166.1476 6.1687e+02     2.3614      0.143      0.207    27.8868 0.0000e+00
      0.123     -0.012     6.4979     83.015     88.065  93.167066     0.7996      8.258   166.2857 5.9028e+02     2.3685      0.113      0.164    27.8882 0.0000e+00
      0.118     -0.009     6.4919     83.131     88.080  93.174506     0.8109      8.259   166.5977 5.8253e+02     2.3520      0.108      0.158    27.8956 0.0000e+00
      0.132     -0.003     6.4962     83.273     88.095  93.187232     0.8161      8.261   166.8219 5.9228e+02     2.3325      0.128      0.186    27.8981 0.0000e+00
      0.150      0.001     6.5023     83.423     88.099  93.193742     0.8203      8.262   166.9324 6.0679e+02     2.3025      0.151      0.219    27.8950 0.0000e+00
      0.156      0.001     6.5075     83.540     88.092  93.189633     0.8373      8.262   167.0732 6.0720e+02     2.2975      0.158      0.230    27.8895 0.0000e+00
      0.148     -0.003     6.5187     83.576     88.103  93.201158     0.8545      8.262   167.1476 6.1020e+02     2.3396      0.147      0.213    27.8840 0.0000e+00
      0.133     -0.007     6.5295     83.560     88.109  93.205900     0.8620      8.262   167.3156 6.1504e+02     2.3672      0.128      0.186    27.8825 0.0000e+00
      0.123     -0.008     6.5422     83.559     88.087  93.183369     0.8619      8.262   167.6416 6.1980e+02     2.3584      0.117      0.169    27.8853 0.0000e+00
      0.124     -0.005     6.5539     83.615     88.085  93.183102     0.8524      8.262   167.7346 6.3225e+02     2.3365      0.119      0.173    27.8873 0.0000e+00
      0.132     -0.000     6.5549     83.685     88.101  93.202676     0.8397      8.263   167.5796 6.3537e+02     2.3065      0.131      0.190    27.8864 0.0000e+00
      0.140      0.003     6.5523     83.711     88.121  93.229274     0.8329      8.264   167.4877 6.3572e+02     2.3032      0.141      0.204    27.8852 0.0000e+00
      0.140      0.004     6.5494     83.706     88.134  93.250337     0.8284      8.264   167.4840 6.4355e+02     2.3313      0.140      0.204    27.8859 0.0000e+00
      0.135      0.003     6.5563     83.733     88.141  93.266583     0.8266      8.264   167.7066 6.5077e+02     2.3383      0.132      0.192    27.8873 0.0000e+00
      0.131      0.001     6.5635     83.766     88.161  93.298539     0.8364      8.264   168.2868 6.4986e+02     2.3204      0.125      0.182    27.8882 0.0000e+00
      0.131      0.001     6.5653     83.721     88.172  93.318772     0.8470      8.263   168.9918 6.4530e+02     2.3192      0.126      0.183    27.8907 0.0000e+00
      0.136      0.002     6.5609     83.631     88.168  93.320465     0.8459      8.262   169.4343 6.4174e+02     2.2893      0.134      0.194    27.8949 0.0000e+00
      0.142      0.003     6.5628     83.526     88.163  93.319015     0.8400      8.262   169.5929 6.3984e+02     2.2328      0.140      0.204    27.9006 0.0000e+00
      0.143      0.002     6.5704     83.412     88.143  93.301258     0.8347      8.262   169.8770 6.4936e+02     2.2504      0.141      0.205    27.9074 0.0000e+00
      0.140     -0.001     6.5622     83.324     88.135  93.296539     0.8311      8.262   170.2884 6.5638e+02     2.2974      0.137      0.199    27.9128 0.0000e+00
      0.137     -0.005     6.5545     83.285     88.158  93.325547     0.8305      8.261   170.6098 6.5212e+02     2.3225      0.134      0.195    27.9161 0.0000e+00
      0.135     -0.006     6.5467     83.270     88.161  93.334051     0.8351      8.261   170.8368 6.4908e+02     2.3500      0.133      0.193    27.9178 0.0000e+00
      0.134     -0.004     6.5360     83.246     88.160  93.335781     0.8626      8.262   170.9685 6.4979e+02     2.3561      0.131      0.190    27.9189 0.0000e+00
      0.132      0.000     6.5278     83.210     88.166  93.346467     0.9044      8.262   171.1703 6.5444e+02     2.3280      0.129      0.187    27.9211 0.0000e+00
      0.131      0.003     6.5258     83.214     88.150  93.336076     0.9156      8.261   171.4693 6.5361e+02     2.2830      0.128      0.185    27.9242 0.0000e+00
      0.134      0.003     6.5250     83.280     88.143  93.337336     0.8983      8.261   171.6586 6.4861e+02     2.2564      0.131      0.189    27.9277 0.0000e+00
      0.139      0.002     6.5237     83.347     88.159  93.361719     0.8705      8.260   171.6518 6.5130e+02     2.2792      0.137      0.198    27.9295 0.0000e+00
      0.141      0.001     6.5187     83.391     88.167  93.376530     0.8456      8.260   171.5597 6.5666e+02     2.3196      0.141      0.204    27.9299 0.0000e+00
      0.140      0.001     6.5165     83.418     88.175  93.389248     0.8383      8.261   171.3197 6.5654e+02     2.3361      0.138      0.200    27.9339 0.0000e+00
      0.135      0.001     6.5251     83.417     88.172  93.388311     0.8408      8.261   170.9863 6.5499e+02     2.3410      0.133      0.193    27.9402 0.0000e+00
      0.133      0.002     6.5295     83.371     88.150  93.365197     0.8673      8.260   171.0564 6.5689e+02     2.3446      0.128      0.187    27.9448 0.0000e+00
      0.134      0.003     6.5320     83.273     88.150  93.364147     0.9006      8.259   171.5641 6.5828e+02     2.3460      0.130      0.188    27.9478 0.0000e+00
      0.139      0.003     6.5346     83.188     88.163  93.375615     0.9026      8.257   172.0493 6.5797e+02     2.3232      0.135      0.196    27.9505 0.0000e+00
      0.144      0.002     6.5344     83.158     88.166  93.376665     0.8916      8.257   172.1052 6.5450e+02     2.2742      0.142      0.206    27.9517 0.0000e+00
      0.147      0.000     6.5321     83.105     88.166  93.376855     0.8761      8.258   171.7230 6.5254e+02     2.2664      0.147      0.212    27.9516 0.0000e+00
      0.144     -0.001     6.5223     83.028     88.166  93.377905     0.8562      8.258   171.3000 6.6108e+02     2.3319      0.143      0.207    27.9512 0.0000e+00
      0.136      0.000     6.5123     83.010     88.177  93.389363     0.8503      8.258   171.1205 6.6731e+02     2.3825      0.133      0.193    27.9498 0.0000e+00
      0.131      0.003     6.5154     83.045     88.179  93.388208     0.8543      8.257   171.1014 6.6627e+02     2.3663      0.126      0.182    27.9486 0.0000e+00
      0.134      0.005     6.5115     83.108     88.160  93.363928     0.8549      8.256   171.3270 6.6782e+02     2.3406      0.129      0.188    27.9482 0.0000e+00
      0.143      0.005     6.4998     83.162     88.148  93.350161     0.8498      8.255   171.7841 6.7696e+02     2.3102      0.140      0.204    27.9488 0.0000e+00
      0.150      0.004     6.5010     83.127     88.145  93.348928     0.8432      8.255   171.8966 6.9756e+02     2.2722      0.150      0.217    27.9502 0.0000e+00
      0.152      0.002     6.5044     83.047     88.142  93.349023     0.8327      8.255   171.7397 7.3052e+02     2.2565      0.152      0.221    27.9473 0.0000e+00
      0.147     -0.002     6.5089     83.030     88.142  93.351315     0.8309      8.255   171.7805 7.6816e+02     2.2915      0.145      0.211    27.9437 0.0000e+00
      0.140     -0.003     6.5190     83.082     88.163  93.376645     0.8298      8.254   171.9599 8.0546e+02     2.3541      0.136      0.196    27.9436 0.0000e+00
      0.136     -0.002     6.5131     83.167     88.182  93.400934     0.8112      8.254   172.1877 8.7258e+02     2.3639      0.131      0.190    27.9452 0.0000e+00
      0.137      0.000     6.5019     83.282     88.168  93.390632     0.7974      8.254   172.2971 9.6970e+02     2.3417      0.133      0.194    27.9471 0.0000e+00
      0.142      0.002     6.5017     83.422     88.154  93.379271     0.7958      8.255   172.2508 1.0717e+03     2.3249      0.139      0.202    27.9483 0.0000e+00
      0.146      0.004     6.5068     83.528     88.163  93.390757     0.7920      8.256   172.2295 1.1692e+03     2.2977      0.145      0.210    27.9501 0.0000e+00
      0.148      0.004     6.5135     83.592     88.172  93.402330     0.7766      8.256   172.2117 1.2676e+03     2.2858      0.147      0.213    27.9527 0.0000e+00
      0.146      0.004     6.5208     83.638     88.161  93.392019     0.7679      8.255   172.2944 1.3900e+03     2.3173      0.145      0.210    27.9555 0.0000e+00
      0.143      0.005     6.5349     83.624     88.164  93.393269     0.7782      8.254   172.3689 1.4880e+03     2.3377      0.139      0.201    27.9571 0.0000e+00
      0.142      0.006     6.5435     83.551     88.189  93.417445     0.8016      8.254   172.1662 1.4922e+03     2.3268      0.138      0.199    27.9578 0.0000e+00
      0.147      0.008     6.5451     83.472     88.200  93.429963     0.8339      8.254   171.9938 1.4757e+03     2.3572      0.144      0.209    27.9593 0.0000e+00
      0.153      0.009     6.5523     83.402     88.185  93.417443     0.8519      8.253   172.2630 1.5608e+03     2.3971      0.152      0.220    27.9603 0.0000e+00
      0.158      0.005     6.5511     83.346     88.159  93.393256     0.8456      8.252   172.7548 1.7280e+03     2.3654      0.156      0.227    27.9591 0.0000e+00
      0.159     -0.004     6.5426     83.314     88.155  93.391890     0.8164      8.252   172.7777 1.8737e+03     2.3149      0.156      0.226    27.9568 0.0000e+00
      0.159     -0.018     6.5374     83.310     88.161  93.400930     0.7817      8.252   172.1954 1.9592e+03     2.3330      0.157      0.227    27.9567 0.0000e+00
      0.155     -0.035     6.5310     83.344     88.136  93.375378     0.7671      8.251   171.9949 2.0007e+03     2.3802      0.155      0.225    27.9596 0.0000e+00
      0.145     -0.052     6.5259     83.395     88.102  93.337321     0.7646      8.251   172.3325 2.0507e+03     2.3725      0.144      0.210    27.9622 0.0000e+00
      0.128     -0.064     6.5237     83.429     88.095  93.322321     0.7680      8.252   172.5772 2.1714e+03     2.3422      0.128      0.184    27.9632 0.0000e+00
      0.104     -0.069     6.5222     83.434     88.103  93.321185     0.7829      8.253   172.7163 2.2945e+03     2.3219      0.104      0.150    27.9648 0.0000e+00
      0.077     -0.066     6.5254     83.434     88.110  93.323575     0.7946      8.253   172.5524 2.3289e+03     2.2977      0.075      0.109    27.9663 0.0000e+00
      0.053     -0.057     6.5311     83.448     88.134  93.351209     0.7852      8.253   172.1439 2.3163e+03     2.3229      0.047      0.067    27.9650 0.0000e+00
      0.041     -0.042     6.5340     83.452     88.173  93.400942     0.7532      8.254   171.7354 2.3062e+03     2.3536      0.036      0.053    27.9602 0.0000e+00
      0.039     -0.026     6.5352     83.456     88.176  93.416180     0.7231      8.254   171.7424 2.3026e+03     2.3276      0.039      0.057    27.9541 0.0000e+00
      0.039     -0.011     6.5334     83.470     88.155  93.408285     0.7213      8.253   172.4016 2.3087e+03     2.3159      0.038      0.055    27.9505 0.0000e+00
      0.039     -0.001     6.5373     83.496     88.165  93.432687     0.7233      8.252   172.8227 2.3232e+03     2.3479      0.037      0.054    27.9514 0.0000e+00
      0.040      0.003     6.5353     83.570     88.176  93.456882     0.7129      8.252   172.4455 2.3409e+03     2.3734      0.038      0.055    27.9572 0.0000e+00
      0.042      0.003     6.5345     83.640     88.159  93.446477     0.7043      8.253   172.6590 2.3459e+03     2.3508      0.042      0.059    27.9643 0.0000e+00
      0.044      0.005     6.5360     83.617     88.144  93.434072     0.6945      8.255   173.1669 2.3522e+03     2.3481      0.044      0.063    27.9723 0.0000e+00
      0.044      0.012     6.5338     83.553     88.144  93.434082     0.6862      8.257   172.3919 2.3618e+03     2.3753      0.045      0.065    27.9813 0.0000e+00
      0.043      0.024     6.5406     83.514     88.155  93.446601     0.6863      8.258   172.3229 2.3653e+03     2.3381      0.042      0.060    27.9884 0.0000e+00
      0.043      0.038     6.5504     83.464     88.161  93.458256     0.6953      8.259   173.6230 2.3643e+03     2.2743      0.038      0.055    27.9934 0.0000e+00
      0.053      0.051     6.5457     83.425     88.146  93.447830     0.7122      8.259   173.5715 2.3272e+03     2.2525      0.047      0.068    27.9948 0.0000e+00
      0.075      0.062     6.5363     83.429     88.141  93.447725     0.7247      8.259   172.0432 2.2665e+03     2.2797      0.072      0.105    27.9938 0.0000e+00
      0.102      0.070     6.5384     83.445     88.147  93.456991     0.7217      8.259   171.4063 2.1320e+03     2.2957      0.103      0.150    27.9941 0.0000e+00
      0.124      0.073     6.5311     83.436     88.124  93.432692     0.7333      8.259   171.5494 1.9381e+03     2.3432      0.124      0.180    27.9971 0.0000e+00
      0.141      0.072     6.5269     83.395     88.107  93.408290     0.7739      8.259   171.3637 1.8015e+03     2.4786      0.139      0.201    28.0010 0.0000e+00
      0.155      0.070     6.5282     83.349     88.127  93.416298     0.7964      8.259   171.2259 1.5397e+03     2.5316      0.152      0.220    28.0037 0.0000e+00
      0.170      0.069     6.5299     83.303     88.132  93.402309     0.7814      8.259   171.4326 1.1245e+03     2.5058      0.166      0.241    28.0065 0.0000e+00
      0.185      0.071     6.5304     83.239     88.118  93.366299     0.7752      8.259   171.7116 9.9217e+02     2.5433      0.179      0.261    28.0064 0.0000e+00
      0.205      0.072     6.5252     83.125     88.133  93.362421     0.8119      8.259   171.5877 1.1553e+03     2.6083      0.199      0.288    28.0031 0.0000e+00
      0.229      0.073     6.5233     83.010     88.141  93.355386     0.8428      8.259   171.6553 1.2523e+03     2.6431      0.226      0.327    27.9956 0.0000e+00
      0.251      0.076     6.5207     82.996     88.084  93.281217     0.8410      8.259   172.0136 1.2984e+03     2.6566      0.246      0.357    27.9837 0.0000e+00
      0.268      0.082     6.5193     83.063     87.992  93.165123     0.8240      8.260   171.9624 1.3271e+03     2.6345      0.266      0.385    27.9709 0.0000e+00
      0.281      0.087     6.5110     83.153     87.958  93.096304     0.7943      8.260   172.0685 1.3112e+03     2.5806      0.274      0.398    27.9590 0.0000e+00
      0.298      0.091     6.4972     83.258     87.993  93.084981     0.7737      8.261   172.6937 1.2566e+03     2.5522      0.285      0.413    27.9504 0.0000e+00
      0.327      0.091     6.4991     83.355     88.042  93.091731     0.7666      8.263   173.2412 1.1598e+03     2.5295      0.320      0.464    27.9443 0.0000e+00
      0.362      0.088     6.5079     83.420     88.085  93.114261     0.7747      8.263   173.6116 1.1354e+03     2.5114      0.358      0.518    27.9360 0.0000e+00
      0.392      0.083     6.5157     83.462     88.079  93.102981     0.8042      8.263   174.1603 1.1632e+03     2.5379      0.390      0.565    27.9179 0.0000e+00
      0.410      0.075     6.5289     83.475     88.007  93.018928     0.8322      8.263   174.5415 1.1153e+03     2.5772      0.406      0.591    27.8866 0.0000e+00
      0.419      0.068     6.5409     83.425     87.942  92.924645     0.8477      8.263   174.5203 9.8030e+02     2.6104      0.411      0.596    27.8555 0.0000e+00
      0.427      0.068     6.5470     83.338     87.912  92.853237     0.8676      8.264   174.5073 9.1857e+02     2.6663      0.418      0.606    27.8434 0.0000e+00
      0.440      0.076     6.5493     83.246     87.894  92.791372     0.8886      8.266   174.7281 9.5915e+02     2.7406      0.431      0.625    27.8460 0.0000e+00
      0.459      0.088     6.5529     83.156     87.891  92.748871     0.8934      8.266   175.2115 9.7742e+02     2.7572      0.449      0.651    27.8446 0.0000e+00
      0.486      0.098     6.5496     83.133     87.892  92.720839     0.8930      8.266   175.6185 9.4668e+02     2.7310      0.472      0.683    27.8296 0.0000e+00
      0.522      0.101     6.5435     83.213     87.896  92.706741     0.9171      8.266   175.6056 9.1947e+02     2.7312      0.511      0.740    27.8042 0.0000e+00
      0.560      0.097     6.5416     83.326     87.905  92.705564     0.9685      8.266   175.5722 9.1574e+02     2.7601      0.556      0.806    27.7781 0.0000e+00
      0.586      0.088     6.5335     83.411     87.910  92.706585     1.0062      8.266   175.8173 9.0450e+02     2.8067      0.577      0.837    27.7548 0.0000e+00
      0.601      0.077     6.5320     83.466     87.924  92.719076     1.0150      8.266   176.1597 9.4551e+02     2.8157      0.590      0.855    27.7378 0.0000e+00
      0.612      0.066     6.5428     83.463     87.939  92.729418     1.0168      8.266   176.4419 9.9166e+02     2.7323      0.600      0.871    27.7279 0.0000e+00
      0.624      0.059     6.5543     83.382     87.923  92.704447     1.0201      8.266   176.7356 9.3481e+02     2.5846      0.611      0.886    27.7224 0.0000e+00
      0.638      0.058     6.5605     83.307     87.898  92.671497     1.0215      8.266   176.9581 8.8206e+02     2.4989      0.625      0.906    27.7208 0.0000e+00
      0.654      0.061     6.5649     83.307     87.882  92.648949     1.0170      8.267   176.8938 9.0134e+02     2.5155      0.640      0.928    27.7210 0.0000e+00
      0.670      0.066     6.5683     83.341     87.864  92.622574     1.0063      8.268   176.9907 9.2341e+02     2.5470      0.657      0.953    27.7180 0.0000e+00
      0.688      0.072     6.5578     83.351     87.859  92.606947     1.0173      8.268   177.2691 9.2103e+02     2.5718      0.674      0.978    27.7127 0.0000e+00
      0.706      0.078     6.5498     83.322     87.851  92.587161     1.0593      8.268   177.2488 9.3380e+02     2.6103      0.693      1.005    27.7085 0.0000e+00
      0.724      0.082     6.5531     83.327     87.850  92.574083     1.0894      8.268   177.2615 9.7423e+02     2.6372      0.709      1.029    27.7052 0.0000e+00
      0.747      0.085     6.5570     83.407     87.860  92.575984     1.0894      8.268   177.5080 9.6610e+02     2.6234      0.729      1.057    27.7012 0.0000e+00
      0.773      0.086     6.5605     83.536     87.838  92.546541     1.0846      8.269   177.7346 9.2936e+02     2.5804      0.761      1.104    27.6958 0.0000e+00
      0.797      0.083     6.5549     83.704     87.833  92.536023     1.0981      8.269   178.2802 9.1908e+02     2.5264      0.783      1.136    27.6890 0.0000e+00
      0.818      0.075     6.5548     83.872     87.875  92.575975     1.1201      8.269   178.8567 8.8584e+02     2.5173      0.800      1.160    27.6817 0.0000e+00
      0.840      0.065     6.5645     83.982     87.885  92.584475     1.1339      8.269   178.6824 8.5363e+02     2.5723      0.826      1.197    27.6764 0.0000e+00
      0.856      0.055     6.5736     84.054     87.877  92.575197     1.1567      8.269   178.4957 8.8326e+02     2.6115      0.842      1.223    27.6732 0.0000e+00
      0.865      0.049     6.5884     84.126     87.894  92.590975     1.1873      8.268   179.2668 9.1666e+02     2.6162      0.850      1.233    27.6704 0.0000e+00
      0.870      0.048     6.6049     84.211     87.892  92.584480     1.1955      8.268   180.3482 8.9041e+02     2.5951      0.853      1.237    27.6681 0.0000e+00
      0.878      0.048     6.6122     84.314     87.876  92.560241     1.1902      8.269   180.3857 8.5370e+02     2.5258      0.859      1.246    27.6666 0.0000e+00
      0.891      0.051     6.6162     84.391     87.874  92.552243     1.1978      8.271   179.8067 8.3114e+02     2.4955      0.872      1.264    27.6666 0.0000e+00
      0.908      0.055     6.6227     84.390     87.878  92.551355     1.2204      8.272   179.9717 8.2065e+02     2.5372      0.888      1.288    27.6662 0.0000e+00
      0.928      0.058     6.6285     84.343     87.878  92.549503     1.2390      8.272   180.1437 8.2378e+02     2.5852      0.911      1.320    27.6631 0.0000e+00
      0.944      0.058     6.6384     84.306     87.860  92.529838     1.2484      8.272   179.3913 8.2493e+02     2.6319      0.928      1.346    27.6588 0.0000e+00
      0.957      0.059     6.6481     84.312     87.839  92.504355     1.2507      8.273   178.8768 8.1450e+02     2.6581      0.938      1.361    27.6546 0.0000e+00
      0.969      0.062     6.6461     84.357     87.834  92.495737     1.2415      8.276   178.9989 7.9541e+02     2.6281      0.952      1.380    27.6521 0.0000e+00
      0.981      0.065     6.6408     84.405     87.832  92.489217     1.2373      8.277   178.9749 7.9416e+02     2.5775      0.961      1.394    27.6515 0.0000e+00
      0.997      0.068     6.6373     84.429     87.836  92.489103     1.2409      8.277   179.1024 7.9948e+02     2.5581      0.973      1.410    27.6507 0.0000e+00
      1.019      0.069     6.6373     84.406     87.845  92.494352     1.2435      8.278   179.4223 7.8638e+02     2.4961      1.000      1.450    27.6494 0.0000e+00
      1.042      0.068     6.6435     84.363     87.842  92.489096     1.2529      8.279   179.5724 7.6592e+02     2.4082      1.024      1.486    27.6475 0.0000e+00
      1.062      0.064     6.6472     84.358     87.842  92.489134     1.2620      8.279   179.7129 7.4390e+02     2.3841      1.042      1.512    27.6444 0.0000e+00
      1.077      0.058     6.6513     84.407     87.848  92.494810     1.2618      8.280   179.6584 7.2768e+02     2.3748      1.057      1.535    27.6414 0.0000e+00
      1.087      0.053     6.6487     84.462     87.848  92.494132     1.2598      8.281   179.5160 7.1552e+02     2.3644      1.067      1.547    27.6395 0.0000e+00
      1.097      0.050     6.6428     84.447     87.837  92.480927     1.2545      8.282   179.5403 6.8326e+02     2.3604      1.075      1.559    27.6386 0.0000e+00
      1.107      0.051     6.6421     84.354     87.822  92.462323     1.2477      8.281   179.5223 6.5053e+02     2.3269      1.085      1.573    27.6388 0.0000e+00
      1.119      0.055     6.6473     84.247     87.823  92.459955     1.2439      8.281   179.3836 6.3230e+02     2.2672      1.097      1.592    27.6388 0.0000e+00
      1.134      0.061     6.6547     84.152     87.820  92.452293     1.2410      8.281   179.4982 6.2056e+02     2.2536      1.112      1.613    27.6380 0.0000e+00
      1.151      0.069     6.6542     84.036     87.805  92.433265     1.2460      8.281   179.8760 6.1711e+02     2.3326      1.128      1.636    27.6371 0.0000e+00
      1.170      0.076     6.6437     83.876     87.796  92.420643     1.2553      8.282   179.9065 6.2333e+02     2.4031      1.149      1.666    27.6356 0.0000e+00
      1.189      0.079     6.6351     83.706     87.806  92.426848     1.2535      8.282   179.7811 6.3349e+02     2.3887      1.165      1.689    27.6336 0.0000e+00
      1.212      0.079     6.6292     83.564     87.826  92.444698     1.2487      8.282   179.9091 6.3972e+02     2.3632      1.186      1.719    27.6313 0.0000e+00
      1.239      0.077     6.6217     83.511     87.829  92.445690     1.2717      8.283   180.0776 6.3707e+02     2.3338      1.218      1.767    27.6292 0.0000e+00
      1.259      0.074     6.6072     83.540     87.825  92.438843     1.3074      8.283   180.5279 6.2626e+02     2.2725      1.238      1.796    27.6268 0.0000e+00
      1.273      0.070     6.5939     83.526     87.817  92.425488     1.3137      8.283   181.2230 6.2544e+02     2.2367      1.248      1.809    27.6239 0.0000e+00
      1.288      0.064     6.5816     83.496     87.807  92.411390     1.3064      8.283   181.3416 6.2513e+02     2.2431      1.263      1.832    27.6219 0.0000e+00
      1.304      0.058     6.5738     83.459     87.796  92.395550     1.3199      8.283   181.0151 6.1341e+02     2.2809      1.280      1.854    27.6215 0.0000e+00
      1.320      0.056     6.5865     83.322     87.766  92.361137     1.3515      8.284   180.8031 5.9810e+02     2.3184      1.296      1.880    27.6210 0.0000e+00
      1.334      0.056     6.5804     83.122     87.725  92.313242     1.3720      8.284   180.7577 5.7973e+02     2.3209      1.310      1.900    27.6177 0.0000e+00
      1.345      0.059     6.5773     82.986     87.682  92.261566     1.3763      8.283   180.8106 5.7043e+02     2.3111      1.319      1.913    27.6146 0.0000e+00
      1.356      0.068     6.5813     82.983     87.676  92.245014     1.3956      8.282   180.8395 5.7325e+02     2.3031      1.329      1.928    27.6130 0.0000e+00
      1.371      0.079     6.5673     83.084     87.682  92.240270     1.4388      8.282   181.0206 5.8451e+02     2.3257      1.342      1.946    27.6112 0.0000e+00
      1.392      0.089     6.5484     83.246     87.660  92.204181     1.4745      8.281   181.1941 5.8208e+02     2.3782      1.364      1.978    27.6089 0.0000e+00
      1.419      0.094     6.5346     83.393     87.658  92.190174     1.4862      8.281   181.0445 5.4764e+02     2.3917      1.390      2.015    27.6055 0.0000e+00
      1.454      0.094     6.5382     83.454     87.672  92.198065     1.5142      8.281   181.1051 5.1279e+02     2.3525      1.425      2.067    27.5995 0.0000e+00
      1.488      0.091     6.5467     83.461     87.649  92.172412     1.5713      8.281   181.4106 4.9300e+02     2.3149      1.467      2.127    27.5928 0.0000e+00
      1.508      0.087     6.5627     83.451     87.616  92.134343     1.6014      8.281   181.5546 4.8715e+02     2.3120      1.482      2.150    27.5849 0.0000e+00
      1.518      0.083     6.5792     83.401     87.609  92.119301     1.6034      8.281   181.8131 4.8725e+02     2.3180      1.487      2.157    27.5769 0.0000e+00
      1.532      0.078     6.5815     83.309     87.615  92.117696     1.6128      8.281   182.0416 4.7535e+02     2.3190      1.500      2.175    27.5738 0.0000e+00
      1.553      0.075     6.5806     83.255     87.618  92.114920     1.6320      8.281   181.8224 4.5869e+02     2.3240      1.520      2.205    27.5745 0.0000e+00
      1.579      0.075     6.5816     83.299     87.595  92.085728     1.6515      8.282   181.4859 4.3937e+02     2.3448      1.548      2.245    27.5732 0.0000e+00
      1.605      0.080     6.5791     83.394     87.538  92.019088     1.6578      8.282   181.4998 4.1538e+02     2.3649      1.577      2.288    27.5671 0.0000e+00
      1.622      0.087     6.5692     83.463     87.483  91.945037     1.6662      8.283   181.6465 3.9452e+02     2.3623      1.594      2.312    27.5620 0.0000e+00
      1.634      0.096     6.5624     83.459     87.458  91.889807     1.6786      8.284   181.7974 3.7232e+02     2.3478      1.601      2.321    27.5594 0.0000e+00
      1.651      0.105     6.5693     83.439     87.459  91.859949     1.6746      8.284   182.0332 3.4619e+02     2.3265      1.614      2.340    27.5565 0.0000e+00
      1.683      0.111     6.5782     83.465     87.464  91.838324     1.6672      8.284   182.0885 3.1854e+02     2.3090      1.646      2.386    27.5559 0.0000e+00
      1.725      0.113     6.5875     83.490     87.464  91.819045     1.6652      8.284   182.0351 2.9036e+02     2.2394      1.695      2.457    27.5477 0.0000e+00
      1.764      0.108     6.5872     83.539     87.473  91.817580     1.6748      8.285   182.0761 2.6765e+02     2.1332      1.732      2.513    27.5273 0.0000e+00
      1.794      0.096     6.5834     83.676     87.478  91.820598     1.7003      8.285   182.2408 2.5075e+02     2.0843      1.762      2.556    27.5077 0.0000e+00
      1.814      0.082     6.5922     83.821     87.451  91.791947     1.7151      8.285   182.2190 2.3790e+02     2.0923      1.783      2.587    27.4929 0.0000e+00
      1.825      0.074     6.5942     83.891     87.391  91.725509     1.7031      8.285   182.0711 2.3094e+02     2.0932      1.793      2.599    27.4807 0.0000e+00
      1.831      0.079     6.5943     83.928     87.333  91.653156     1.6806      8.286   182.3461 2.2961e+02     2.0614      1.795      2.604    27.4743 0.0000e+00
      1.841      0.092     6.6093     83.969     87.316  91.616552     1.6681      8.286   182.7049 2.3300e+02     2.0490      1.802      2.614    27.4747 0.0000e+00
      1.863      0.104     6.6246     84.002     87.321  91.600822     1.6682      8.286   182.7090 2.3869e+02     2.0462      1.820      2.641    27.4767 0.0000e+00
      1.903      0.111     6.6269     84.070     87.327  91.590107     1.6657      8.287   182.5671 2.4348e+02     2.0271      1.859      2.697    27.4747 0.0000e+00
      1.953      0.109     6.6292     84.189     87.358  91.614151     1.6537      8.288   182.7102 2.4829e+02     2.0234      1.921      2.787    27.4681 0.0000e+00
      1.991      0.099     6.6362     84.297     87.383  91.637174     1.6483      8.287   182.8905 2.5524e+02     2.0349      1.963      2.847    27.4570 0.0000e+00
      2.010      0.084     6.6379     84.407     87.361  91.614128     1.6586      8.286   182.5102 2.6196e+02     2.0637      1.974      2.864    27.4435 0.0000e+00
      2.016      0.068     6.6428     84.563     87.338  91.589848     1.6696      8.286   182.1567 2.6636e+02     2.0984      1.978      2.870    27.4328 0.0000e+00
      2.021      0.057     6.6570     84.700     87.348  91.597945     1.6488      8.286   182.3162 2.6817e+02     2.0793      1.979      2.871    27.4281 0.0000e+00
      2.030      0.052     6.6650     84.756     87.341  91.584855     1.6071      8.286   182.7182 2.6607e+02     2.0376      1.988      2.883    27.4270 0.0000e+00
      2.048      0.055     6.6698     84.777     87.324  91.558745     1.5899      8.287   183.0586 2.5953e+02     2.0386      2.008      2.911    27.4270 0.0000e+00
      2.069      0.059     6.6861     84.817     87.310  91.536580     1.5902      8.289   182.9902 2.5011e+02     2.0562      2.031      2.945    27.4282 0.0000e+00
      2.088      0.063     6.6993     84.855     87.289  91.507592     1.5935      8.290   182.7507 2.4012e+02     2.0120      2.052      2.976    27.4268 0.0000e+00
      2.102      0.067     6.7020     84.870     87.314  91.526177     1.6056      8.290   182.6591 2.2948e+02     1.9137      2.061      2.989    27.4228 0.0000e+00
      2.114      0.071     6.7017     84.872     87.366  91.570520     1.6121      8.291   182.6564 2.1707e+02     1.8929      2.072      3.006    27.4183 0.0000e+00
      2.129      0.074     6.7072     84.842     87.406  91.598622     1.6047      8.292   182.8041 2.0465e+02     1.8970      2.088      3.028    27.4137 0.0000e+00
      2.149      0.079     6.7116     84.756     87.430  91.611583     1.5994      8.292   182.9821 1.9316e+02     1.8267      2.102      3.048    27.4101 0.0000e+00
      2.175      0.082     6.7113     84.558     87.427  91.600047     1.5978      8.293   183.0883 1.8285e+02     1.7946      2.132      3.093    27.4063 0.0000e+00
      2.202      0.082     6.7145     84.231     87.421  91.586291     1.5933      8.294   183.1411 1.7520e+02     1.8155      2.163      3.137    27.4004 0.0000e+00
      2.224      0.078     6.7125     83.859     87.411  91.572420     1.5956      8.294   183.1042 1.6997e+02     1.8060      2.181      3.165    27.3915 0.0000e+00
      2.243      0.072     6.7089     83.529     87.401  91.559504     1.5923      8.295   183.2448 1.6696e+02     1.8163      2.201      3.193    27.3841 0.0000e+00
      2.258      0.067     6.6954     83.272     87.405  91.557288     1.5700      8.295   183.5512 1.6557e+02     1.8719      2.215      3.212    27.3798 0.0000e+00
      2.271      0.065     6.6661     83.113     87.404  91.545613     1.5513      8.294   183.7110 1.6417e+02     1.8984      2.227      3.231    27.3754 0.0000e+00
      2.286      0.065     6.6342     83.033     87.417  91.545489     1.5484      8.294   183.7144 1.6250e+02     1.8967      2.240      3.249    27.3731 0.0000e+00
      2.301      0.067     6.6082     82.954     87.443  91.555778     1.5188      8.294   183.6782 1.6020e+02     1.8180      2.254      3.269    27.3734 0.0000e+00
      2.320      0.071     6.5871     82.857     87.449  91.542811     1.4513      8.294   183.7033 1.5686e+02     1.6293      2.275      3.300    27.3697 0.0000e+00
      2.340      0.075     6.5751     82.765     87.442  91.515851     1.4150      8.293   183.9316 1.5377e+02     1.5284      2.295      3.328    27.3631 0.0000e+00
      2.360      0.079     6.5733     82.621     87.427  91.484107     1.4215      8.292   184.3742 1.5197e+02     1.5890      2.314      3.356    27.3557 0.0000e+00
      2.381      0.081     6.5686     82.341     87.433  91.476907     1.4292      8.291   184.6665 1.5167e+02     1.6441      2.335      3.386    27.3459 0.0000e+00
      2.402      0.082     6.5601     81.935     87.458  91.492356     1.5000      8.290   184.7128 1.5292e+02     1.6819      2.355      3.416    27.3346 0.0000e+00
      2.423      0.082     6.5563     81.517     87.457  91.480117     1.6452      8.288   184.9341 1.5539e+02     1.7734      2.377      3.448    27.3222 0.0000e+00
      2.444      0.082     6.5498     81.223     87.444  91.456083     1.7201      8.286   185.5356 1.5745e+02     1.8281      2.396      3.476    27.3132 0.0000e+00
      2.465      0.079     6.5277     81.083     87.453  91.456097     1.7149      8.284   185.9617 1.5726e+02     1.8301      2.416      3.505    27.3060 0.0000e+00
      2.487      0.073     6.4929     81.004     87.482  91.480260     1.7398      8.283   185.7849 1.5485e+02     1.8663      2.441      3.540    27.2994 0.0000e+00
      2.508      0.068     6.4556     80.923     87.497  91.493882     1.7967      8.282   185.6352 1.5049e+02     1.9585      2.460      3.568    27.2934 0.0000e+00
      2.525      0.066     6.4318     80.863     87.498  91.493622     1.8285      8.281   185.7864 1.4449e+02     2.0569      2.478      3.593    27.2869 0.0000e+00
      2.537      0.070     6.4254     80.836     87.548  91.540707     1.8330      8.278   185.9781 1.3820e+02     2.0996      2.488      3.610    27.2822 0.0000e+00
      2.547      0.079     6.4222     80.842     87.636  91.618074     1.8257      8.276   186.1460 1.3242e+02     2.1681      2.495      3.620    27.2782 0.0000e+00
      2.562      0.089     6.4135     80.807     87.701  91.666012     1.8064      8.275   186.3535 1.2743e+02     2.3037      2.509      3.638    27.2766 0.0000e+00
      2.589      0.096     6.4091     80.523     87.728  91.675186     1.7831      8.274   186.6802 1.2306e+02     2.3385      2.533      3.674    27.2779 0.0000e+00
      2.627      0.099     6.4068     79.873     87.733  91.665381     1.7604      8.271   186.9126 1.1954e+02     2.2819      2.577      3.737    27.2759 0.0000e+00
      2.663      0.096     6.4086     79.013     87.752  91.674600     1.7651      8.267   187.4425 1.1743e+02     2.3015      2.616      3.794    27.2669 0.0000e+00
      2.688      0.087     6.4155     78.176     87.805  91.723050     1.8069      8.265   188.0106 1.1676e+02     2.3712      2.639      3.828    27.2535 0.0000e+00
      2.704      0.076     6.4000     77.417     87.890  91.806075     1.8419      8.263   187.7591 1.1766e+02     2.3732      2.657      3.853    27.2415 0.0000e+00
      2.714      0.067     6.3426     76.687     88.003  91.915395     1.8546      8.261   187.4129 1.1965e+02     2.3590      2.662      3.861    27.2341 0.0000e+00
      2.723      0.062     6.2660     75.919     88.122  92.027432     1.8531      8.259   187.4382 1.2179e+02     2.4385      2.668      3.870    27.2281 0.0000e+00
      2.737      0.062     6.2003     75.041     88.185  92.079709     1.8398      8.255   187.6348 1.2311e+02     2.5495      2.683      3.892    27.2235 0.0000e+00
      2.757      0.067     6.1423     74.034     88.280  92.165931     1.8358      8.252   187.9831 1.2279e+02     2.6076      2.702      3.919    27.2220 0.0000e+00
      2.778      0.075     6.0858     72.904     88.488  92.370449     1.8381      8.249   188.2943 1.2096e+02     2.6286      2.726      3.954    27.2176 0.0000e+00
      2.798      0.082     6.0288     71.653     88.653  92.517684     1.8170      8.245   189.0745 1.1852e+02     2.7355      2.747      3.983    27.2098 0.0000e+00
      2.816      0.087     5.9606     70.284     88.717  92.547162     1.7882      8.241   190.0168 1.1553e+02     2.9772      2.759      4.002    27.2011 0.0000e+00
      2.839      0.090     5.8797     68.629     88.739  92.536028     1.7898      8.238   190.0518 1.1199e+02     3.1261      2.782      4.035    27.1936 0.0000e+00
      2.865      0.090     5.7927     66.565     88.737  92.510191     1.8031      8.234   189.8415 1.0860e+02     3.1010      2.810      4.076    27.1905 0.0000e+00
      2.891      0.089     5.6910     64.399     88.731  92.489091     1.8077      8.229   190.0551 1.0553e+02     3.1861      2.836      4.113    27.1773 0.0000e+00
      2.916      0.086     5.5905     62.488     88.723  92.471648     1.8127      8.224   190.4840 1.0273e+02     3.4378      2.862      4.151    27.1505 0.0000e+00
      2.938      0.079     5.4720     61.002     88.686  92.426452     1.8134      8.219   190.8967 1.0006e+02     3.6164      2.881      4.178    27.1304 0.0000e+00
      2.957      0.071     5.2931     60.020     88.594  92.324148     1.8164      8.215   191.0875 9.7761e+01     3.7069      2.901      4.206    27.1182 0.0000e+00
      2.973      0.065     5.1108     59.462     88.477  92.188512     1.8315      8.210   191.4144 9.6110e+01     3.9851      2.917      4.231    27.1101 0.0000e+00
      2.987      0.061     4.9578     59.226     88.374  92.058219     1.8961      8.204   191.9240 9.4851e+01     4.4178      2.930      4.250    27.1059 0.0000e+00
      3.000      0.060     4.8342     59.245     88.302  91.956909     2.0071      8.198   192.0865 9.3982e+01     4.6011      2.943      4.267    27.1023 0.0000e+00
      3.013      0.060     4.7614     59.282     88.220  91.853769     2.0742      8.192   192.3479 9.3167e+01     4.5955      2.953      4.282    27.1008 0.0000e+00
      3.029      0.064     4.7217     59.105     88.089  91.701334     2.0922      8.186   192.8467 9.1862e+01     4.6575      2.969      4.307    27.0939 0.0000e+00
      3.046      0.068     4.7019     58.733     87.998  91.576289     2.1834      8.181   192.7829 9.0339e+01     5.2821      2.990      4.336    27.0786 0.0000e+00
      3.063      0.070     4.7136     58.273     88.013  91.549951     2.3607      8.176   192.5237 8.8699e+01     6.4775      3.003      4.355    27.0612 0.0000e+00
      3.083      0.070     4.7277     57.851     88.071  91.573564     2.4625      8.170   192.5514 8.6478e+01     7.1548      3.021      4.381    27.0510 0.0000e+00
      3.105      0.070     4.7089     57.593     88.128  91.607394     2.4736      8.163   192.7734 8.4095e+01     7.2208      3.049      4.422    27.0480 0.0000e+00
      3.123      0.070     4.6790     57.543     88.183  91.641022     2.4955      8.158   193.0565 8.2142e+01     7.5141      3.065      4.445    27.0307 0.0000e+00
      3.137      0.070     4.6416     57.696     88.243  91.662200     2.5279      8.153   193.0498 8.0445e+01     8.0703      3.076      4.461    27.0002 0.0000e+00
      3.152      0.070     4.6044     57.991     88.315  91.672620     2.5409      8.148   192.9502 7.8884e+01     8.3788      3.090      4.483    26.9792 0.0000e+00
      3.170      0.070     4.5851     58.275     88.405  91.703329     2.5439      8.143   193.0568 7.7304e+01     8.4083      3.107      4.506    26.9671 0.0000e+00
      3.190      0.070     4.5813     58.297     88.521  91.779049     2.5475      8.138   193.3058 7.5638e+01     8.3932      3.129      4.538    26.9584 0.0000e+00
      3.210      0.070     4.5970     57.806     88.607  91.825048     2.5428      8.134   193.4662 7.4040e+01     8.4007      3.149      4.568    26.9383 0.0000e+00
      3.229      0.067     4.6280     56.723     88.639  91.814326     2.5377      8.131   193.3617 7.2522e+01     8.4308      3.167      4.593    26.8937 0.0000e+00
      3.246      0.061     4.6616     55.156     88.694  91.840098     2.5441      8.127   193.2461 7.1017e+01     8.4833      3.185      4.619    26.8528 0.0000e+00
      3.262      0.054     4.6735     53.365     88.822  91.945858     2.5621      8.123   193.2731 6.9529e+01     8.5908      3.200      4.641    26.8350 0.0000e+00
      3.275      0.047     4.6383     51.714     88.979  92.075621     2.5886      8.118   193.4297 6.8210e+01     8.6718      3.213      4.659    26.8119 0.0000e+00
      3.285      0.041     4.5503     50.363     89.063  92.137265     2.6069      8.114   193.5920 6.7240e+01     8.6438      3.223      4.673    26.7797 0.0000e+00
      3.294      0.034     4.4203     49.186     89.049  92.118864     2.5912      8.110   193.6865 6.6579e+01     8.5258      3.230      4.685    26.7667 0.0000e+00
      3.302      0.029     4.2643     48.126     89.025  92.107479     2.4570      8.106   193.7976 6.5990e+01     7.6543      3.238      4.696    26.7558 0.0000e+00
      3.309      0.025     4.1276     47.267     89.023  92.126801     2.2412      8.103   193.8164 6.5404e+01     6.0667      3.245      4.706    26.7316 0.0000e+00
      3.314      0.022     4.0300     46.736     88.972  92.098175     2.1367      8.100   193.8278 6.4873e+01     5.1794      3.250      4.714    26.7144 0.0000e+00
      3.319      0.020     3.9359     46.633     88.865  92.015746     2.1265      8.096   193.8503 6.4359e+01     5.0566      3.254      4.720    26.7143 0.0000e+00
      3.324      0.018     3.8474     46.937     88.775  91.956841     2.0679      8.092   193.7436 6.3968e+01     4.8205      3.260      4.728    26.7240 0.0000e+00
      3.328      0.016     3.7746     47.567     88.740  91.958290     1.9613      8.089   193.7416 6.3657e+01     4.4088      3.265      4.735    26.7365 0.0000e+00
      3.332      0.014     3.7262     48.475     88.721  91.969733     1.9029      8.085   193.8273 6.3177e+01     4.1778      3.268      4.740    26.7501 0.0000e+00
      3.335      0.013     3.7195     49.660     88.697  91.968074     1.9106      8.082   193.7463 6.2540e+01     4.1789      3.271      4.744    26.7644 0.0000e+00
      3.337      0.012     3.7446     51.046     88.717  92.001849     1.9884      8.079   193.7084 6.1711e+01     4.7643      3.273      4.747    26.7852 0.0000e+00
      3.340      0.011     3.7955     52.431     88.771  92.060192     2.1198      8.075   193.7995 6.0611e+01     5.8583      3.275      4.750    26.8091 0.0000e+00
      3.343      0.011     3.8656     53.595     88.805  92.101220     2.1922      8.072   193.9023 5.9264e+01     6.4417      3.278      4.755    26.8256 0.0000e+00
      3.346      0.011     3.9604     54.372     88.794  92.116394     2.1983      8.070   194.1772 5.7665e+01     6.5226      3.281      4.760    26.8396 0.0000e+00
      3.350      0.010     4.0780     54.745     88.754  92.116527     2.1938      8.066   194.5413 5.6245e+01     6.5628      3.285      4.765    26.8480 0.0000e+00
      3.352      0.008     4.1944     54.829     88.709  92.102889     2.1957      8.061   194.6910 5.5676e+01     6.7574      3.288      4.768    26.8456 0.0000e+00
      3.354      0.006     4.2934     54.798     88.681  92.078724     2.2125      8.058   194.7829 5.5886e+01     7.1337      3.289      4.770    26.8449 0.0000e+00
      3.355      0.004     4.3544     54.783     88.696  92.078715     2.2300      8.056   195.0509 5.6303e+01     7.3548      3.290      4.772    26.8589 0.0000e+00
      3.356      0.003     4.3781     54.752     88.746  92.102753     2.2416      8.052   195.2632 5.6607e+01     7.3815      3.291      4.773    26.8911 0.0000e+00
      3.356      0.001     4.3779     54.607     88.788  92.114970     2.3113      8.049   195.2851 5.6807e+01     7.3880      3.291      4.773    26.9132 0.0000e+00
      3.356      0.000     4.3699     54.338     88.808  92.099205     2.4317      8.046   195.4013 5.7072e+01     7.4334      3.291      4.773    26.9137 0.0000e+00
      3.356      0.000     4.3717     53.989     88.777  92.039257     2.4907      8.043   195.7219 5.7427e+01     7.4871      3.292      4.774    26.9026 0.0000e+00
      3.356     -0.001     4.3749     53.579     88.702  91.962383     2.4912      8.040   196.0640 5.7739e+01     7.4898      3.291      4.773    26.8850 0.0000e+00
      3.356     -0.003     4.3644     53.184     88.649  91.932774     2.4385      8.038   196.2680 5.8013e+01     7.4661      3.290      4.772    26.8690 0.0000e+00
      3.355     -0.005     4.3421     52.960     88.614  91.935645     2.3443      8.034   196.2098 5.8444e+01     7.5084      3.291      4.773    26.8449 0.0000e+00
      3.354     -0.010     4.3167     53.018     88.566  91.933577     2.3009      8.031   195.9625 5.8891e+01     7.5914      3.290      4.771    26.8249 0.0000e+00
      3.352     -0.020     4.2821     53.378     88.496  91.907843     2.2969      8.028   195.8598 5.9011e+01     7.6491      3.287      4.768    26.8263 0.0000e+00
      3.349     -0.035     4.2433     54.031     88.429  91.878924     2.2702      8.025   196.0007 5.8995e+01     7.3862      3.285      4.764    26.8429 0.0000e+00
      3.343     -0.055     4.2203     54.947     88.414  91.901919     2.2286      8.022   196.2025 5.9454e+01     6.7707      3.281      4.759    26.8663 0.0000e+00
      3.330     -0.079     4.2234     56.061     88.402  91.931581     2.2097      8.017   196.4067 6.0993e+01     6.3897      3.270      4.743    26.8947 0.0000e+00
      3.305     -0.101     4.2498     57.316     88.346  91.919697     2.2007      8.012   196.5775 6.3448e+01     6.2978      3.243      4.703    26.9235 0.0000e+00
      3.272     -0.117     4.3008     58.671     88.216  91.821894     2.1772      8.007   196.8041 6.6661e+01     6.0352      3.211      4.656    26.9433 0.0000e+00
      3.232     -0.126     4.3750     60.054     87.430  91.003474     2.1664      8.003   197.0817 7.0750e+01     5.5717      3.174      4.602    26.9651 0.0000e+00
      3.190     -0.129     4.4628     61.292     86.731  90.226234     2.1787      8.000   197.3528 7.4179e+01     5.3045      3.125      4.532    26.9889 0.0000e+00
      3.155     -0.131     4.5620     62.112     87.424  90.880614     2.1927      7.997   197.6728 7.5800e+01     5.3333      3.089      4.480    27.0156 0.0000e+00
      3.131     -0.138     4.6684     62.327     88.214  91.667220     2.2522      7.993   197.8536 7.6864e+01     5.7831      3.071      4.453    27.0461 0.0000e+00
      3.108     -0.149     4.7825     62.053     88.304  91.789329     2.3666      7.989   197.9905 7.8506e+01     6.5754      3.050      4.424    27.0489 0.0000e+00
      3.076     -0.163     4.8939     61.693     88.274  91.848369     2.4271      7.984   198.5544 8.0972e+01     6.9884      3.022      4.384    27.0136 0.0000e+00
      3.028     -0.175     4.9699     61.673     88.190  91.872526     2.4175      7.980   199.3365 8.4334e+01     6.9508      2.976      4.315    26.9627 0.0000e+00
      2.968     -0.179     4.9872     62.314     88.124  91.890838     2.3417      7.978   199.5307 8.8122e+01     6.4615      2.911      4.221    26.9361 0.0000e+00
      2.906     -0.173     4.9490     63.649     88.125  91.942741     2.2101      7.977   199.1825 9.1577e+01     5.5816      2.847      4.129    26.9539 0.0000e+00
      2.854     -0.159     4.9037     65.304     88.150  91.991462     2.1410      7.974   198.8259 9.4172e+01     5.1255      2.791      4.048    27.0134 0.0000e+00
      2.820     -0.141     4.8859     66.882     88.185  92.034855     2.1382      7.972   198.5748 9.5766e+01     5.1145      2.758      4.001    27.0893 0.0000e+00
      2.802     -0.124     4.9277     68.182     88.230  92.085885     2.1267      7.972   198.4689 9.7112e+01     5.0723      2.749      3.987    27.1392 0.0000e+00
      2.784     -0.112     5.0479     69.115     88.240  92.099774     2.0682      7.971   198.4916 9.9341e+01     4.9223      2.735      3.967    27.1640 0.0000e+00
      2.756     -0.109     5.1901     69.649     88.215  92.075620     1.9890      7.970   198.5057 1.0255e+02     4.7358      2.705      3.923    27.1750 0.0000e+00
      2.723     -0.113     5.3189     69.746     88.188  92.048192     1.9519      7.969   198.4671 1.0623e+02     4.6274      2.669      3.871    27.1768 0.0000e+00
      2.690     -0.119     5.4254     69.463     88.165  92.022497     1.9353      7.969   198.5412 1.1040e+02     4.5346      2.638      3.826    27.1791 0.0000e+00
      2.659     -0.122     5.4981     69.028     88.165  92.019298     1.8970      7.969   198.7135 1.1515e+02     4.2296      2.608      3.783    27.1809 0.0000e+00
      2.628     -0.120     5.5429     68.652     88.156  92.009509     1.8555      7.968   198.8292 1.2002e+02     3.7739      2.577      3.738    27.1812 0.0000e+00
      2.597     -0.114     5.5507     68.385     88.113  91.967733     1.8494      7.968   198.8227 1.2437e+02     3.5334      2.547      3.695    27.1824 0.0000e+00
      2.566     -0.106     5.5192     68.238     88.100  91.959295     1.8567      7.967   198.7197 1.2791e+02     3.4744      2.516      3.650    27.1817 0.0000e+00
      2.537     -0.097     5.4782     68.266     88.106  91.971083     1.8517      7.967   198.6166 1.3023e+02     3.3004      2.484      3.604    27.1791 0.0000e+00
      2.514     -0.087     5.4484     68.520     88.115  91.983090     1.8468      7.968   198.6948 1.3164e+02     3.0342      2.464      3.573    27.1788 0.0000e+00
      2.496     -0.078     5.4275     68.980     88.172  92.040892     1.8396      7.968   199.0629 1.3371e+02     2.9203      2.449      3.551    27.1805 0.0000e+00
      2.480     -0.072     5.4129     69.483     88.235  92.097681     1.8311      7.967   199.1096 1.3681e+02     2.9483      2.432      3.527    27.1838 0.0000e+00
      2.463     -0.068     5.4139     69.828     88.246  92.097421     1.8269      7.966   198.7429 1.4076e+02     2.9622      2.415      3.503    27.1876 0.0000e+00
      2.447     -0.070     5.4326     69.880     88.197  92.037741     1.8301      7.966   198.6736 1.4564e+02     2.9518      2.399      3.481    27.1892 0.0000e+00
      2.430     -0.076     5.4752     69.588     88.112  91.948365     1.8456      7.966   198.9600 1.5089e+02     2.9593      2.383      3.457    27.1890 0.0000e+00
      2.413     -0.083     5.5224     69.071     88.067  91.906999     1.8561      7.968   199.2800 1.5683e+02     2.9846      2.367      3.432    27.1835 0.0000e+00
      2.393     -0.089     5.5530     68.565     88.072  91.919124     1.8487      7.970   199.1005 1.6432e+02     2.9844      2.351      3.409    27.1744 0.0000e+00
      2.366     -0.092     5.5616     68.331     88.053  91.904221     1.8394      7.970   198.5110 1.7330e+02     2.9573      2.321      3.368    27.1689 0.0000e+00
      2.335     -0.093     5.5333     68.481     88.001  91.853987     1.8359      7.971   198.2610 1.8163e+02     2.9307      2.288      3.319    27.1686 0.0000e+00
      2.308     -0.092     5.4856     68.861     87.964  91.820446     1.8309      7.971   198.4009 1.8851e+02     2.9349      2.261      3.279    27.1731 0.0000e+00
      2.287     -0.091     5.4367     69.309     87.954  91.816623     1.8288      7.971   198.9114 1.9457e+02     2.8721      2.241      3.251    27.1783 0.0000e+00
      2.270     -0.090     5.4120     69.828     87.939  91.807774     1.8356      7.972   199.5301 1.9832e+02     2.6841      2.227      3.231    27.1807 0.0000e+00
      2.251     -0.088     5.4318     70.410     87.904  91.777057     1.8456      7.974   199.5996 2.0038e+02     2.5738      2.209      3.204    27.1826 0.0000e+00
      2.228     -0.088     5.4677     71.021     87.884  91.763170     1.8503      7.976   199.2364 2.0303e+02     2.6321      2.186      3.172    27.1855 0.0000e+00
      2.200     -0.091     5.4998     71.646     87.882  91.767052     1.8418      7.978   198.8383 2.0552e+02     2.6708      2.158      3.130    27.1893 0.0000e+00
      2.174     -0.097     5.5412     72.194     87.871  91.760416     1.8271      7.979   198.4859 2.0684e+02     2.5986      2.128      3.087    27.1929 0.0000e+00
      2.154     -0.102     5.5897     72.605     87.853  91.746531     1.8225      7.980   198.1594 2.0932e+02     2.5107      2.113      3.064    27.1971 0.0000e+00
      2.133     -0.105     5.6353     72.950     87.829  91.726353     1.8352      7.981   197.8164 2.1447e+02     2.4966      2.096      3.040    27.2007 0.0000e+00
      2.103     -0.107     5.6892     73.316     87.806  91.707213     1.8479      7.982   197.6077 2.2125e+02     2.5306      2.063      2.993    27.2033 0.0000e+00
      2.070     -0.108     5.7354     73.698     87.799  91.705883     1.8350      7.984   197.5282 2.2930e+02     2.4769      2.030      2.943    27.2064 0.0000e+00
      2.039     -0.109     5.7637     74.042     87.795  91.710276     1.8131      7.986   197.3717 2.3820e+02     2.3597      1.999      2.900    27.2099 0.0000e+00
      2.012     -0.107     5.7884     74.347     87.774  91.696759     1.7986      7.988   197.3510 2.4616e+02     2.3088      1.971      2.858    27.2122 0.0000e+00
      1.987     -0.104     5.8169     74.614     87.739  91.669634     1.7768      7.990   197.4498 2.5094e+02     2.2718      1.949      2.826    27.2141 0.0000e+00
      1.962     -0.101     5.8503     74.875     87.697  91.636678     1.7490      7.992   197.2750 2.4964e+02     2.1178      1.925      2.792    27.2181 0.0000e+00
      1.938     -0.100     5.8754     75.207     87.662  91.616234     1.7294      7.993   196.9584 2.4436e+02     1.9151      1.900      2.755    27.2233 0.0000e+00
      1.913     -0.099     5.8995     75.591     87.635  91.613224     1.7223      7.994   196.8056 2.3840e+02     1.8363      1.878      2.723    27.2284 0.0000e+00
      1.887     -0.097     5.9208     76.018     87.599  91.600324     1.7209      7.997   196.8043 2.3036e+02     1.8827      1.851      2.684    27.2332 0.0000e+00
      1.860     -0.093     5.9355     76.599     87.570  91.587484     1.7045      7.999   196.9420 2.2289e+02     1.9292      1.822      2.643    27.2388 0.0000e+00
      1.835     -0.087     5.9635     77.364     87.558  91.585181     1.6737      8.001   197.1810 2.1720e+02     1.9197      1.798      2.608    27.2468 0.0000e+00
      1.813     -0.081     5.9944     78.177     87.540  91.572482     1.6566      8.004   197.2848 2.1336e+02     1.8703      1.776      2.576    27.2625 0.0000e+00
      1.795     -0.076     6.0203     78.885     87.524  91.561132     1.6565      8.006   197.0776 2.1150e+02     1.8110      1.758      2.550    27.2796 0.0000e+00
      1.780     -0.076     6.0641     79.412     87.529  91.575128     1.6718      8.008   196.7412 2.1024e+02     1.8516      1.746      2.532    27.2887 0.0000e+00
      1.765     -0.083     6.1297     79.781     87.554  91.614553     1.7005      8.009   196.6588 2.0996e+02     1.9846      1.732      2.512    27.2940 0.0000e+00
      1.748     -0.094     6.1983     80.098     87.576  91.656319     1.7288      8.012   196.7698 2.1027e+02     2.0875      1.715      2.487    27.2962 0.0000e+00
      1.724     -0.105     6.2561     80.410     87.599  91.698643     1.7471      8.017   196.7065 2.1277e+02     2.1397      1.695      2.459    27.2989 0.0000e+00
      1.690     -0.114     6.2973     80.666     87.626  91.744802     1.7470      8.021   196.5816 2.1743e+02     2.1374      1.660      2.408    27.3041 0.0000e+00
      1.650     -0.120     6.3210     80.841     87.622  91.769348     1.7356      8.025   196.4648 2.2204e+02     2.0942      1.615      2.342    27.3107 0.0000e+00
      1.615     -0.121     6.3428     80.966     87.626  91.804718     1.7269      8.029   196.2402 2.2602e+02     2.0617      1.580      2.292    27.3238 0.0000e+00
      1.588     -0.116     6.3699     81.120     87.646  91.854576     1.7166      8.031   196.2746 2.2950e+02     2.0509      1.559      2.260    27.3349 0.0000e+00
      1.561     -0.107     6.3894     81.330     87.626  91.863530     1.6936      8.034   196.4507 2.3400e+02     2.0669      1.532      2.222    27.3396 0.0000e+00
      1.534     -0.098     6.4009     81.526     87.593  91.849441     1.6739      8.038   196.3044 2.3934e+02     2.1177      1.502      2.177    27.3594 0.0000e+00
      1.510     -0.091     6.4053     81.668     87.609  91.875019     1.6779      8.041   196.3132 2.4300e+02     2.1531      1.480      2.147    27.3801 0.0000e+00
      1.488     -0.086     6.4139     81.723     87.643  91.918454     1.6923      8.044   196.4706 2.4588e+02     2.1532      1.461      2.119    27.3916 0.0000e+00
      1.467     -0.084     6.4325     81.673     87.643  91.929522     1.6987      8.047   196.2287 2.4991e+02     2.1187      1.437      2.084    27.4144 0.0000e+00
      1.450     -0.084     6.4467     81.605     87.645  91.945279     1.6971      8.050   195.9702 2.5331e+02     2.0783      1.421      2.062    27.4267 0.0000e+00
      1.432     -0.086     6.4582     81.577     87.666  91.981815     1.6974      8.052   196.0118 2.5752e+02     2.0744      1.407      2.042    27.4268 0.0000e+00
      1.407     -0.090     6.4650     81.552     87.660  91.989783     1.7021      8.055   196.3017 2.6403e+02     2.0381      1.381      2.003    27.4317 0.0000e+00
      1.381     -0.096     6.4554     81.567     87.645  91.978059     1.6952      8.058   196.4637 2.6816e+02     2.0146      1.352      1.960    27.4383 0.0000e+00
      1.357     -0.104     6.4465     81.675     87.644  91.967247     1.6723      8.061   196.2504 2.7300e+02     2.0975      1.330      1.930    27.4465 0.0000e+00
      1.332     -0.112     6.4477     81.838     87.611  91.922624     1.6506      8.065   196.2169 2.8126e+02     2.1866      1.310      1.900    27.4549 0.0000e+00
      1.302     -0.118     6.4416     82.000     87.579  91.883617     1.6482      8.067   196.4893 2.8781e+02     2.2034      1.277      1.853    27.4644 0.0000e+00
      1.270     -0.121     6.4399     82.133     87.581  91.877132     1.6607      8.068   196.7050 2.9517e+02     2.1642      1.244      1.805    27.4698 0.0000e+00
      1.236     -0.119     6.4521     82.210     87.616  91.907796     1.6686      8.069   196.8454 3.0218e+02     2.0874      1.215      1.763    27.4586 0.0000e+00
      1.200     -0.111     6.4672     82.224     87.696  92.000002     1.6690      8.070   196.9825 3.0712e+02     2.0266      1.178      1.708    27.4519 0.0000e+00
      1.166     -0.099     6.4804     82.197     87.762  92.101785     1.6654      8.071   196.9003 3.1330e+02     2.0449      1.139      1.651    27.4531 0.0000e+00
      1.143     -0.087     6.4925     82.160     87.797  92.184700     1.6579      8.072   196.5390 3.1580e+02     2.1369      1.116      1.618    27.4463 0.0000e+00
      1.130     -0.077     6.5000     82.165     87.805  92.239546     1.6288      8.073   196.1419 3.1811e+02     2.2854      1.108      1.607    27.4395 0.0000e+00
      1.119     -0.068     6.4996     82.251     87.783  92.256306     1.5799      8.076   195.8845 3.2202e+02     2.4057      1.098      1.593    27.4407 0.0000e+00
      1.104     -0.061     6.4949     82.426     87.759  92.260222     1.5497      8.079   195.7510 3.2242e+02     2.3966      1.084      1.572    27.4626 0.0000e+00
      1.086     -0.059     6.4863     82.659     87.767  92.286948     1.5386      8.081   195.6459 3.2657e+02     2.3451      1.065      1.545    27.4923 0.0000e+00
      1.067     -0.061     6.4824     82.906     87.791  92.325119     1.5282      8.084   195.5607 3.3152e+02     2.2951      1.044      1.515    27.5203 0.0000e+00
      1.052     -0.066     6.4864     83.152     87.794  92.340243     1.5245      8.087   195.5806 3.3131e+02     2.2371      1.029      1.492    27.5440 0.0000e+00
      1.041     -0.071     6.4990     83.369     87.785  92.342651     1.5347      8.091   195.7146 3.3395e+02     2.2583      1.023      1.483    27.5597 0.0000e+00
      1.026     -0.076     6.5187     83.529     87.790  92.354260     1.5516      8.094   195.8906 3.4029e+02     2.3460      1.010      1.465    27.5694 0.0000e+00
      1.003     -0.079     6.5365     83.647     87.786  92.353444     1.5621      8.097   195.9007 3.4766e+02     2.4099      0.985      1.427    27.5749 0.0000e+00
      0.977     -0.079     6.5565     83.737     87.765  92.332789     1.5630      8.100   195.5789 3.5758e+02     2.3819      0.959      1.390    27.5822 0.0000e+00
      0.952     -0.073     6.5737     83.764     87.790  92.358870     1.5531      8.103   195.4415 3.6720e+02     2.2812      0.932      1.352    27.5901 0.0000e+00
      0.929     -0.059     6.5854     83.774     87.840  92.414436     1.5426      8.105   195.5297 3.7287e+02     2.2512      0.908      1.317    27.5947 0.0000e+00
      0.913     -0.042     6.5925     83.810     87.851  92.432346     1.5521      8.108   195.5272 3.7524e+02     2.2917      0.892      1.294    27.5950 0.0000e+00
      0.907     -0.026     6.6031     83.786     87.859  92.448259     1.5847      8.111   195.5829 3.7678e+02     2.2927      0.886      1.286    27.5955 0.0000e+00
      0.909     -0.012     6.6035     83.691     87.883  92.479664     1.6119      8.114   195.6012 3.7664e+02     2.2977      0.891      1.292    27.5951 0.0000e+00
      0.913     -0.002     6.5994     83.601     87.893  92.494136     1.6154      8.116   195.6623 3.7519e+02     2.3529      0.897      1.300    27.5959 0.0000e+00
      0.915      0.002     6.6091     83.592     87.890  92.496067     1.5849      8.118   195.8062 3.7561e+02     2.3788      0.898      1.303    27.6010 0.0000e+00
      0.914      0.001     6.6046     83.686     87.892  92.503023     1.5268      8.120   195.7919 3.7890e+02     2.3371      0.897      1.301    27.6062 0.0000e+00
      0.914     -0.003     6.5952     83.836     87.899  92.514662     1.4954      8.122   195.7476 3.8055e+02     2.2925      0.897      1.300    27.6090 0.0000e+00
      0.914     -0.006     6.5851     84.013     87.889  92.509618     1.4969      8.124   195.7866 3.7775e+02     2.2844      0.897      1.301    27.6107 0.0000e+00
      0.912     -0.006     6.5827     84.183     87.880  92.505629     1.5117      8.125   195.6613 3.7592e+02     2.3079      0.896      1.298    27.6135 0.0000e+00
      0.908     -0.002     6.5929     84.278     87.897  92.530032     1.5326      8.126   195.4367 3.7700e+02     2.3374      0.890      1.291    27.6168 0.0000e+00
      0.903      0.003     6.6042     84.271     87.910  92.550321     1.5409      8.129   195.5664 3.8000e+02     2.3677      0.885      1.284    27.6192 0.0000e+00
      0.903      0.008     6.6187     84.211     87.913  92.560191     1.5454      8.131   196.1113 3.7941e+02     2.4016      0.885      1.283    27.6219 0.0000e+00
      0.908      0.011     6.6342     84.136     87.932  92.585796     1.5372      8.133   196.6043 3.7411e+02     2.3706      0.890      1.291    27.6248 0.0000e+00
      0.917      0.011     6.6426     84.043     87.947  92.605565     1.5177      8.136   196.7943 3.6859e+02     2.3003      0.900      1.305    27.6281 0.0000e+00
      0.925      0.007     6.6390     83.939     87.946  92.608451     1.5170      8.140   196.8609 3.6463e+02     2.2693      0.909      1.318    27.6326 0.0000e+00
      0.928      0.001     6.6329     83.899     87.954  92.620700     1.5285      8.143   196.8934 3.6916e+02     2.2683      0.912      1.322    27.6366 0.0000e+00
      0.924     -0.004     6.6266     83.973     87.957  92.626491     1.5317      8.144   196.9285 3.7312e+02     2.2884      0.908      1.316    27.6396 0.0000e+00
      0.917     -0.006     6.6200     84.106     87.944  92.614882     1.5312      8.146   197.0277 3.6972e+02     2.3423      0.899      1.304    27.6422 0.0000e+00
      0.910     -0.006     6.6086     84.231     87.936  92.607524     1.5395      8.148   197.0604 3.7219e+02     2.4070      0.890      1.292    27.6441 0.0000e+00
      0.907     -0.003     6.6025     84.309     87.930  92.601118     1.5563      8.150   196.9794 3.7568e+02     2.4230      0.887      1.287    27.6462 0.0000e+00
      0.910      0.001     6.6113     84.324     87.929  92.601014     1.5687      8.151   196.9086 3.7083e+02     2.3988      0.891      1.292    27.6482 0.0000e+00
      0.915      0.002     6.6234     84.311     87.933  92.606264     1.5467      8.152   196.8069 3.6716e+02     2.3523      0.899      1.304    27.6490 0.0000e+00
      0.920      0.001     6.6337     84.291     87.927  92.601018     1.4982      8.155   196.6953 3.6805e+02     2.3048      0.904      1.310    27.6493 0.0000e+00
      0.920      0.000     6.6414     84.248     87.927  92.601168     1.4738      8.157   196.6781 3.7095e+02     2.3035      0.903      1.309    27.6496 0.0000e+00
      0.917      0.002     6.6405     84.203     87.932  92.608086     1.4772      8.158   196.6852 3.7457e+02     2.3361      0.900      1.305    27.6502 0.0000e+00
      0.912      0.010     6.6384     84.195     87.944  92.621073     1.4979      8.160   196.6947 3.7319e+02     2.4257      0.895      1.297    27.6506 0.0000e+00
      0.907      0.021     6.6384     84.216     87.955  92.631010     1.5321      8.164   196.6216 3.7084e+02     2.5332      0.888      1.287    27.6511 0.0000e+00
      0.910      0.031     6.6340     84.249     87.929  92.601055     1.5493      8.168   196.4900 3.6865e+02     2.5762      0.886      1.285    27.6519 0.0000e+00
      0.929      0.034     6.6283     84.295     87.907  92.576834     1.5477      8.170   196.4795 3.6120e+02     2.6039      0.907      1.315    27.6526 0.0000e+00
      0.955      0.031     6.6288     84.341     87.922  92.592503     1.5300      8.173   196.4950 3.5631e+02     2.5613      0.940      1.362    27.6530 0.0000e+00
      0.972      0.026     6.6312     84.353     87.929  92.599742     1.4933      8.176   196.5055 3.5781e+02     2.4026      0.960      1.393    27.6519 0.0000e+00
      0.970      0.018     6.6332     84.290     87.929  92.600776     1.4696      8.178   196.5202 3.5816e+02     2.2907      0.956      1.387    27.6500 0.0000e+00
      0.959      0.006     6.6382     84.184     87.932  92.605001     1.4683      8.179   196.5009 3.5832e+02     2.3012      0.937      1.358    27.6490 0.0000e+00
      0.953     -0.009     6.6417     84.108     87.916  92.587244     1.4775      8.181   196.2714 3.5964e+02     2.4274      0.931      1.348    27.6488 0.0000e+00
      0.957     -0.025     6.6454     84.054     87.906  92.576841     1.4894      8.181   195.7252 3.5525e+02     2.5866      0.938      1.360    27.6493 0.0000e+00
      0.963     -0.036     6.6392     84.003     87.932  92.606390     1.4964      8.180   195.3170 3.4637e+02     2.6549      0.949      1.375    27.6502 0.0000e+00
      0.957     -0.046     6.6268     83.988     87.947  92.626576     1.4946      8.180   195.2073 3.3903e+02     2.6388      0.947      1.372    27.6507 0.0000e+00
      0.932     -0.062     6.6225     84.018     87.945  92.630155     1.4851      8.180   195.0882 3.3352e+02     2.5620      0.918      1.332    27.6503 0.0000e+00
      0.901     -0.092     6.6194     84.054     87.958  92.649678     1.4731      8.181   194.9091 3.3169e+02     2.5125      0.877      1.273    27.6496 0.0000e+00
      0.882     -0.135     6.6134     84.094     87.972  92.671883     1.4653      8.185   194.7624 3.3579e+02     2.5186      0.858      1.244    27.6505 0.0000e+00
      0.872     -0.183     6.6110     84.149     87.995  92.707877     1.4738      8.188   194.4327 3.3716e+02     2.5330      0.866      1.256    27.6537 0.0000e+00
      0.836     -0.228     6.6158     84.203     88.034  92.766963     1.4765      8.190   193.9341 3.3959e+02     2.5501      0.840      1.218    27.6572 0.0000e+00
      0.757     -0.260     6.6176     84.260     88.059  92.814018     1.4232      8.191   193.6380 3.6230e+02     2.5547      0.748      1.085    27.6594 0.0000e+00
      0.654     -0.272     6.6193     84.285     88.055  92.831731     1.3456      8.193   193.5196 3.9609e+02     2.5547      0.641      0.930    27.6632 0.0000e+00
      0.550     -0.260     6.6244     84.182     88.058  92.853984     1.3120      8.194   193.3632 4.2054e+02     2.5494      0.533      0.774    27.6703 0.0000e+00
      0.468     -0.222     6.6268     83.956     88.080  92.892337     1.3005      8.195   193.1237 4.4697e+02     2.5594      0.442      0.641    27.6804 0.0000e+00
      0.425     -0.168     6.6290     83.640     88.087  92.913936     1.2484      8.196   192.8612 4.7228e+02     2.5725      0.405      0.588    27.6938 0.0000e+00
      0.413     -0.123     6.6356     83.247     88.083  92.924390     1.1723      8.198   192.5118 4.7512e+02     2.5707      0.406      0.589    27.7064 0.0000e+00
      0.406     -0.113     6.6246     82.961     88.100  92.955170     1.1461      8.199   191.9112 4.7244e+02     2.5723      0.399      0.578    27.7174 0.0000e+00
      0.401     -0.141     6.6026     82.891     88.160  93.031773     1.1557      8.200   191.3627 4.7305e+02     2.5921      0.390      0.565    27.7260 0.0000e+00
      0.390     -0.194     6.5821     82.956     88.250  93.151119     1.1138      8.202   192.3330 4.9243e+02     2.6047      0.398      0.576    27.7328 0.0000e+00
      0.340     -0.242     6.5400     83.096     88.298  93.253596     1.0139      8.204   194.6093 5.6893e+02     2.5885      0.359      0.520    27.7417 0.0000e+00
      0.236     -0.263     6.5132     83.250     88.291  93.317041     0.9555      8.207   195.6545 6.4068e+02     2.5672      0.239      0.346    27.7496 0.0000e+00
      0.111     -0.252     6.5127     83.340     88.254  93.346026     0.9483      8.209   194.5601 6.6708e+02     2.5525      0.098      0.142    27.7549 0.0000e+00
      0.012     -0.214     6.5166     83.348     88.209  93.349791     0.9108      8.209   193.5949 7.2180e+02     2.5815     -0.010     -0.016    27.7629 0.0000e+00
     -0.032     -0.161     6.5260     83.311     88.191  93.362648     0.8589      8.211   194.7389 7.8396e+02     2.6442     -0.050     -0.073    27.7945 0.0000e+00
     -0.029     -0.113     6.5354     83.261     88.176  93.374352     0.8461      8.214   195.7442 7.9516e+02     2.6952     -0.034     -0.049    27.8414 0.0000e+00
     -0.007     -0.092     6.5384     83.169     88.140  93.364152     0.8472      8.215   194.3066 7.7406e+02     3.1989     -0.002     -0.002    27.8816 0.0000e+00
     -0.000     -0.108     6.5335     82.938     88.128  93.366556     0.7893      8.214   191.9837 7.6896e+02     8.9391      0.016      0.022    27.9136 0.0000e+00
     -0.030     -0.153     6.5284     82.481     88.161  93.403448     0.6864      8.213   192.1790 7.8282e+02    19.4254     -0.019     -0.028    27.9254 0.0000e+00
     -0.090     -0.201     6.5233     81.764     88.189  93.428675     0.6278      8.212   195.9798 7.8632e+02    25.0835     -0.083     -0.120    27.9384 0.0000e+00
     -0.172     -0.231     6.5167     80.818     88.185  93.417215     0.5959      8.212   201.0284 7.8342e+02    25.0190     -0.163     -0.236    27.9607 0.0000e+00
     -0.262     -0.238     6.5012     79.925     88.175  93.392046     0.4177      8.213   203.2320 7.5716e+02    18.4070     -0.264     -0.382    27.9680 0.0000e+00
     -0.337     -0.223     6.4647     79.467     88.183  93.378708     0.1128      8.214   202.9204 7.2057e+02     6.1472     -0.344     -0.498    27.9668 0.0000e+00
     -0.382     -0.191     6.4113     79.468     88.212  93.383101    -0.0440      8.217   204.3155 7.0312e+02    -0.5467     -0.383     -0.556    27.9649 0.0000e+00
     -0.408     -0.149     6.3294     79.599     88.174  93.317944    -0.0553      8.218   206.4202 6.9277e+02    -1.1106     -0.394     -0.572    27.9611 0.0000e+00
     -0.440     -0.108     6.2439     79.454     87.269  92.336492    -0.0823      8.218   207.4610 6.5993e+02    -0.8753     -0.428     -0.620    27.9535 0.0000e+00
     -0.474     -0.075     6.2106     78.805     76.938  81.389224    -0.1290      8.219   208.2959 5.8369e+02    -0.3664     -0.476     -0.689    27.9402 0.0000e+00
     -0.489     -0.052     6.2233     77.772     51.675  54.656906    -0.1450      8.221   209.1155 4.7079e+02    -0.0818     -0.483     -0.701    27.9245 0.0000e+00
     -0.490     -0.033     6.2475     76.659     26.821  28.366693    -0.1348      8.222   209.8855 3.6313e+02    -0.0647     -0.480     -0.696    27.9096 0.0000e+00
     -0.490     -0.016     6.2459     75.633     15.356  16.239860    -0.1384      8.222   210.5506 3.0654e+02    -0.0903     -0.481     -0.698    27.8952 0.0000e+00
     -0.490     -0.005     6.1921     74.750     12.244  12.946738    -0.1307      8.222   210.9626 2.7986e+02    -0.1872     -0.480     -0.697    27.8829 0.0000e+00
     -0.490     -0.000     6.1000     74.075     10.921  11.544669    -0.0995      8.223   210.7367 2.4438e+02    -0.2800     -0.481     -0.698    27.8757 0.0000e+00
     -0.490 -2.860e-08     6.0107     73.667      9.814  10.371174    -0.0778      8.224   209.9710 2.0296e+02    -0.2559     -0.480     -0.696    27.8719 0.0000e+00
     -0.490 -3.145e-07     5.9301     73.537      8.896   9.397838    -0.0680      8.224   209.1890 1.7692e+02    -0.2370     -0.480     -0.697    27.8695 0.0000e+00
     -0.490 -3.145e-07     5.8589     73.612      7.883   8.325484    -0.0812      8.224   208.6814 1.7196e+02    -0.2900     -0.481     -0.698    27.8642 0.0000e+00
     -0.490 -2.859e-08     5.8062     73.792      6.719   7.094005    -0.1202      8.224   208.6516 1.7852e+02    -0.3164     -0.480     -0.697    27.8501 0.0000e+00
     -0.490 -2.599e-09     5.7745     73.997      5.896   6.222557    -0.1403      8.224   209.0870 1.8079e+02    -0.3176     -0.481     -0.697    27.8314 0.0000e+00
     -0.490 -2.363e-10     5.7696     74.200      5.526   5.830402    -0.1325      8.223   209.0418 1.6069e+02    -0.3385     -0.481     -0.697    27.8136 0.0000e+00
     -0.490 -2.148e-11     5.7797     74.401      5.292   5.581615    -0.1177      8.220   208.2767 1.2732e+02    -0.3628     -0.481     -0.698    27.7964 0.0000e+00
     -0.490 -1.953e-12     5.7980     74.594      5.090   5.367193    -0.1022      8.216   208.1817 1.0897e+02    -0.3724     -0.480     -0.697    27.7789 0.0000e+00
     -0.490 -1.776e-13     5.8170     74.778      4.992   5.263908    -0.0877      8.212   208.8402 1.1807e+02    -0.3530     -0.480     -0.697    27.7608 0.0000e+00
     -0.491 -1.622e-14     5.8339     74.933      5.129   5.409139    -0.0752      8.211   209.6136 1.4289e+02    -0.3335     -0.480     -0.697    27.7411 0.0000e+00
     -0.491 -2.337e-15     5.8526     75.018      6.334   6.679969    -0.0762      8.218   210.9932 1.5842e+02    -0.3407     -0.482     -0.699    27.7241 0.0000e+00
     -0.490 -9.694e-15     5.8681     75.074      8.814   9.295099    -0.0835      8.231   214.5075 1.6037e+02    -0.3372     -0.481     -0.698    27.7158 0.0000e+00
     -0.490 -1.052e-13     5.8828     75.164     11.033  11.635942    -0.0795      8.239   218.8077 1.6508e+02    -0.2918     -0.480     -0.697    27.7147 0.0000e+00
     -0.490 -1.157e-12     5.8977     75.254     11.974  12.628255    -0.0859      8.237   221.1721 1.8414e+02    -0.2701     -0.481     -0.698    27.7164 0.0000e+00
     -0.490 -1.272e-11     5.9023     75.324     11.722  12.363032    -0.1029      8.234   222.6174 2.3759e+02    -0.2466     -0.481     -0.697    27.7189 0.0000e+00
     -0.490 -1.400e-10     5.9027     75.397     10.874  11.469244    -0.1015      8.232   223.3765 3.1769e+02    -0.1433     -0.481     -0.697    27.7213 0.0000e+00
     -0.491 -1.540e-09     5.9125     75.467     10.194  10.751700    -0.0863      8.230   223.1240 3.9239e+02    -0.0804     -0.482     -0.699    27.7240 0.0000e+00
     -0.491 -1.694e-08     5.9201     75.534      9.621  10.147225    -0.0770      8.229   222.6623 5.1589e+02    -0.0664     -0.482     -0.699    27.7260 0.0000e+00
     -0.491 -1.863e-07     5.9232     75.606      8.688   9.163612    -0.0800      8.228   221.8374 7.0450e+02    -0.0427     -0.482     -0.699    27.7274 0.0000e+00
     -0.491 -1.863e-07     5.9303     75.677      7.504   7.914620    -0.0813      8.227   221.0664 8.4303e+02    -0.1013     -0.481     -0.698    27.7285 0.0000e+00
     -0.491 -1.693e-08     5.9355     75.741      6.410   6.760700    -0.0764      8.226   220.8247 8.9371e+02    -0.2287     -0.481     -0.698    27.7296 0.0000e+00
     -0.491 -1.539e-09     5.9401     75.806      5.365   5.659535    -0.0785      8.226   220.6362 9.0319e+02    -0.3189     -0.482     -0.699    27.7301 0.0000e+00
     -0.491 -1.400e-10     5.9461     75.881      4.365   4.604496    -0.0903      8.226   220.3359 9.0162e+02    -0.3714     -0.482     -0.699    27.7303 0.0000e+00
     -0.491 -1.272e-11     5.9521     75.960      3.679   3.881185    -0.0947      8.226   220.0334 9.0123e+02    -0.3854     -0.482     -0.699    27.7307 0.0000e+00
     -0.491 -1.157e-12     5.9567     76.032      3.317   3.498391    -0.0813      8.225   219.4731 9.0240e+02    -0.3524     -0.481     -0.698    27.7310 0.0000e+00
     -0.491 -1.060e-13     5.9612     76.093      3.038   3.204913    -0.0785      8.223   218.6383 9.1748e+02    -0.3479     -0.482     -0.699    27.7315 0.0000e+00
     -0.491 -1.912e-14     5.9675     76.120      2.896   3.054978    -0.0858      8.222   218.1992 9.5464e+02    -0.3644     -0.481     -0.698    27.7318 0.0000e+00
     -0.491 -9.990e-29     5.9740 -9.990e-29 -9.990e-29 -9.990e-29 -9.990e-29 -9.990e-29 -9.990e-29 1.0350e+03 -9.990e-29     -0.482     -0.699    27.7319 0.0000e+00
     -0.491 -9.990e-29     5.9795 -9.990e-29 -9.990e-29 -9.990e-29 -9.990e-29 -9.990e-29 -9.990e-29 1.1321e+03 -9.990e-29     -0.481     -0.698    27.7320 0.0000e+00
     -0.491 -9.990e-29     5.9849 -9.990e-29 -9.990e-29 -9.990e-29 -9.990e-29 -9.990e-29 -9.990e-29 1.1259e+03 -9.990e-29     -0.482     -0.699    27.7323 0.0000e+00
     -0.491 -9.990e-29     5.9885 -9.990e-29 -9.990e-29 -9.990e-29 -9.990e-29 -9.990e-29 -9.990e-29 1.0791e+03 -9.990e-29     -0.481     -0.698    27.7325 0.0000e+00
