* Sea-Bird SBE19plus  Data File:
* FileName = C:\DATA\070918_fcr_0001.hex
* Software version 2.6.3.104
* Temperature SN = 7809
* Conductivity SN = 7809
* System UpLoad Time = Jul 10 2018 08:12:13
* <ApplicationData>
* <Seaterm232>
* <SoftwareVersion>2.6.3.104</SoftwareVersion>
* <BuildDate>30-Jun-2017</BuildDate>
* </Seaterm232>
* </ApplicationData>
* <InstrumentState>
* <HardwareData DeviceType='SBE19plus' SerialNumber='01907809'>
*
*    <Manufacturer>Sea-Bird Electronics, Inc.</Manufacturer>
*
*    <FirmwareVersion>3.1.8</FirmwareVersion>
*
*    <FirmwareDate>Mar  9 2016 16:22:29</FirmwareDate>
*
*    <CommandSetVersion>1.4</CommandSetVersion>
*
*    <PCBAssembly PCBSerialNum='120721' AssemblyNum='41054J'/>
*
*    <PCBAssembly PCBSerialNum='120715' AssemblyNum='41967A'/>
*
*    <PCBAssembly PCBSerialNum='116699' AssemblyNum='41606'/>
*
*    <PCBAssembly PCBSerialNum='120719' AssemblyNum='41059D'/>
*
*    <MfgDate>28-Apr-2017</MfgDate>
*
*    <InternalSensors>
*
*       <Sensor id='Main Temperature'>
*
*          <type>temperature0</type>
*
*          <SerialNumber>01907809</SerialNumber>
*
*       </Sensor>
*
*       <Sensor id='Main Conductivity'>
*
*          <type>conductivity-0</type>
*
*          <SerialNumber>01907809</SerialNumber>
*
*       </Sensor>
*
*       <Sensor id='Main Pressure'>
*
*          <type>strain-0</type>
*
*          <SerialNumber>10586018</SerialNumber>
*
*       </Sensor>
*
*    </InternalSensors>
*
*    <ExternalSensors>
*
*       <Sensor id='volt 0'>
*
*          <type>pH</type>
*
*          <SerialNumber>27-0363</SerialNumber>
*
*       </Sensor>
*
*       <Sensor id='volt 1'>
*
*          <type>ORP</type>
*
*          <SerialNumber>27-0363</SerialNumber>
*
*       </Sensor>
*
*       <Sensor id='volt 2'>
*
*          <type>OXY</type>
*
*          <SerialNumber>43-0434</SerialNumber>
*
*       </Sensor>
*
*       <Sensor id='volt 3'>
*
*          <type>PAR</type>
*
*          <SerialNumber>1122</SerialNumber>
*
*       </Sensor>
*
*       <Sensor id='volt 4'>
*
*          <type>ECO AFL/FL</type>
*
*          <SerialNumber>FLNTURT-2496</SerialNumber>
*
*       </Sensor>
*
*       <Sensor id='volt 5'>
*
*          <type>ECO-NTU</type>
*
*          <SerialNumber>FLNTURT-2496</SerialNumber>
*
*       </Sensor>
*
*       <Sensor id='serial'>
*
*          <type>not assigned</type>
*
*          <SerialNumber>not assigned</SerialNumber>
*
*       </Sensor>
*
*    </ExternalSensors>
*
* </HardwareData>
* <StatusData DeviceType='SBE19plus' SerialNumber='01907809'>
*
*    <DateTime>2018-07-10T12:11:52</DateTime>
*
*    <LoggingState>not logging</LoggingState>
*
*    <EventSummary numEvents='0'/>
*
*    <Power>
*
*       <vMain>12.7</vMain>
*
*       <vLith>8.7</vLith>
*
*       <iMain>63.3</iMain>
*
*       <iPump>55.5</iPump>
*
*       <iExt01>14.2</iExt01>
*
*       <iExt2345>42.9</iExt2345>
*
*    </Power>
*
*    <MemorySummary>
*
*       <Bytes>40595</Bytes>
*
*       <Samples>1765</Samples>
*
*       <SamplesFree>2859023</SamplesFree>
*
*       <SampleLength>23</SampleLength>
*
*       <Profiles>4</Profiles>
*
*    </MemorySummary>
*
* </StatusData>
* <ConfigurationData DeviceType='SBE19plus' SerialNumber='01907809'>
*
*    <ProfileMode>
*
*       <ScansToAverage>1</ScansToAverage>
*
*       <MinimumCondFreq>5</MinimumCondFreq>
*
*       <PumpDelay>45</PumpDelay>
*
*       <AutoRun>no</AutoRun>
*
*       <IgnoreSwitch>no</IgnoreSwitch>
*
*    </ProfileMode>
*
*    <Battery>
*
*       <Type>alkaline</Type>
*
*       <CutOff>7.5</CutOff>
*
*    </Battery>
*
*    <DataChannels>
*
*       <ExtVolt0>yes</ExtVolt0>
*
*       <ExtVolt1>yes</ExtVolt1>
*
*       <ExtVolt2>yes</ExtVolt2>
*
*       <ExtVolt3>yes</ExtVolt3>
*
*       <ExtVolt4>yes</ExtVolt4>
*
*       <ExtVolt5>yes</ExtVolt5>
*
*       <SBE38>no</SBE38>
*
*       <WETLABS>no</WETLABS>
*
*       <OPTODE>no</OPTODE>
*
*       <SBE63>no</SBE63>
*
*       <SeaFET>no</SeaFET>
*
*       <GTD>no</GTD>
*
*    </DataChannels>
*
*    <EchoCharacters>yes</EchoCharacters>
*
*    <OutputExecutedTag>yes</OutputExecutedTag>
*
*    <OutputFormat>raw HEX</OutputFormat>
*
* </ConfigurationData>
* <CalibrationCoefficients DeviceType='SBE19plus' SerialNumber='01907809'>
*
*    <Calibration format='TEMP1' id='Main Temperature'>
*
*       <SerialNum>01907809</SerialNum>
*
*       <CalDate>09-Mar-18</CalDate>
*
*       <TA0>1.210932e-03</TA0>
*
*       <TA1>2.843566e-04</TA1>
*
*       <TA2>-1.945074e-06</TA2>
*
*       <TA3>2.128067e-07</TA3>
*
*       <TOFFSET>0.000000e+00</TOFFSET>
*
*    </Calibration>
*
*    <Calibration format='WBCOND0' id='Main Conductivity'>
*
*       <SerialNum>01907809</SerialNum>
*
*       <CalDate>09-Mar-18</CalDate>
*
*       <G>-1.006721e+00</G>
*
*       <H>1.269065e-01</H>
*
*       <I>-1.405844e-04</I>
*
*       <J>2.478371e-05</J>
*
*       <CPCOR>-9.570000e-08</CPCOR>
*
*       <CTCOR>3.250000e-06</CTCOR>
*
*       <CSLOPE>1.000000e+00</CSLOPE>
*
*    </Calibration>
*
*    <Calibration format='STRAIN0' id='Main Pressure'>
*
*       <SerialNum>10586018</SerialNum>
*
*       <CalDate>07-Mar-18</CalDate>
*
*       <PA0>-4.081764e-02</PA0>
*
*       <PA1>4.851884e-04</PA1>
*
*       <PA2>-3.511682e-12</PA2>
*
*       <PTCA0>5.252134e+05</PTCA0>
*
*       <PTCA1>1.795324e+00</PTCA1>
*
*       <PTCA2>-2.843535e-01</PTCA2>
*
*       <PTCB0>2.516687e+01</PTCB0>
*
*       <PTCB1>3.750000e-04</PTCB1>
*
*       <PTCB2>0.000000e+00</PTCB2>
*
*       <PTEMPA0>-5.378069e+01</PTEMPA0>
*
*       <PTEMPA1>5.366207e+01</PTEMPA1>
*
*       <PTEMPA2>4.872143e-02</PTEMPA2>
*
*       <POFFSET>5.000000e-01</POFFSET>
*
*       <PRANGE>1.600000e+02</PRANGE>
*
*    </Calibration>
*
*    <Calibration format='VOLT0' id='Volt 0'>
*
*       <OFFSET>-4.920000e-02</OFFSET>
*
*       <SLOPE>1.248122e+00</SLOPE>
*
*    </Calibration>
*
*    <Calibration format='VOLT0' id='Volt 1'>
*
*       <OFFSET>-4.784000e-02</OFFSET>
*
*       <SLOPE>1.248871e+00</SLOPE>
*
*    </Calibration>
*
*    <Calibration format='VOLT0' id='Volt 2'>
*
*       <OFFSET>-4.864632e-02</OFFSET>
*
*       <SLOPE>1.248714e+00</SLOPE>
*
*    </Calibration>
*
*    <Calibration format='VOLT0' id='Volt 3'>
*
*       <OFFSET>-4.743790e-02</OFFSET>
*
*       <SLOPE>1.248571e+00</SLOPE>
*
*    </Calibration>
*
*    <Calibration format='VOLT0' id='Volt 4'>
*
*       <OFFSET>-4.671263e-02</OFFSET>
*
*       <SLOPE>1.248951e+00</SLOPE>
*
*    </Calibration>
*
*    <Calibration format='VOLT0' id='Volt 5'>
*
*       <OFFSET>-4.871053e-02</OFFSET>
*
*       <SLOPE>1.249136e+00</SLOPE>
*
*    </Calibration>
*
*    <Calibration format='FREQ0' id='external frequency channel'>
*
*       <EXTFREQSF>1.000014e+00</EXTFREQSF>
*
*    </Calibration>
*
* </CalibrationCoefficients>
* <EventCounters DeviceType='SBE19plus' SerialNumber='01907809'>
*
*    <EventSummary numEvents='0'/>
*
* </EventCounters></InstrumentState>
* <Headers>
*
* cast   1 09 Jul 2018 16:10:00 samples 1 to 486, avg = 1, stop = mag switch
*
# nquan = 17
# nvalues = 221                         
# units = specified
# name 0 = depFM: Depth [fresh water, m]
# name 1 = tv290C: Temperature [ITS-90, deg C]
# name 2 = sbeox0Mg/L: Oxygen, SBE 43 [mg/l]
# name 3 = sbeox0PS: Oxygen, SBE 43 [% saturation]
# name 4 = c0uS/cm: Conductivity [uS/cm]
# name 5 = specc: Specific Conductance [uS/cm]
# name 6 = ph: pH
# name 7 = orp: Oxidation Reduction Potential [mV]
# name 8 = flECO-AFL: Fluorescence, WET Labs ECO-AFL/FL [mg/m^3]
# name 9 = turbWETntu0: Turbidity, WET Labs ECO [NTU]
# name 10 = sal00: Salinity, Practical [PSU]
# name 11 = dz/dtM: Descent Rate [m/s]
# name 12 = prdM: Pressure, Strain Gauge [db]
# name 13 = prdE: Pressure, Strain Gauge [psi]
# name 14 = scan: Scan Count
# name 15 = par/sat/log: PAR/Logarithmic, Satlantic
# name 16 = flag:  0.000e+00
# span 0 =     -0.475,      2.638       
# span 1 =    20.2324,    28.5967       
# span 2 =    -0.0533,    12.5793       
# span 3 =     -0.590,    143.263       
# span 4 =   0.516516,  83.003772       
# span 5 =      0.579,     91.356       
# span 6 =      6.265,      7.881       
# span 7 = -1137.3195,  1240.2295       
# span 8 =    -0.2385,     4.4804       
# span 9 =    -0.7346,    12.2503       
# span 10 =     0.0130,     0.0468      
# span 11 =     -0.030,      0.167      
# span 12 =     -0.466,      2.586      
# span 13 =     -0.675,      3.751      
# span 14 =          1,        221      
# span 15 = 5.5601e+01, 2.8146e+03      
# span 16 = 0.0000e+00, 0.0000e+00      
# interval = seconds: 0.25
# start_time = Jul 09 2018 16:10:00 [Instrument's time stamp, header]
# bad_flag = -9.990e-29
# <Sensors count="9" >
#   <sensor Channel="1" >
#     <!-- Count, Temperature -->
#     <TemperatureSensor SensorID="58" >
#       <SerialNumber>7809</SerialNumber>
#       <CalibrationDate>09-Mar-18</CalibrationDate>
#       <A0>1.21093245e-003</A0>
#       <A1>2.84356597e-004</A1>
#       <A2>-1.94507398e-006</A2>
#       <A3>2.12806664e-007</A3>
#       <Slope>1.00000000</Slope>
#       <Offset>0.0000</Offset>
#     </TemperatureSensor>
#   </sensor>
#   <sensor Channel="2" >
#     <!-- Frequency 0, Conductivity -->
#     <ConductivitySensor SensorID="3" >
#       <SerialNumber>7809</SerialNumber>
#       <CalibrationDate>09-Mar-18</CalibrationDate>
#       <UseG_J>1</UseG_J>
#       <!-- Cell const and series R are applicable only for wide range sensors. -->
#       <SeriesR>0.0000</SeriesR>
#       <CellConst>2000.0000</CellConst>
#       <ConductivityType>0</ConductivityType>
#       <Coefficients equation="0" >
#         <A>0.00000000e+000</A>
#         <B>0.00000000e+000</B>
#         <C>0.00000000e+000</C>
#         <D>0.00000000e+000</D>
#         <M>0.0</M>
#         <CPcor>-9.57000000e-008</CPcor>
#       </Coefficients>
#       <Coefficients equation="1" >
#         <G>-1.00672082e+000</G>
#         <H>1.26906489e-001</H>
#         <I>-1.40584351e-004</I>
#         <J>2.47837121e-005</J>
#         <CPcor>-9.57000000e-008</CPcor>
#         <CTcor>3.2500e-006</CTcor>
#         <!-- WBOTC not applicable unless ConductivityType = 1. -->
#         <WBOTC>0.00000000e+000</WBOTC>
#       </Coefficients>
#       <Slope>1.00000000</Slope>
#       <Offset>0.00000</Offset>
#     </ConductivitySensor>
#   </sensor>
#   <sensor Channel="3" >
#     <!-- Count, Pressure, Strain Gauge -->
#     <PressureSensor SensorID="46" >
#       <SerialNumber>7809</SerialNumber>
#       <CalibrationDate>07-Mar-18</CalibrationDate>
#       <PA0>-4.08176359e-002</PA0>
#       <PA1>4.85188419e-004</PA1>
#       <PA2>-3.51168169e-012</PA2>
#       <PTEMPA0>-5.37806900e+001</PTEMPA0>
#       <PTEMPA1>5.36620721e+001</PTEMPA1>
#       <PTEMPA2>4.87214332e-002</PTEMPA2>
#       <PTCA0>5.25213435e+005</PTCA0>
#       <PTCA1>1.79532409e+000</PTCA1>
#       <PTCA2>-2.84353509e-001</PTCA2>
#       <PTCB0>2.51668750e+001</PTCB0>
#       <PTCB1>3.75000000e-004</PTCB1>
#       <PTCB2>0.00000000e+000</PTCB2>
#       <Offset>0.000000</Offset>
#     </PressureSensor>
#   </sensor>
#   <sensor Channel="4" >
#     <!-- A/D voltage 0, pH -->
#     <pH_Sensor SensorID="43" >
#       <SerialNumber>0363</SerialNumber>
#       <CalibrationDate>16-Mar-18</CalibrationDate>
#       <Slope>4.6194</Slope>
#       <Offset>2.5947</Offset>
#     </pH_Sensor>
#   </sensor>
#   <sensor Channel="5" >
#     <!-- A/D voltage 1, Oxidation Reduction Potential -->
#     <OxidationReductionPotentialSensor SensorID="41" >
#       <SerialNumber>0363</SerialNumber>
#       <CalibrationDate>16-Mar-18</CalibrationDate>
#       <B>2.499480</B>
#       <M>-0.496195</M>
#       <Offset>0.0</Offset>
#     </OxidationReductionPotentialSensor>
#   </sensor>
#   <sensor Channel="6" >
#     <!-- A/D voltage 2, Oxygen, SBE 43 -->
#     <OxygenSensor SensorID="38" >
#       <SerialNumber>0434</SerialNumber>
#       <CalibrationDate>13-Mar-18</CalibrationDate>
#       <Use2007Equation>1</Use2007Equation>
#       <CalibrationCoefficients equation="0" >
#         <!-- Coefficients for Owens-Millard equation. -->
#         <Boc>0.0000</Boc>
#         <Soc>0.0000e+000</Soc>
#         <offset>0.0000</offset>
#         <Pcor>0.00e+000</Pcor>
#         <Tcor>0.0000</Tcor>
#         <Tau>0.0</Tau>
#       </CalibrationCoefficients>
#       <CalibrationCoefficients equation="1" >
#         <!-- Coefficients for Sea-Bird equation - SBE calibration in 2007 and later. -->
#         <Soc>4.5718e-001</Soc>
#         <offset>-0.6113</offset>
#         <A>-4.0649e-003</A>
#         <B> 2.0945e-004</B>
#         <C>-3.3182e-006</C>
#         <D0> 2.5826e+000</D0>
#         <D1> 1.92634e-004</D1>
#         <D2>-4.64803e-002</D2>
#         <E> 3.6000e-002</E>
#         <Tau20> 1.2200</Tau20>
#         <H1>-3.3000e-002</H1>
#         <H2> 5.0000e+003</H2>
#         <H3> 1.4500e+003</H3>
#       </CalibrationCoefficients>
#     </OxygenSensor>
#   </sensor>
#   <sensor Channel="7" >
#     <!-- A/D voltage 3, PAR/Logarithmic, Satlantic -->
#     <PARLog_SatlanticSensor SensorID="76" >
#       <SerialNumber>1122</SerialNumber>
#       <CalibrationDate>22-Jun-2017</CalibrationDate>
#       <a0>9.6090e-001</a0>
#       <a1>8.0780e-001</a1>
#       <Im>1.3589e+000</Im>
#       <Multiplier>1.0000e+000</Multiplier>
#     </PARLog_SatlanticSensor>
#   </sensor>
#   <sensor Channel="8" >
#     <!-- A/D voltage 4, Fluorometer, WET Labs ECO-AFL/FL -->
#     <FluoroWetlabECO_AFL_FL_Sensor SensorID="20" >
#       <SerialNumber>FLNTURT-2496</SerialNumber>
#       <CalibrationDate>25-Jan-2017</CalibrationDate>
#       <ScaleFactor>5.30000000e+001</ScaleFactor>
#       <!-- Dark output -->
#       <Vblank>0.0560</Vblank>
#     </FluoroWetlabECO_AFL_FL_Sensor>
#   </sensor>
#   <sensor Channel="9" >
#     <!-- A/D voltage 5, Turbidity Meter, WET Labs, ECO-NTU -->
#     <TurbidityMeter SensorID="67" >
#       <SerialNumber>FLNTURT-2496</SerialNumber>
#       <CalibrationDate>25-Jan-2017</CalibrationDate>
#       <ScaleFactor>176.000000</ScaleFactor>
#       <!-- Dark output -->
#       <DarkVoltage>0.072000</DarkVoltage>
#     </TurbidityMeter>
#   </sensor>
# </Sensors>
# datcnv_date = Jul 10 2018 08:18:06, 7.26.7.114 [datcnv_vars = 16]
# datcnv_in = C:\DATA\070918_fcr10.hex C:\DATA\SBE19plusV2_7809.xmlcon
# datcnv_skipover = 0
# datcnv_ox_hysteresis_correction = yes
# datcnv_ox_tau_correction = yes
# filter_date = Jul 10 2018 08:18:26, 7.26.7.114
# filter_in = C:\DATA\070918_fcr10.cnv
# filter_low_pass_tc_A = 0.030
# filter_low_pass_tc_B = 0.150
# filter_low_pass_A_vars = tv290C c0uS/cm par/sat/log
# filter_low_pass_B_vars = prdM prdE
# alignctd_date = Jul 10 2018 08:18:51, 7.26.7.114
# alignctd_in = C:\DATA\070918_fcr10.cnv
# alignctd_adv = tv290C 0.500, sbeox0Mg/L 3.000, sbeox0PS 3.000                                                                                                                                                                      
# file_type = ascii
*END*
     -0.474    28.5955     7.7375     99.900   0.732799      0.683      6.281  -435.2568    -0.1334    -0.6137     0.0131 6.3159e-16     -0.465     -0.675          1 2.2619e+03 0.0000e+00
     -0.474    28.5957     7.7390     99.919   0.673332      0.631      6.282  -451.8761    -0.1658    -0.6271     0.0131      0.000     -0.465     -0.675          2 2.3177e+03 0.0000e+00
     -0.474    28.5959     7.7335     99.848   0.629013      0.579      6.275  -475.9155    -0.1698    -0.7346     0.0131      0.000     -0.465     -0.675          3 2.2080e+03 0.0000e+00
     -0.474    28.5960     7.7350     99.868   0.669529      0.631      6.273  -495.5634    -0.1779    -0.5063     0.0131      0.000     -0.465     -0.675          4 2.3512e+03 0.0000e+00
     -0.474    28.5962     7.7322     99.831   0.682123      0.631      6.273  -530.2785    -0.1577    -0.3989     0.0131      0.000     -0.465     -0.675          5 2.1917e+03 0.0000e+00
     -0.474    28.5962     7.7279     99.774   0.672552      0.631      6.274  -564.2743    -0.1253    -0.4257     0.0131      0.000     -0.465     -0.675          6 9.9755e+02 0.0000e+00
     -0.474    28.5962     7.7302     99.804   0.681439      0.631      6.281  -583.2408    -0.1617    -0.4391     0.0131     -0.000     -0.465     -0.675          7 7.9072e+01 0.0000e+00
     -0.475    28.5961     7.7286     99.783   0.671063      0.631      6.280  -600.1630    -0.1617    -0.2914     0.0131     -0.000     -0.465     -0.675          8 9.0750e+02 0.0000e+00
     -0.474    28.5963     7.7330     99.839   0.626252      0.579      6.277  -621.3252    -0.1658    -0.1706     0.0131     -0.000     -0.465     -0.675          9 1.1984e+03 0.0000e+00
     -0.474    28.5964     7.7377     99.899   0.618781      0.579      6.276  -638.9666    -0.1860    -0.2512     0.0131     -0.000     -0.465     -0.675         10 5.4373e+02 0.0000e+00
     -0.474    28.5966     7.7379     99.901   0.680361      0.631      6.276  -656.2674    -0.1496    -0.2512     0.0131     -0.000     -0.465     -0.675         11 1.4218e+03 0.0000e+00
     -0.474    28.5967     7.7340     99.852   0.668043      0.631      6.279  -671.6753    -0.1415    -0.2243     0.0131      0.000     -0.465     -0.675         12 7.1451e+02 0.0000e+00
     -0.475    28.5966     7.7467    100.015   0.634110      0.579      6.280  -691.8532    -0.1617    -0.3183     0.0131     -0.000     -0.465     -0.675         13 2.1641e+02 0.0000e+00
     -0.475    28.5967     7.7413     99.945   0.663376      0.631      6.281  -714.4161    -0.1738    -0.2243     0.0131     -0.000     -0.465     -0.675         14 1.0795e+03 0.0000e+00
     -0.475    28.5961     7.7577    100.156   0.631623      0.579      6.284  -726.2276    -0.1253    -0.2243     0.0131     -0.000     -0.465     -0.675         15 9.8280e+01 0.0000e+00
     -0.474    28.5958     7.7390     99.915   0.614414      0.579      6.288  -737.3198    -0.1577    -0.1974     0.0131      0.000     -0.465     -0.675         16 2.8438e+02 0.0000e+00
     -0.475    28.5956     7.7390     99.914   0.684791      0.631      6.292  -753.1820    -0.1819    -0.0497     0.0131     -0.000     -0.465     -0.675         17 2.2197e+03 0.0000e+00
     -0.474    28.5954     7.7448     99.988   0.721678      0.683      6.294  -772.6406    -0.1253    -0.0766     0.0131     -0.000     -0.465     -0.675         18 2.6311e+03 0.0000e+00
     -0.474    28.5953     7.7492    100.043   0.686935      0.631      6.296  -786.8371    -0.1496    -0.0363     0.0131      0.000     -0.465     -0.675         19 2.0778e+03 0.0000e+00
     -0.475    28.5950     7.7572    100.146   0.668817      0.631      6.292  -793.2728    -0.1617     0.0577     0.0131      0.000     -0.465     -0.675         20 2.0640e+03 0.0000e+00
     -0.474    28.5948     7.7481    100.028   0.685013      0.631      6.288  -807.5828    -0.1536    -0.2780     0.0131      0.000     -0.465     -0.675         21 2.3791e+03 0.0000e+00
     -0.474    28.5947     7.7602    100.183   0.666778      0.631      6.291  -825.9058    -0.1860    -0.2646     0.0131      0.000     -0.465     -0.675         22 2.6605e+03 0.0000e+00
     -0.475    28.5946     7.7574    100.146   0.632297      0.579      6.289  -843.7744    -0.1496    -0.1437     0.0131     -0.000     -0.466     -0.675         23 2.3064e+03 0.0000e+00
     -0.475    28.5944     7.7591    100.165   0.668711      0.631      6.299  -859.0309    -0.1577    -0.2512     0.0131     -0.000     -0.466     -0.675         24 5.5134e+02 0.0000e+00
     -0.475    28.5943     7.7536    100.094   0.680673      0.631      6.297  -875.0445    -0.1577    -0.2512     0.0131     -0.000     -0.465     -0.675         25 6.7621e+02 0.0000e+00
     -0.475    28.5941     7.7400     99.895   0.676624      0.631      6.297  -880.4959    -0.1658    -0.2512     0.0131     -0.000     -0.465     -0.675         26 1.7729e+03 0.0000e+00
     -0.475    28.5937     7.7563     99.868   0.673752      0.631      6.298  -882.6159    -0.1455    -0.1706     0.0131     -0.000     -0.465     -0.675         27 1.4460e+03 0.0000e+00
     -0.475    28.5930     7.7861     99.951   0.625034      0.579      6.298  -888.2945    -0.1294    -0.2646     0.0131     -0.000     -0.465     -0.675         28 2.3038e+03 0.0000e+00
     -0.475    28.5927     7.8091     99.985   0.618827      0.579      6.304  -869.2145    -0.1698    -0.2377     0.0131     -0.000     -0.465     -0.675         29 2.7467e+03 0.0000e+00
     -0.474    28.5919     7.8116     99.802   0.681477      0.631      6.327  -852.0651    -0.1617    -0.2243     0.0131      0.000     -0.465     -0.675         30 2.5637e+03 0.0000e+00
     -0.475    28.5917     7.8254     99.806   0.665493      0.631      6.372  -785.5121    -0.1294    -0.2377     0.0131      0.000     -0.465     -0.675         31 2.7200e+03 0.0000e+00
     -0.474    28.5902     7.8635    100.141   0.697932      0.631      6.344  -864.3309    -0.1617    -0.2646     0.0131      0.000     -0.465     -0.675         32 2.6172e+03 0.0000e+00
     -0.474    28.5912     7.8820    100.238   0.700318      0.684      6.290  -929.5589    -0.1617    -0.1974     0.0131      0.000     -0.465     -0.675         33 2.4762e+03 0.0000e+00
     -0.475    28.5877     7.8928    100.196   0.780945      0.684      6.265  -968.7033    -0.2385    -0.2512     0.0131      0.000     -0.465     -0.675         34 2.4471e+03 0.0000e+00
     -0.474    28.5917     7.8984    100.003   0.597593      0.631      6.274  -987.3669    -0.2224    -0.1706     0.0131      0.000     -0.465     -0.675         35 2.7991e+03 0.0000e+00
     -0.474    28.5702     7.9128     99.960   0.810074      0.631      6.291  -991.2662    -0.2021    -0.2109     0.0131      0.000     -0.464     -0.674         36 2.5818e+03 0.0000e+00
     -0.474    28.4417     7.9393    100.079   0.516516      0.684      6.277 -1137.3195    -0.2183    -0.2243     0.0131      0.000     -0.458     -0.664         37 2.1103e+03 0.0000e+00
     -0.450    28.2685     7.9735    100.302   1.407013      0.970      6.530  -168.7417     0.2265    -0.6540     0.0130      0.006     -0.439     -0.637         38 1.7899e+03 0.0000e+00
     -0.421    28.1213     8.0005    100.472   9.000048      8.544      6.543  -108.2080     0.2305    -0.6809     0.0147      0.019     -0.417     -0.604         39 2.1629e+03 0.0000e+00
     -0.406    27.9980     8.0274    100.673  18.433291     17.296      6.648   113.1434     0.2143    -0.6271     0.0176      0.031     -0.399     -0.579         40 2.1094e+03 0.0000e+00
     -0.394    27.9000     8.0598    100.957  17.985631     17.345      6.777  1240.2295     0.2305    -0.7211     0.0176      0.043     -0.385     -0.560         41 4.4652e+02 0.0000e+00
     -0.379    27.8140     8.0752    101.038  21.882035     19.571      7.037  1240.2295    -0.0970     0.0040     0.0184      0.053     -0.373     -0.542         42 5.5040e+02 0.0000e+00
     -0.373    27.7368     8.0422    100.536  35.313550     34.579      7.247   302.0889    -0.1011    -0.0900     0.0242      0.059     -0.356     -0.517         43 1.7151e+03 0.0000e+00
     -0.336    27.6329     7.9281     99.039  37.498295     34.767      7.451   285.6967    -0.0889     0.0040     0.0243      0.067     -0.322     -0.467         44 2.6391e+03 0.0000e+00
     -0.276    27.4893     7.7433     96.677  36.121492     34.687      7.543   288.8389    -0.1051    -0.0229     0.0242      0.082     -0.273     -0.396         45 2.8146e+03 0.0000e+00
     -0.226    27.3600     7.5423     94.128  36.760070     34.647      7.604   278.1253    -0.1132    12.2503     0.0242      0.097     -0.223     -0.323         46 2.7660e+03 0.0000e+00
     -0.178    27.2415     7.3678     91.919  36.199451     34.638      7.650   265.7081    -0.0970    12.2503     0.0241      0.117     -0.178     -0.258         47 2.6558e+03 0.0000e+00
     -0.140    27.1246     7.2347     90.226  36.404017     34.668      7.668   268.6988    -0.1051    12.1831     0.0241      0.138     -0.142     -0.205         48 1.7657e+03 0.0000e+00
     -0.115    27.0308     7.1164     88.713  36.119994     34.614      7.668   270.5917    -0.0849    12.1965     0.0241      0.152     -0.114     -0.165         49 9.2639e+02 0.0000e+00
     -0.091    26.9551     7.0322     87.617  36.226729     34.719      7.630   268.8881    -0.0930    12.1428     0.0241      0.158     -0.090     -0.131         50 4.2952e+02 0.0000e+00
     -0.071    26.8874     6.9667     86.733  36.093293     34.701      7.586   254.1238     1.8844     5.6706     0.0241      0.153     -0.064     -0.094         51 1.8388e+02 0.0000e+00
     -0.034    26.8260     6.9270     86.141  36.078493     34.697      7.543   227.5858     1.8844     5.6169     0.0240      0.141     -0.028     -0.041         52 4.7510e+02 0.0000e+00
      0.020    26.7758     6.9221     85.970  36.037579     34.742      7.519   227.5101     1.9248     5.6303     0.0240      0.132      0.020      0.029         53 1.6626e+03 0.0000e+00
      0.075    26.7365     6.9353     86.022  36.084927     34.784      7.528   226.6773     1.9005     5.5900     0.0240      0.134      0.071      0.104         54 1.6792e+03 0.0000e+00
      0.123    26.7060     6.9779     86.456  36.138232     34.925      7.549   226.2230     2.1472     2.1122     0.0241      0.142      0.118      0.171         55 9.0133e+02 0.0000e+00
      0.162    26.6824     7.1321     88.307  36.089901     34.844      7.561   228.7594     2.1432     2.1390     0.0240      0.154      0.153      0.222         56 4.5064e+02 0.0000e+00
      0.182    26.6633     7.4050     91.664  36.174755     34.999      7.562   228.5323     2.1472     2.1390     0.0241      0.160      0.177      0.257         57 7.3735e+02 0.0000e+00
      0.197    26.6437     7.6798     95.062  36.210600     35.016      7.568   228.2673     2.1715     2.0987     0.0241      0.157      0.199      0.288         58 6.8126e+02 0.0000e+00
      0.232    26.6200     7.8812     97.570  36.104620     34.947      7.573   229.5923     2.3898     1.4139     0.0241      0.151      0.230      0.333         59 1.3965e+02 0.0000e+00
      0.276    26.5905     7.9994     99.038  36.069388     34.906      7.578   228.9487     2.4060     1.5616     0.0240      0.142      0.267      0.388         60 1.3571e+02 0.0000e+00
      0.308    26.5465     8.0340     99.425  36.046849     34.922      7.579   229.8194     2.4100     1.4408     0.0240      0.131      0.302      0.438         61 1.0251e+02 0.0000e+00
      0.342    26.4842     7.9928     98.855  35.954732     34.834      7.591   235.5737     2.4303     1.4408     0.0240      0.124      0.334      0.485         62 9.6615e+01 0.0000e+00
      0.374    26.4133     7.8814     97.408  35.828144     34.755      7.593   235.4980     2.4262     1.6959     0.0240      0.122      0.363      0.526         63 8.7334e+01 0.0000e+00
      0.392    26.3424     7.7032     95.140  35.729881     34.689      7.606   233.7566     2.4060     1.6556     0.0239      0.122      0.384      0.558         64 9.0988e+01 0.0000e+00
      0.405    26.2816     7.4961     92.529  35.632181     34.655      7.619   231.7123     2.4222     1.7496     0.0239      0.120      0.415      0.603         65 6.9721e+01 0.0000e+00
      0.480    26.2449     7.3135     90.225  35.593871     34.649      7.640   234.3244     2.4222     1.6288     0.0239      0.128      0.474      0.688         66 9.1468e+01 0.0000e+00
      0.565    26.2311     7.2139     88.956  35.718275     34.826      7.669   232.9616     2.5556     1.5213     0.0239      0.143      0.537      0.780         67 1.2737e+02 0.0000e+00
      0.591    26.2291     7.1877     88.596  35.892600     35.015      7.701   233.6430     2.5597     1.4945     0.0240      0.153      0.581      0.843         68 1.3371e+02 0.0000e+00
      0.629    26.2373     7.1841     88.519  35.940446     35.078      7.720   234.4002     2.5516     1.5079     0.0240      0.164      0.612      0.888         69 1.8306e+02 0.0000e+00
      0.650    26.2390     7.2058     88.761  35.896005     35.026      7.750   233.8323     2.5718     1.4676     0.0240      0.167      0.634      0.920         70 1.6123e+02 0.0000e+00
      0.661    26.2171     7.2538     89.333  35.829277     34.965      7.769   234.7787     2.5677     1.4945     0.0240      0.162      0.648      0.940         71 1.3269e+02 0.0000e+00
      0.673    26.1832     7.3068     89.972  35.697247     34.827      7.786   235.6494     3.1339     1.4676     0.0239      0.150      0.660      0.957         72 1.3636e+02 0.0000e+00
      0.686    26.1447     7.3451     90.437  35.585787     34.734      7.796   235.5737     3.1055     1.4542     0.0239      0.128      0.671      0.972         73 1.2912e+02 0.0000e+00
      0.691    26.1069     7.3530     90.538  35.523132     34.702      7.805   234.8166     3.1136     1.4139     0.0238      0.092      0.677      0.981         74 1.3609e+02 0.0000e+00
      0.693    26.0741     7.3230     90.176  35.537976     34.728      7.820   234.8544     3.1339     1.5885     0.0238      0.062      0.677      0.982         75 1.4432e+02 0.0000e+00
      0.685    26.0444     7.2605     89.416  35.567330     34.809      7.828   234.6273     3.2066     1.4273     0.0239      0.044      0.673      0.977         76 1.5250e+02 0.0000e+00
      0.683    26.0195     7.1855     88.501  35.545934     34.776      7.836   235.6494     3.1824     1.4273     0.0238      0.026      0.671      0.974         77 1.5059e+02 0.0000e+00
      0.685    25.9964     7.1485     88.050  35.564622     34.851      7.820   234.9680     3.1905     1.4542     0.0239      0.015      0.672      0.974         78 1.5330e+02 0.0000e+00
      0.685    25.9759     7.1537     88.113  35.484774     34.758      7.818   236.5959     3.1783     1.5348     0.0238      0.008      0.673      0.977         79 1.3792e+02 0.0000e+00
      0.690    25.9604     7.1948     88.618  35.467370     34.774      7.815   235.7252     2.6931     1.6959     0.0238      0.003      0.676      0.981         80 1.1931e+02 0.0000e+00
      0.693    25.9481     7.2601     89.422  35.467661     34.788      7.817   235.9144     2.6810     1.6690     0.0238      0.000      0.678      0.984         81 1.0900e+02 0.0000e+00
      0.693    25.9394     7.3392     90.398  35.484421     34.799      7.821   235.8387     2.6810     1.6690     0.0238      0.001      0.679      0.985         82 9.9648e+01 0.0000e+00
      0.691    25.9363     7.4299     91.517  35.505836     34.862      7.824   236.0280     2.6607     1.6959     0.0238      0.003      0.678      0.984         83 9.5954e+01 0.0000e+00
      0.691    25.9386     7.5051     92.445  35.441017     34.758      7.828   235.6494     2.9721     1.5348     0.0238      0.005      0.678      0.984         84 9.6008e+01 0.0000e+00
      0.693    25.9426     7.5539     93.045  35.505776     34.870      7.836   236.2173     3.0247     1.5348     0.0238      0.005      0.679      0.986         85 9.6645e+01 0.0000e+00
      0.695    25.9482     7.5942     93.546  35.543877     34.869      7.839   236.8609     2.9883     1.4542     0.0238      0.004      0.681      0.987         86 9.7165e+01 0.0000e+00
      0.694    25.9543     7.6358     94.066  35.571545     34.921      7.845   237.0502     2.9964     1.4273     0.0239      0.003      0.681      0.987         87 9.8207e+01 0.0000e+00
      0.694    25.9570     7.6543     94.294  35.589970     34.917      7.847   236.8987     2.9398     1.4945     0.0239      0.002      0.681      0.987         88 1.0125e+02 0.0000e+00
      0.694    25.9564     7.6343     94.054  35.580261     34.913      7.851   237.3530     2.9317     1.5616     0.0239      0.001      0.681      0.987         89 1.0465e+02 0.0000e+00
      0.693    25.9556     7.5827     93.426  35.583628     34.911      7.850   237.1259     2.9236     1.4408     0.0239      0.001      0.680      0.986         90 1.1212e+02 0.0000e+00
      0.693    25.9554     7.5295     92.763  35.585779     34.911      7.852   237.3152     2.9276     1.4542     0.0239      0.001      0.679      0.985         91 1.2105e+02 0.0000e+00
      0.693    25.9559     7.4912     92.282  35.577583     34.912      7.854   236.9744     2.9074     1.4676     0.0239      0.000      0.679      0.985         92 1.3481e+02 0.0000e+00
      0.693    25.9575     7.4405     91.651  35.534511     34.857      7.855   237.8830     2.8872     1.5348     0.0238     -0.000      0.677      0.983         93 1.4309e+02 0.0000e+00
      0.688    25.9582     7.3629     90.692  35.580066     34.912      7.851   238.1859     2.8953     1.4945     0.0239     -0.002      0.671      0.974         94 1.5618e+02 0.0000e+00
      0.673    25.9578     7.3150     90.103  35.639522     34.965      7.853   239.5109     2.8508     1.5885     0.0239     -0.007      0.661      0.959         95 1.7188e+02 0.0000e+00
      0.660    25.9607     7.2646     89.486  35.579148     34.910      7.860   238.1859     2.8953     1.4139     0.0239     -0.014      0.657      0.953         96 1.6280e+02 0.0000e+00
      0.681    25.9651     7.2371     89.148  35.536568     34.855      7.847   238.9430     2.8063     1.4676     0.0238     -0.013      0.667      0.966         97 1.5874e+02 0.0000e+00
      0.695    25.9656     7.2479     89.281  35.573880     34.908      7.830   238.6780     2.8225     1.5885     0.0239     -0.008      0.677      0.981         98 1.5865e+02 0.0000e+00
      0.696    25.9687     7.2842     89.729  35.592028     34.905      7.827   239.7759     2.8063     1.5482     0.0239     -0.002      0.677      0.981         99 1.4288e+02 0.0000e+00
      0.680    25.9730     7.3202     90.169  35.632614     34.960      7.832   238.9052     2.7618     1.4273     0.0239     -0.002      0.663      0.961        100 1.6136e+02 0.0000e+00
      0.650    25.9695     7.3324     90.321  35.642001     34.958      7.847   238.7537     2.8548     1.5348     0.0239     -0.008      0.643      0.933        101 1.6393e+02 0.0000e+00
      0.640    25.9635     7.3243     90.227  35.580344     34.900      7.854   238.9052     2.8710     1.4810     0.0239     -0.014      0.631      0.915        102 2.0201e+02 0.0000e+00
      0.638    25.9595     7.3042     89.989  35.531399     34.848      7.859   239.1702     2.8831     1.4810     0.0238     -0.018      0.628      0.910        103 2.0862e+02 0.0000e+00
      0.641    25.9578     7.2881     89.800  35.524967     34.851      7.862   239.6245     2.8751     1.4810     0.0238     -0.024      0.628      0.912        104 3.4386e+02 0.0000e+00
      0.643    25.9586     7.2760     89.661  35.588350     34.909      7.863   239.8137     2.8063     1.4810     0.0239     -0.030      0.630      0.915        105 4.3812e+02 0.0000e+00
      0.645    25.9603     7.2515     89.372  35.630467     34.965      7.866   240.0787     2.8225     1.4676     0.0239     -0.029      0.631      0.916        106 6.3938e+02 0.0000e+00
      0.643    25.9609     7.2181     88.970  35.591184     34.910      7.865   240.3816     2.8104     1.5885     0.0239     -0.021      0.632      0.917        107 7.2119e+02 0.0000e+00
      0.646    25.9612     7.1671     88.352  35.577922     34.909      7.869   240.4573     2.8063     1.4945     0.0239     -0.009      0.636      0.923        108 7.1056e+02 0.0000e+00
      0.658    25.9611     7.1071     87.623  35.587656     34.908      7.857   241.1009     2.9964     1.4945     0.0239      0.004      0.642      0.933        109 8.6139e+02 0.0000e+00
      0.660    25.9596     7.0338     86.730  35.579070     34.908      7.844   240.8359     2.9721     1.4945     0.0239      0.010      0.647      0.939        110 7.7303e+02 0.0000e+00
      0.663    25.9603     6.9366     85.542  35.588608     34.908      7.828   241.0630     3.0085     1.4945     0.0239      0.012      0.649      0.942        111 8.3928e+02 0.0000e+00
      0.663    25.9641     6.8337     84.283  35.635103     34.964      7.823   241.4416     2.9721     1.4810     0.0239      0.013      0.649      0.942        112 6.8212e+02 0.0000e+00
      0.661    25.9696     6.7359     83.087  35.639838     34.963      7.825   241.3280     2.9721     1.4810     0.0239      0.012      0.648      0.940        113 5.5651e+02 0.0000e+00
      0.659    25.9758     6.6440     81.963  35.642028     34.961      7.832   241.6687     3.0449     1.4408     0.0239      0.010      0.647      0.938        114 5.5608e+02 0.0000e+00
      0.660    25.9825     6.5563     80.889  35.721348     35.039      7.841   241.4037     3.0570     1.4273     0.0239      0.008      0.647      0.938        115 5.0776e+02 0.0000e+00
      0.660    25.9896     6.4749     79.893  35.719071     35.035      7.843   241.4416     3.0611     1.5482     0.0239      0.004      0.647      0.938        116 4.1633e+02 0.0000e+00
      0.661    25.9962     6.4034     79.018  35.733834     35.030      7.848   242.0095     3.0570     1.4945     0.0239      0.000      0.648      0.939        117 3.4786e+02 0.0000e+00
      0.662    26.0026     6.3453     78.305  35.791947     35.108      7.852   241.8202     2.9964     1.5213     0.0240     -0.000      0.649      0.941        118 4.4466e+02 0.0000e+00
      0.663    26.0092     6.3033     77.790  35.735721     35.021      7.856   241.9337     2.9923     1.4810     0.0239     -0.000      0.650      0.942        119 4.5591e+02 0.0000e+00
      0.663    26.0159     6.2680     77.358  35.774145     35.071      7.859   242.2366     2.9883     1.4408     0.0239      0.001      0.650      0.942        120 4.2482e+02 0.0000e+00
      0.663    26.0228     6.2314     76.912  35.773783     35.067      7.865   242.5016     2.9883     1.4810     0.0239      0.002      0.650      0.942        121 3.9544e+02 0.0000e+00
      0.663    26.0296     6.1978     76.502  35.736168     35.007      7.867   242.9180     2.9398     1.2931     0.0239      0.002      0.650      0.943        122 3.0878e+02 0.0000e+00
      0.663    26.0361     6.1594     76.032  35.791294     35.085      7.872   243.2588     2.9195     1.3602     0.0240      0.002      0.650      0.943        123 2.5203e+02 0.0000e+00
      0.663    26.0423     6.1235     75.595  35.794149     35.053      7.872   242.8802     2.9195     1.2796     0.0239      0.001      0.650      0.943        124 2.6873e+02 0.0000e+00
      0.664    26.0482     6.0906     75.194  35.762270     35.048      7.873   243.7130     2.9357     1.2796     0.0239      0.001      0.649      0.941        125 2.3928e+02 0.0000e+00
      0.658    26.0535     6.0540     74.739  35.741990     34.989      7.871   242.9938     3.0125     1.3333     0.0239     -0.001      0.645      0.935        126 2.2910e+02 0.0000e+00
      0.652    26.0580     6.0264     74.401  35.760067     35.040      7.874   244.7352     3.0085     1.2931     0.0239     -0.004      0.642      0.930        127 2.1098e+02 0.0000e+00
      0.653    26.0608     6.0086     74.187  35.739771     34.982      7.877   243.8645     2.9802     1.1856     0.0239     -0.005      0.643      0.932        128 2.0428e+02 0.0000e+00
      0.661    26.0630     6.0015     74.093  35.737590     35.006      7.877   244.0538     2.9964     1.2393     0.0239     -0.004      0.650      0.942        129 1.9462e+02 0.0000e+00
      0.674    26.0662     6.0100     74.194  35.733122     34.977      7.881   244.9245     2.9519     1.2528     0.0239      0.000      0.661      0.959        130 1.8720e+02 0.0000e+00
      0.686    26.0701     6.0147     74.255  35.715672     34.975      7.881   244.5459     2.9559     1.3199     0.0239      0.008      0.674      0.977        131 1.7495e+02 0.0000e+00
      0.700    26.0735     6.0376     74.538  35.729647     34.973      7.874   244.9623     2.9236     1.2528     0.0239      0.017      0.688      0.998        132 1.5909e+02 0.0000e+00
      0.719    26.0767     6.0754     75.000  35.715728     34.970      7.873   244.8488     2.9438     1.2796     0.0239      0.029      0.705      1.023        133 1.5014e+02 0.0000e+00
      0.739    26.0815     6.1036     75.336  35.732992     34.968      7.868   245.5680     2.9519     1.2259     0.0239      0.042      0.723      1.048        134 1.4276e+02 0.0000e+00
      0.751    26.0842     6.1330     75.684  35.797134     35.048      7.861   245.1138     2.9883     1.4945     0.0240      0.052      0.739      1.072        135 1.3894e+02 0.0000e+00
      0.771    26.0822     6.2093     76.614  35.784194     35.017      7.857   245.3030     3.0085     1.5348     0.0239      0.059      0.759      1.102        136 1.4073e+02 0.0000e+00
      0.803    26.0850     6.3327     78.125  35.778754     35.015      7.847   246.5145     3.0125     1.4139     0.0239      0.067      0.781      1.133        137 1.4220e+02 0.0000e+00
      0.811    26.0884     6.4821     79.959  35.774245     35.017      7.823   245.4166     2.9802     1.5348     0.0239      0.070      0.796      1.154        138 1.4015e+02 0.0000e+00
      0.820    26.0840     6.6318     81.800  35.730487     34.960      7.831   245.4923     3.0692     1.5616     0.0239      0.070      0.811      1.175        139 1.4278e+02 0.0000e+00
      0.851    26.0815     6.7735     83.543  35.744234     34.985      7.833   246.7795     3.0772     1.5482     0.0239      0.072      0.831      1.205        140 1.4296e+02 0.0000e+00
      0.866    26.0832     6.8894     84.970  35.727480     34.961      7.830   246.4766     3.0570     1.6153     0.0239      0.072      0.851      1.235        141 1.4011e+02 0.0000e+00
      0.887    26.0836     6.9844     86.137  35.632710     34.880      7.843   246.2873     3.0692     1.4542     0.0239      0.073      0.876      1.271        142 1.4130e+02 0.0000e+00
      0.931    26.0802     7.0537     86.987  35.654571     34.879      7.846   247.0445     3.1864     1.4676     0.0239      0.081      0.907      1.316        143 1.4078e+02 0.0000e+00
      0.953    26.0718     7.1005     87.561  35.700272     34.961      7.853   246.2495     3.1905     1.5616     0.0239      0.086      0.936      1.357        144 1.3818e+02 0.0000e+00
      0.981    26.0606     7.1251     87.865  35.605493     34.827      7.867   247.1202     3.1743     1.5616     0.0239      0.091      0.966      1.401        145 1.3695e+02 0.0000e+00
      1.025    26.0517     7.1116     87.689  35.624235     34.887      7.876   247.3473     3.1986     1.4676     0.0239      0.105      1.003      1.454        146 1.3702e+02 0.0000e+00
      1.059    26.0440     7.0952     87.480  35.647294     34.895      7.877   247.4988     3.2592     1.4408     0.0239      0.116      1.038      1.505        147 1.3656e+02 0.0000e+00
      1.092    26.0374     7.0567     87.006  35.636119     34.901      7.875   247.2338     3.2713     1.4139     0.0239      0.122      1.071      1.552        148 1.3238e+02 0.0000e+00
      1.125    26.0335     6.9967     86.264  35.638149     34.906      7.872   247.3095     3.2633     1.4945     0.0239      0.129      1.101      1.595        149 1.2772e+02 0.0000e+00
      1.148    26.0308     6.9187     85.306  35.644773     34.911      7.864   247.4230     3.2754     1.5348     0.0239      0.129      1.127      1.635        150 1.2377e+02 0.0000e+00
      1.177    26.0288     6.8365     84.297  35.716852     34.995      7.853   248.4073     3.3441     1.4139     0.0239      0.126      1.152      1.671        151 1.1973e+02 0.0000e+00
      1.200    26.0264     6.7540     83.285  35.696738     34.970      7.840   248.1045     3.3199     1.4676     0.0239      0.123      1.175      1.706        152 1.1824e+02 0.0000e+00
      1.221    26.0230     6.6789     82.366  35.640147     34.916      7.835   248.2559     3.3158     1.4139     0.0239      0.116      1.200      1.741        153 1.1738e+02 0.0000e+00
      1.254    26.0216     6.6221     81.672  35.638992     34.918      7.826   249.4295     3.3118     1.4945     0.0239      0.109      1.227      1.780        154 1.1743e+02 0.0000e+00
      1.278    26.0213     6.5676     81.006  35.638861     34.920      7.813   249.3916     3.3279     1.4139     0.0239      0.105      1.251      1.813        155 1.1757e+02 0.0000e+00
      1.291    26.0160     6.5259     80.497  35.640310     34.922      7.806   249.2402     3.3199     1.2528     0.0239      0.099      1.271      1.843        156 1.1621e+02 0.0000e+00
      1.323    26.0119     6.4823     79.967  35.637190     34.921      7.797   250.3002     3.2996     1.2259     0.0239      0.097      1.291      1.874        157 1.1716e+02 0.0000e+00
      1.336    26.0118     6.4465     79.530  35.642747     34.925      7.787   250.1109     3.3037     1.2662     0.0239      0.093      1.305      1.894        158 1.1890e+02 0.0000e+00
      1.336    26.0111     6.4011     78.968  35.633397     34.928      7.779   250.8681     3.2996     1.3602     0.0239      0.084      1.310      1.899        159 1.2007e+02 0.0000e+00
      1.337    26.0122     6.4119     79.086  35.648827     34.928      7.777   251.0195     3.4654     1.5482     0.0239      0.072      1.310      1.899        160 1.2126e+02 0.0000e+00
      1.334    26.0158     6.4811     79.916  35.712518     35.011      7.771   251.3223     3.4493     1.4139     0.0239      0.056      1.309      1.898        161 1.2493e+02 0.0000e+00
      1.333    26.0198     6.5849     81.159  35.732082     35.010      7.771   251.0195     3.4573     1.4945     0.0239      0.038      1.307      1.896        162 1.2170e+02 0.0000e+00
      1.333    26.0239     6.7434     83.068  35.743112     35.035      7.766   251.2466     3.4573     1.4676     0.0239      0.024      1.306      1.895        163 1.1679e+02 0.0000e+00
      1.331    26.0282     6.9310     85.349  35.728447     35.005      7.763   251.7388     3.3805     1.4810     0.0239      0.012      1.306      1.894        164 1.2264e+02 0.0000e+00
      1.333    26.0324     7.1300     87.763  35.631699     34.920      7.760   251.7009     3.3724     1.4810     0.0239      0.001      1.307      1.896        165 1.2505e+02 0.0000e+00
      1.335    26.0361     7.3019     89.838  35.655906     34.917      7.763   252.0038     3.3805     1.4542     0.0239     -0.002      1.310      1.900        166 1.2564e+02 0.0000e+00
      1.341    26.0408     7.4351     91.445  35.698318     34.996      7.755   252.0038     3.3846     1.3468     0.0239      0.001      1.314      1.905        167 1.2902e+02 0.0000e+00
      1.341    26.0452     7.5187     92.443  35.667890     34.911      7.755   252.2688     3.5261     1.4542     0.0239      0.003      1.314      1.906        168 1.3089e+02 0.0000e+00
      1.335    26.0431     7.5601     92.917  35.723430     35.018      7.756   252.1552     3.5140     1.4810     0.0239      0.003      1.318      1.912        169 1.2728e+02 0.0000e+00
      1.359    26.0327     7.5854     93.193  35.658855     34.905      7.755   252.0038     3.5220     1.4945     0.0239      0.009      1.338      1.942        170 1.2075e+02 0.0000e+00
      1.401    26.0166     7.5959     93.202  35.570304     34.852      7.736   252.5716     3.5180     1.5348     0.0239      0.024      1.371      1.989        171 1.2087e+02 0.0000e+00
      1.428    25.9909     7.6939     93.905  35.537055     34.804      7.728   252.0795     3.4371     1.3333     0.0238      0.041      1.408      2.042        172 1.1809e+02 0.0000e+00
      1.480    25.9623     7.9349     96.202  35.462979     34.760      7.720   253.4045     3.4695     1.3065     0.0238      0.066      1.452      2.105        173 1.1048e+02 0.0000e+00
      1.532    25.9423     8.1668     98.436  35.484553     34.778      7.717   253.6316     3.4493     1.2931     0.0238      0.094      1.492      2.164        174 1.1063e+02 0.0000e+00
      1.548    25.9199     8.3115     99.610  35.569534     34.907      7.712   253.7074     3.4654     1.2393     0.0239      0.115      1.520      2.205        175 1.0784e+02 0.0000e+00
      1.573    25.8956     8.3988    100.102  35.535182     34.866      7.711   254.5024     3.4493     1.1722     0.0238      0.130      1.547      2.244        176 1.0308e+02 0.0000e+00
      1.612    25.8750     8.4290    100.057  35.527315     34.881      7.699   254.4266     3.7849     1.4676     0.0238      0.141      1.578      2.289        177 1.0389e+02 0.0000e+00
      1.640    25.8587     8.4106     99.554  35.520018     34.898      7.696   254.4266     3.7970     1.4408     0.0238      0.138      1.613      2.339        178 1.0217e+02 0.0000e+00
      1.682    25.8353     8.3601     98.739  35.425644     34.802      7.692   254.9566     3.7525     1.4810     0.0238      0.135      1.654      2.399        179 9.9545e+01 0.0000e+00
      1.738    25.8194     8.3037     97.871  35.466828     34.869      7.678   255.9788     3.7889     1.4676     0.0238      0.139      1.701      2.467        180 9.7704e+01 0.0000e+00
      1.781    25.7379     8.2909     97.549  35.468775     34.883      7.668   255.9788     3.8051     1.4542     0.0238      0.141      1.742      2.527        181 9.6437e+01 0.0000e+00
      1.810    25.4566     8.4158     98.740  35.245288     34.677      7.660   256.0545     3.7606     1.4810     0.0237      0.144      1.774      2.573        182 9.5170e+01 0.0000e+00
      1.837    25.0918     8.6983    101.783  35.448397     34.891      7.657   256.2816     3.7889     1.5348     0.0238      0.150      1.803      2.614        183 9.4018e+01 0.0000e+00
      1.869    24.7750     9.1618    107.015  35.838876     35.563      7.649   256.7738     3.7606     1.5079     0.0240      0.150      1.833      2.658        184 9.2075e+01 0.0000e+00
      1.900    24.4649     9.8214    114.479  36.123728     35.988      7.641   256.9631     4.2297     1.4810     0.0241      0.145      1.865      2.705        185 8.9036e+01 0.0000e+00
      1.937    24.1725    10.6209    123.484  36.606648     36.835      7.630   257.8717     4.2135     1.5213     0.0243      0.141      1.898      2.753        186 8.7242e+01 0.0000e+00
      1.969    23.9528    11.3917    131.718  36.958271     37.291      7.619   258.0609     4.2216     1.6153     0.0245      0.133      1.930      2.800        187 8.5906e+01 0.0000e+00
      2.000    23.8027    12.0324    138.357  36.813342     37.516      7.607   258.5909     4.2378     1.5348     0.0245      0.126      1.960      2.843        188 8.5145e+01 0.0000e+00
      2.027    23.6818    12.4441    142.390  36.698174     37.368      7.596   259.5752     4.1529     1.4273     0.0243      0.123      1.989      2.885        189 8.4504e+01 0.0000e+00
      2.058    23.5763    12.5793    143.263  36.211926     37.255      7.579   260.9381     4.1609     1.4810     0.0243      0.124      2.017      2.926        190 8.3769e+01 0.0000e+00
      2.084    23.4787    12.3637    140.334  35.490736     36.255      7.567   261.0895     4.1852     1.4945     0.0238      0.123      2.047      2.969        191 8.1550e+01 0.0000e+00
      2.122    23.3318    11.6591    132.258  34.659589     35.905      7.556   262.6795     4.1529     1.5616     0.0236      0.122      2.079      3.015        192 7.9002e+01 0.0000e+00
      2.153    23.1940    10.6754    120.923  33.213029     34.014      7.539   262.9445     4.0396     1.9107     0.0228      0.121      2.106      3.054        193 7.8540e+01 0.0000e+00
      2.164    23.0927     9.5550    107.895  32.872317     34.177      7.531   262.4902     4.0356     1.8705     0.0229      0.115      2.124      3.081        194 7.7273e+01 0.0000e+00
      2.184    22.9907     8.5007     95.755  32.740899     33.842      7.530   262.9445     3.9992     1.9645     0.0227      0.109      2.144      3.110        195 7.5770e+01 0.0000e+00
      2.212    22.8435     7.4678     83.816  32.546328     33.908      7.530   263.7017     4.0315     1.9645     0.0227      0.104      2.171      3.150        196 7.3876e+01 0.0000e+00
      2.248    22.5674     6.3923     71.533  32.491778     33.812      7.528   264.6481     4.0113     1.8302     0.0226      0.103      2.204      3.197        197 7.1313e+01 0.0000e+00
      2.284    22.2712     5.3822     60.125  32.097158     33.556      7.521   264.0802     3.7889     2.1793     0.0225      0.105      2.239      3.247        198 6.9633e+01 0.0000e+00
      2.318    22.0191     4.3750     48.840  31.940338     33.555      7.520   263.7017     3.7687     2.2196     0.0224      0.108      2.273      3.297        199 6.7867e+01 0.0000e+00
      2.353    21.7728     3.4040     37.978  31.649203     33.494      7.512   264.1181     3.7687     2.2330     0.0223      0.113      2.308      3.346        200 6.6324e+01 0.0000e+00
      2.389    21.6055     2.3968     26.680  32.044458     34.003      7.503   264.9131     3.7768     2.2464     0.0224      0.121      2.338      3.390        201 6.6075e+01 0.0000e+00
      2.407    21.5670     1.5942     17.709  32.189883     34.539      7.490   264.3074     3.4776     3.3341     0.0226      0.127      2.361      3.424        202 6.5609e+01 0.0000e+00
      2.425    21.4901     0.9434     10.469  32.268951     34.428      7.476   265.0645     3.4573     3.2535     0.0225      0.124      2.383      3.456        203 6.3929e+01 0.0000e+00
      2.461    21.3383     0.4164      4.620  34.615071     37.271      7.459   265.3674     3.4533     3.3072     0.0236      0.121      2.410      3.496        204 6.3267e+01 0.0000e+00
      2.485    21.2010     0.1252      1.389  35.586797     38.323      7.446   265.4052     3.4452     3.2670     0.0240      0.114      2.438      3.537        205 6.1885e+01 0.0000e+00
      2.515    21.0238    -0.0166     -0.184  38.029125     40.718      7.422   265.8595     3.7849     3.0790     0.0250      0.110      2.466      3.577        206 5.9966e+01 0.0000e+00
      2.544    20.8692    -0.0533     -0.590  43.826531     47.787      7.400   266.0110     3.8011     3.1193     0.0279      0.107      2.493      3.616        207 5.8863e+01 0.0000e+00
      2.568    20.7810     0.0589      0.651  47.210217     51.018      7.378   266.2381     3.7889     3.1193     0.0293      0.105      2.517      3.651        208 5.7604e+01 0.0000e+00
      2.588    20.7465     0.2743      3.031  50.285696     54.996      7.349   266.4274     3.7687     3.1193     0.0309      0.103      2.535      3.676        209 5.6977e+01 0.0000e+00
      2.596    20.7096 -9.990e-29 -9.990e-29  50.771722     55.501      7.325   267.2602     4.2054     3.6698     0.0311      0.099      2.548      3.694        210 5.6388e+01 0.0000e+00
      2.611    20.5975 -9.990e-29 -9.990e-29  55.272156     59.854      7.302   268.4338     4.2216     3.7235     0.0330      0.092      2.560      3.713        211 5.5824e+01 0.0000e+00
      2.624    20.4924 -9.990e-29 -9.990e-29  67.487821     74.372      7.278   268.6231     4.2337     3.7504     0.0393      0.081      2.571      3.728        212 5.5601e+01 0.0000e+00
      2.628    20.4394 -9.990e-29 -9.990e-29  71.679800     78.525      7.247   269.0395     4.2378     3.7369     0.0412      0.069      2.577      3.737        213 5.5698e+01 0.0000e+00
      2.631    20.4307 -9.990e-29 -9.990e-29  73.578856     80.580      7.222   268.9638     4.4723     4.5426     0.0420      0.056      2.580      3.742        214 5.5923e+01 0.0000e+00
      2.634    20.4415 -9.990e-29 -9.990e-29  80.814109     89.212      7.197   269.7588     4.4723     4.5158     0.0459      0.043      2.582      3.745        215 5.6043e+01 0.0000e+00
      2.634    20.4188 -9.990e-29 -9.990e-29  83.003772     91.356      7.170   267.2981     4.4804     4.5292     0.0468      0.032      2.584      3.747        216 5.6144e+01 0.0000e+00
      2.636    20.3552 -9.990e-29 -9.990e-29  78.729650     86.707      7.146   266.1245     4.4561     4.6098     0.0447      0.023      2.585      3.749        217 5.6200e+01 0.0000e+00
      2.636    20.2736 -9.990e-29 -9.990e-29  73.947363     81.235      7.123   264.5345     4.0841     3.6027     0.0423      0.017      2.585      3.750        218 5.6661e+01 0.0000e+00
      2.637    20.2324 -9.990e-29 -9.990e-29  73.263244     80.730      7.103   262.1495     4.1245     3.5087     0.0421      0.010      2.586      3.750        219 5.7202e+01 0.0000e+00
      2.637 -9.990e-29 -9.990e-29 -9.990e-29  73.845574     81.683      7.081   261.7709     4.0922     3.6295     0.0425      0.006      2.586      3.751        220 5.7468e+01 0.0000e+00
      2.638 -9.990e-29 -9.990e-29 -9.990e-29  73.282165     80.829      7.061   261.4681     4.1003     3.4281     0.0421      0.004      2.586      3.751        221 5.7648e+01 0.0000e+00
