* Sea-Bird SBE19plus  Data File:
* FileName = C:\R\Reservoirs\Data\DataNotYetUploadedToEDI\Raw_CTD\RawDownloads\071221_fcr50_0001.hex
* Software version 2.8.0.119
* Temperature SN = 7809
* Conductivity SN = 7809
* System UpLoad Time = Jul 12 2021 19:05:12
* <ApplicationData>
* <Seaterm232>
* <SoftwareVersion>2.8.0.119</SoftwareVersion>
* <BuildDate>07-Nov-2018</BuildDate>
* </Seaterm232>
* </ApplicationData>
* <InstrumentState>
* <HardwareData DeviceType='SBE19plus' SerialNumber='01907809'>
*
*    <Manufacturer>Sea-Bird Electronics, Inc.</Manufacturer>
*
*    <FirmwareVersion>3.1.8</FirmwareVersion>
*
*    <FirmwareDate>Mar  9 2016 16:22:29</FirmwareDate>
*
*    <CommandSetVersion>1.4</CommandSetVersion>
*
*    <PCBAssembly PCBSerialNum='120721' AssemblyNum='41054J'/>
*
*    <PCBAssembly PCBSerialNum='120715' AssemblyNum='41967A'/>
*
*    <PCBAssembly PCBSerialNum='116699' AssemblyNum='41606'/>
*
*    <PCBAssembly PCBSerialNum='120719' AssemblyNum='41059D'/>
*
*    <MfgDate>28-Apr-2017</MfgDate>
*
*    <InternalSensors>
*
*       <Sensor id='Main Temperature'>
*
*          <type>temperature0</type>
*
*          <SerialNumber>01907809</SerialNumber>
*
*       </Sensor>
*
*       <Sensor id='Main Conductivity'>
*
*          <type>conductivity-0</type>
*
*          <SerialNumber>01907809</SerialNumber>
*
*       </Sensor>
*
*       <Sensor id='Main Pressure'>
*
*          <type>strain-0</type>
*
*          <SerialNumber>10586018</SerialNumber>
*
*       </Sensor>
*
*    </InternalSensors>
*
*    <ExternalSensors>
*
*       <Sensor id='volt 0'>
*
*          <type>pH</type>
*
*          <SerialNumber>27-0363</SerialNumber>
*
*       </Sensor>
*
*       <Sensor id='volt 1'>
*
*          <type>ORP</type>
*
*          <SerialNumber>27-0363</SerialNumber>
*
*       </Sensor>
*
*       <Sensor id='volt 2'>
*
*          <type>OXY</type>
*
*          <SerialNumber>43-0434</SerialNumber>
*
*       </Sensor>
*
*       <Sensor id='volt 3'>
*
*          <type>PAR</type>
*
*          <SerialNumber>1122</SerialNumber>
*
*       </Sensor>
*
*       <Sensor id='volt 4'>
*
*          <type>ECO AFL/FL</type>
*
*          <SerialNumber>FLNTURT-2496</SerialNumber>
*
*       </Sensor>
*
*       <Sensor id='volt 5'>
*
*          <type>ECO-NTU</type>
*
*          <SerialNumber>FLNTURT-2496</SerialNumber>
*
*       </Sensor>
*
*       <Sensor id='serial'>
*
*          <type>not assigned</type>
*
*          <SerialNumber>not assigned</SerialNumber>
*
*       </Sensor>
*
*    </ExternalSensors>
*
* </HardwareData>
* <StatusData DeviceType='SBE19plus' SerialNumber='01907809'>
*
*    <DateTime>2021-07-12T06:04:40</DateTime>
*
*    <LoggingState>not logging</LoggingState>
*
*    <EventSummary numEvents='0'/>
*
*    <Power>
*
*       <vMain>12.3</vMain>
*
*       <vLith>8.7</vLith>
*
*       <iMain>63.1</iMain>
*
*       <iPump>49.0</iPump>
*
*       <iExt01>20.2</iExt01>
*
*       <iExt2345>37.8</iExt2345>
*
*    </Power>
*
*    <MemorySummary>
*
*       <Bytes>35903</Bytes>
*
*       <Samples>1561</Samples>
*
*       <SamplesFree>2859227</SamplesFree>
*
*       <SampleLength>23</SampleLength>
*
*       <Profiles>2</Profiles>
*
*    </MemorySummary>
*
* </StatusData>
* <ConfigurationData DeviceType='SBE19plus' SerialNumber='01907809'>
*
*    <ProfileMode>
*
*       <ScansToAverage>1</ScansToAverage>
*
*       <MinimumCondFreq>5</MinimumCondFreq>
*
*       <PumpDelay>30</PumpDelay>
*
*       <AutoRun>no</AutoRun>
*
*       <IgnoreSwitch>no</IgnoreSwitch>
*
*    </ProfileMode>
*
*    <Battery>
*
*       <Type>alkaline</Type>
*
*       <CutOff>7.5</CutOff>
*
*    </Battery>
*
*    <DataChannels>
*
*       <ExtVolt0>yes</ExtVolt0>
*
*       <ExtVolt1>yes</ExtVolt1>
*
*       <ExtVolt2>yes</ExtVolt2>
*
*       <ExtVolt3>yes</ExtVolt3>
*
*       <ExtVolt4>yes</ExtVolt4>
*
*       <ExtVolt5>yes</ExtVolt5>
*
*       <SBE38>no</SBE38>
*
*       <WETLABS>no</WETLABS>
*
*       <OPTODE>no</OPTODE>
*
*       <SBE63>no</SBE63>
*
*       <SeaFET>no</SeaFET>
*
*       <GTD>no</GTD>
*
*    </DataChannels>
*
*    <EchoCharacters>yes</EchoCharacters>
*
*    <OutputExecutedTag>yes</OutputExecutedTag>
*
*    <OutputFormat>raw HEX</OutputFormat>
*
* </ConfigurationData>
* <CalibrationCoefficients DeviceType='SBE19plus' SerialNumber='01907809'>
*
*    <Calibration format='TEMP1' id='Main Temperature'>
*
*       <SerialNum>01907809</SerialNum>
*
*       <CalDate>17-Feb-20</CalDate>
*
*       <TA0>1.231828e-03</TA0>
*
*       <TA1>2.765479e-04</TA1>
*
*       <TA2>-9.738161e-07</TA2>
*
*       <TA3>1.725813e-07</TA3>
*
*       <TOFFSET>0.000000e+00</TOFFSET>
*
*    </Calibration>
*
*    <Calibration format='WBCOND0' id='Main Conductivity'>
*
*       <SerialNum>01907809</SerialNum>
*
*       <CalDate>17-Feb-20</CalDate>
*
*       <G>-1.004905e+00</G>
*
*       <H>1.264249e-01</H>
*
*       <I>-3.338479e-05</I>
*
*       <J>1.822406e-05</J>
*
*       <CPCOR>-9.570000e-08</CPCOR>
*
*       <CTCOR>3.250000e-06</CTCOR>
*
*       <CSLOPE>1.000000e+00</CSLOPE>
*
*    </Calibration>
*
*    <Calibration format='STRAIN0' id='Main Pressure'>
*
*       <SerialNum>10586018</SerialNum>
*
*       <CalDate>30-Jan-20</CalDate>
*
*       <PA0>-8.839367e-03</PA0>
*
*       <PA1>4.852353e-04</PA1>
*
*       <PA2>-3.463847e-12</PA2>
*
*       <PTCA0>5.254672e+05</PTCA0>
*
*       <PTCA1>5.138564e+00</PTCA1>
*
*       <PTCA2>-2.726934e-01</PTCA2>
*
*       <PTCB0>2.516687e+01</PTCB0>
*
*       <PTCB1>3.750000e-04</PTCB1>
*
*       <PTCB2>0.000000e+00</PTCB2>
*
*       <PTEMPA0>-5.396332e+01</PTEMPA0>
*
*       <PTEMPA1>5.390761e+01</PTEMPA1>
*
*       <PTEMPA2>-2.231787e-02</PTEMPA2>
*
*       <POFFSET>6.460000e-01</POFFSET>
*
*       <PRANGE>1.600000e+02</PRANGE>
*
*    </Calibration>
*
*    <Calibration format='VOLT0' id='Volt 0'>
*
*       <OFFSET>-4.920000e-02</OFFSET>
*
*       <SLOPE>1.248122e+00</SLOPE>
*
*    </Calibration>
*
*    <Calibration format='VOLT0' id='Volt 1'>
*
*       <OFFSET>-4.784000e-02</OFFSET>
*
*       <SLOPE>1.248871e+00</SLOPE>
*
*    </Calibration>
*
*    <Calibration format='VOLT0' id='Volt 2'>
*
*       <OFFSET>-4.864632e-02</OFFSET>
*
*       <SLOPE>1.248714e+00</SLOPE>
*
*    </Calibration>
*
*    <Calibration format='VOLT0' id='Volt 3'>
*
*       <OFFSET>-4.743790e-02</OFFSET>
*
*       <SLOPE>1.248571e+00</SLOPE>
*
*    </Calibration>
*
*    <Calibration format='VOLT0' id='Volt 4'>
*
*       <OFFSET>-4.671263e-02</OFFSET>
*
*       <SLOPE>1.248951e+00</SLOPE>
*
*    </Calibration>
*
*    <Calibration format='VOLT0' id='Volt 5'>
*
*       <OFFSET>-4.871053e-02</OFFSET>
*
*       <SLOPE>1.249136e+00</SLOPE>
*
*    </Calibration>
*
*    <Calibration format='FREQ0' id='external frequency channel'>
*
*       <EXTFREQSF>1.000014e+00</EXTFREQSF>
*
*    </Calibration>
*
* </CalibrationCoefficients>
* <EventCounters DeviceType='SBE19plus' SerialNumber='01907809'>
*
*    <EventSummary numEvents='0'/>
*
* </EventCounters></InstrumentState>
* <Headers>
*
* cast   1 11 Jul 2021 20:04:05 samples 1 to 677, avg = 1, stop = mag switch
*
# nquan = 16
# nvalues = 677                         
# units = specified
# name 0 = depFM: Depth [fresh water, m]
# name 1 = dz/dtM: Descent Rate [m/s]
# name 2 = orp: Oxidation Reduction Potential [mV]
# name 3 = sbeox0Mg/L: Oxygen, SBE 43 [mg/l]
# name 4 = sbeox0PS: Oxygen, SBE 43 [% saturation]
# name 5 = par/sat/log: PAR/Logarithmic, Satlantic
# name 6 = ph: pH
# name 7 = specc: Specific Conductance [uS/cm]
# name 8 = c0uS/cm: Conductivity [uS/cm]
# name 9 = flECO-AFL: Fluorescence, WET Labs ECO-AFL/FL [mg/m^3]
# name 10 = turbWETntu0: Turbidity, WET Labs ECO [NTU]
# name 11 = tv290C: Temperature [ITS-90, deg C]
# name 12 = density00: Density [density, kg/m^3]
# name 13 = prdE: Pressure, Strain Gauge [psi]
# name 14 = prdM: Pressure, Strain Gauge [db]
# name 15 = flag:  0.000e+00
# span 0 =     -0.606,      9.687       
# span 1 =     -0.512,      0.170       
# span 2 =  -588.5825,   241.3728       
# span 3 =     0.7274,     8.4896       
# span 4 =      6.789,    104.623       
# span 5 = 1.2356e-01, 1.2377e+03       
# span 6 =     15.374,     15.843       
# span 7 =      0.761,    135.578       
# span 8 =   0.761103,  93.623697       
# span 9 =    -3.2855,    15.2278       
# span 10 =    -2.1712,    29.0152      
# span 11 =     9.5182,    26.1215      
# span 12 =   996.7721,   999.8379      
# span 13 =     -0.862,     13.779      
# span 14 =     -0.595,      9.500      
# span 15 = 0.0000e+00, 0.0000e+00      
# interval = seconds: 0.25
# start_time = Jul 11 2021 20:04:05 [Instrument's time stamp, header]
# bad_flag = -9.990e-29
# <Sensors count="9" >
#   <sensor Channel="1" >
#     <!-- Count, Temperature -->
#     <TemperatureSensor SensorID="58" >
#       <SerialNumber>7809</SerialNumber>
#       <CalibrationDate>17-Feb-20</CalibrationDate>
#       <A0>1.23182765e-003</A0>
#       <A1>2.76547921e-004</A1>
#       <A2>-9.73816136e-007</A2>
#       <A3>1.72581310e-007</A3>
#       <Slope>1.00000000</Slope>
#       <Offset>0.0000</Offset>
#     </TemperatureSensor>
#   </sensor>
#   <sensor Channel="2" >
#     <!-- Frequency 0, Conductivity -->
#     <ConductivitySensor SensorID="3" >
#       <SerialNumber>7809</SerialNumber>
#       <CalibrationDate>17-Feb-20</CalibrationDate>
#       <UseG_J>1</UseG_J>
#       <!-- Cell const and series R are applicable only for wide range sensors. -->
#       <SeriesR>0.0000</SeriesR>
#       <CellConst>2000.0000</CellConst>
#       <ConductivityType>0</ConductivityType>
#       <Coefficients equation="0" >
#         <A>0.00000000e+000</A>
#         <B>0.00000000e+000</B>
#         <C>0.00000000e+000</C>
#         <D>0.00000000e+000</D>
#         <M>0.0</M>
#         <CPcor>-9.57000000e-008</CPcor>
#       </Coefficients>
#       <Coefficients equation="1" >
#         <G>-1.00490463e+000</G>
#         <H>1.26424869e-001</H>
#         <I>-3.33847890e-005</I>
#         <J>1.82240562e-005</J>
#         <CPcor>-9.57000000e-008</CPcor>
#         <CTcor>3.2500e-006</CTcor>
#         <!-- WBOTC not applicable unless ConductivityType = 1. -->
#         <WBOTC>0.00000000e+000</WBOTC>
#       </Coefficients>
#       <Slope>1.00000000</Slope>
#       <Offset>0.00000</Offset>
#     </ConductivitySensor>
#   </sensor>
#   <sensor Channel="3" >
#     <!-- Count, Pressure, Strain Gauge -->
#     <PressureSensor SensorID="46" >
#       <SerialNumber>7809</SerialNumber>
#       <CalibrationDate>30-Jan-20</CalibrationDate>
#       <PA0>-8.83936748e-003</PA0>
#       <PA1>4.85235293e-004</PA1>
#       <PA2>-3.46384727e-012</PA2>
#       <PTEMPA0>-5.39633232e+001</PTEMPA0>
#       <PTEMPA1>5.39076104e+001</PTEMPA1>
#       <PTEMPA2>-2.23178720e-002</PTEMPA2>
#       <PTCA0>5.25467230e+005</PTCA0>
#       <PTCA1>5.13856356e+000</PTCA1>
#       <PTCA2>-2.72693365e-001</PTCA2>
#       <PTCB0>2.51668750e+001</PTCB0>
#       <PTCB1>3.75000000e-004</PTCB1>
#       <PTCB2>0.00000000e+000</PTCB2>
#       <Offset>0.000000</Offset>
#     </PressureSensor>
#   </sensor>
#   <sensor Channel="4" >
#     <!-- A/D voltage 0, Oxygen, SBE 43 -->
#     <OxygenSensor SensorID="38" >
#       <SerialNumber>0434</SerialNumber>
#       <CalibrationDate>17-Mar-20</CalibrationDate>
#       <Use2007Equation>1</Use2007Equation>
#       <CalibrationCoefficients equation="0" >
#         <!-- Coefficients for Owens-Millard equation. -->
#         <Boc>0.0000</Boc>
#         <Soc>0.0000e+000</Soc>
#         <offset>0.0000</offset>
#         <Pcor>0.00e+000</Pcor>
#         <Tcor>0.0000</Tcor>
#         <Tau>0.0</Tau>
#       </CalibrationCoefficients>
#       <CalibrationCoefficients equation="1" >
#         <!-- Coefficients for Sea-Bird equation - SBE calibration in 2007 and later. -->
#         <Soc>4.3425e-001</Soc>
#         <offset>-0.6091</offset>
#         <A>-4.2837e-003</A>
#         <B> 1.6743e-004</B>
#         <C>-2.2978e-006</C>
#         <D0> 2.5826e+000</D0>
#         <D1> 1.92634e-004</D1>
#         <D2>-4.64803e-002</D2>
#         <E> 3.6000e-002</E>
#         <Tau20> 1.3000</Tau20>
#         <H1>-3.3000e-002</H1>
#         <H2> 5.0000e+003</H2>
#         <H3> 1.4500e+003</H3>
#       </CalibrationCoefficients>
#     </OxygenSensor>
#   </sensor>
#   <sensor Channel="5" >
#     <!-- A/D voltage 1, PAR/Logarithmic, Satlantic -->
#     <PARLog_SatlanticSensor SensorID="76" >
#       <SerialNumber>1122</SerialNumber>
#       <CalibrationDate>08-May-2019</CalibrationDate>
#       <a0>9.7456e-001</a0>
#       <a1>8.1640e-001</a1>
#       <Im>1.3589e+000</Im>
#       <Multiplier>1.0000e+000</Multiplier>
#     </PARLog_SatlanticSensor>
#   </sensor>
#   <sensor Channel="6" >
#     <!-- A/D voltage 2, pH -->
#     <pH_Sensor SensorID="43" >
#       <SerialNumber>0363</SerialNumber>
#       <CalibrationDate>24-Feb-20</CalibrationDate>
#       <Slope>4.6470</Slope>
#       <Offset>2.5043</Offset>
#     </pH_Sensor>
#   </sensor>
#   <sensor Channel="7" >
#     <!-- A/D voltage 3, Oxidation Reduction Potential -->
#     <OxidationReductionPotentialSensor SensorID="41" >
#       <SerialNumber>0363</SerialNumber>
#       <CalibrationDate>24-Feb-20</CalibrationDate>
#       <B>2.499480</B>
#       <M>-0.496195</M>
#       <Offset>0.0</Offset>
#     </OxidationReductionPotentialSensor>
#   </sensor>
#   <sensor Channel="8" >
#     <!-- A/D voltage 4, Fluorometer, WET Labs ECO-AFL/FL -->
#     <FluoroWetlabECO_AFL_FL_Sensor SensorID="20" >
#       <SerialNumber>FLNTURT-2496</SerialNumber>
#       <CalibrationDate>31-Jan-2020</CalibrationDate>
#       <ScaleFactor>5.50000000e+001</ScaleFactor>
#       <!-- Dark output -->
#       <Vblank>0.0700</Vblank>
#     </FluoroWetlabECO_AFL_FL_Sensor>
#   </sensor>
#   <sensor Channel="9" >
#     <!-- A/D voltage 5, Turbidity Meter, WET Labs, ECO-NTU -->
#     <TurbidityMeter SensorID="67" >
#       <SerialNumber>FLNTURT-2496</SerialNumber>
#       <CalibrationDate>31-Jan-20</CalibrationDate>
#       <ScaleFactor>198.000000</ScaleFactor>
#       <!-- Dark output -->
#       <DarkVoltage>0.070000</DarkVoltage>
#     </TurbidityMeter>
#   </sensor>
# </Sensors>
# datcnv_date = Jul 12 2021 19:07:43, 7.26.7.129 [datcnv_vars = 15]
# datcnv_in = C:\R\Reservoirs\Data\DataNotYetUploadedToEDI\Raw_CTD\RawDownloads\071221_fcr50 (1).hex C:\DATA\SBE19plusV2_7809.xmlcon
# datcnv_skipover = 0
# datcnv_ox_hysteresis_correction = yes
# datcnv_ox_tau_correction = yes
# filter_date = Jul 12 2021 19:08:28, 7.26.7.129
# filter_in = C:\R\Reservoirs\Data\DataNotYetUploadedToEDI\Raw_CTD\RawDownloads\071221_fcr50 (1).cnv
# filter_low_pass_tc_A = 0.030
# filter_low_pass_tc_B = 0.150
# filter_low_pass_A_vars = sbeox0Mg/L tv290C density00 prdE prdM
# filter_low_pass_B_vars = depFM dz/dtM orp sbeox0PS par/sat/log ph specc c0uS/cm flECO-AFL turbWETntu0
# alignctd_date = Jul 12 2021 19:08:46, 7.26.7.129
# alignctd_in = C:\R\Reservoirs\Data\DataNotYetUploadedToEDI\Raw_CTD\RawDownloads\071221_fcr50 (1).cnv
# alignctd_adv = dz/dtM 1.000, orp 1.000, sbeox0PS 1.000, ph 1.000, specc 1.000, c0uS/cm 1.000, flECO-AFL 1.000, turbWETntu0 1.000                                                                                                   
# file_type = ascii
*END*
     -0.606 5.4780e-46  -452.8399     8.4710    102.422 1.3215e+02     15.418      0.825   0.825726    -0.9151    -0.0539    25.0474   997.0406     -0.861     -0.594 0.0000e+00
     -0.606 6.0258e-45  -459.6230     8.4388    102.513 1.3897e+02     15.415      0.814   0.815246    -0.9161    -0.0220    25.0481   997.0404     -0.862     -0.594 0.0000e+00
     -0.606 6.6284e-44  -467.8298     8.4578    102.525 1.4388e+02     15.411      0.802   0.802766    -0.9111     0.0150    25.0486   997.0403     -0.862     -0.594 0.0000e+00
     -0.606 7.2913e-43  -475.9218     8.4641    102.507 1.4026e+02     15.410      0.801   0.801519    -0.9213     0.0151    25.0495   997.0400     -0.861     -0.594 0.0000e+00
     -0.606 8.0204e-42  -482.3510     8.4413    102.540 1.3584e+02     15.410      0.800   0.800170    -0.9243     0.0139    25.0510   997.0396     -0.862     -0.594 0.0000e+00
     -0.606 8.8224e-41  -486.3698     8.4716    102.435 1.3694e+02     15.411      0.786   0.786454    -0.9001     0.0345    25.0518   997.0394     -0.862     -0.594 0.0000e+00
     -0.606 9.7047e-40  -489.0639     8.4651    102.398 1.4672e+02     15.412      0.762   0.762369    -0.8863     0.0236    25.0521   997.0394     -0.862     -0.594 0.0000e+00
     -0.606 1.0675e-38  -491.7813     8.4516    102.568 2.1620e+02     15.414      0.762   0.762359    -0.9008     0.0201    25.0526   997.0392     -0.861     -0.594 0.0000e+00
     -0.606 1.1743e-37  -495.1336     8.4786    102.731 2.7843e+02     15.414      0.786   0.786328    -0.9124     0.0605    25.0533   997.0390     -0.861     -0.594 0.0000e+00
     -0.606 1.2917e-36  -498.8809     8.4502    102.801 2.1766e+02     15.415      0.798   0.798789    -0.9122     0.0313    25.0537   997.0390     -0.862     -0.595 0.0000e+00
     -0.606 1.4209e-35  -502.7597     8.4416    102.762 1.4826e+02     15.415      0.786   0.786328    -0.9172    -0.0579    25.0538   997.0389     -0.862     -0.594 0.0000e+00
     -0.606 1.5629e-34  -506.7562     8.4714    102.663 1.4165e+02     15.413      0.762   0.762360    -0.9162    -0.0563    25.0543   997.0388     -0.861     -0.594 0.0000e+00
     -0.606 1.7192e-33  -511.3229     8.4808    102.577 1.4390e+02     15.412      0.762   0.762380    -0.9096     0.0158    25.0547   997.0387     -0.861     -0.594 0.0000e+00
     -0.606 1.8912e-32  -515.8165     8.4896    102.434 1.4698e+02     15.413      0.786   0.786568    -0.9132     0.0239    25.0550   997.0386     -0.862     -0.594 0.0000e+00
     -0.606 2.0803e-31  -519.1006     8.4853    102.334 1.4923e+02     15.413      0.801   0.801427    -0.9220    -0.0266    25.0553   997.0385     -0.861     -0.594 0.0000e+00
     -0.606 2.2883e-30  -522.2073     8.4701    102.453 1.4528e+02     15.412      0.815   0.815352    -0.9304    -0.0459    25.0555   997.0385     -0.861     -0.594 0.0000e+00
     -0.606 2.5171e-29  -525.9333     8.4713    102.644 1.4306e+02     15.411      0.827   0.828238    -0.9188    -0.0036    25.0558   997.0384     -0.861     -0.594 0.0000e+00
     -0.606 2.7689e-28  -529.9083     8.4561    102.754 1.6143e+02     15.411      0.829   0.830542    -0.8961     0.0393    25.0560   997.0384     -0.862     -0.594 0.0000e+00
     -0.606 3.0457e-27  -533.7020     8.4346    102.736 3.4848e+02     15.411      0.842   0.843212    -0.8944     0.0261    25.0562   997.0383     -0.862     -0.594 0.0000e+00
     -0.606 3.3503e-26  -536.6984     8.4567    102.570 7.4930e+02     15.411      0.853   0.854738    -0.8984     0.0087    25.0564   997.0383     -0.862     -0.594 0.0000e+00
     -0.606 3.6854e-25  -539.5517     8.4759    102.449 1.0682e+03     15.411      0.842   0.843212    -0.8974     0.0352    25.0567   997.0382     -0.861     -0.594 0.0000e+00
     -0.606 4.0539e-24  -542.3887     8.4832    102.529 1.1861e+03     15.411      0.829   0.830543    -0.9101     0.0368    25.0570   997.0381     -0.862     -0.595 0.0000e+00
     -0.606 4.4593e-23  -544.8440     8.4875    102.660 1.2321e+03     15.411      0.827   0.828249    -0.9282    -0.0063    25.0576   997.0380     -0.862     -0.594 0.0000e+00
     -0.606 4.9052e-22  -547.5567     8.4646    102.724 1.1862e+03     15.411      0.814   0.815477    -0.9260    -0.0056    25.0583   997.0378     -0.861     -0.594 0.0000e+00
     -0.606 5.3957e-21  -550.2367     8.4455    102.705 8.8952e+02     15.411      0.801   0.802798    -0.9125    -0.0568    25.0588   997.0377     -0.862     -0.594 0.0000e+00
     -0.606 5.9353e-20  -552.3823     8.4628    102.624 5.1537e+02     15.411      0.800   0.801645    -0.9163    -0.2138    25.0590   997.0376     -0.861     -0.595 0.0000e+00
     -0.606 6.5288e-19  -554.4841     8.4762    102.582 4.1158e+02     15.412      0.800   0.801530    -0.9252    -0.2898    25.0593   997.0375     -0.862     -0.594 0.0000e+00
     -0.606 7.1817e-18  -553.7959     8.4792    102.515 6.2679e+02     15.416      0.800   0.801416    -0.9153    -0.2554    25.0598   997.0374     -0.861     -0.595 0.0000e+00
     -0.606 7.8999e-17  -551.2881     8.4821    102.450 1.0024e+03     15.419      0.799   0.800262    -0.9109    -0.2436    25.0606   997.0371     -0.862     -0.594 0.0000e+00
     -0.606 8.6899e-16  -554.6208     8.4646    102.543 1.2033e+03     15.416      0.786   0.787584    -0.9287    -0.2502    25.0616   997.0369     -0.862     -0.595 0.0000e+00
     -0.606 9.5589e-15  -560.7942     8.4682    102.648 9.6282e+02     15.411      0.774   0.774820    -0.9401    -0.2319    25.0621   997.0368     -0.862     -0.595 0.0000e+00
     -0.606 1.0515e-13  -563.4652     8.4646    102.639 4.5943e+02     15.409      0.772   0.772630    -0.9252    -0.2285    25.0628   997.0366     -0.862     -0.594 0.0000e+00
     -0.606 1.1566e-12  -564.5457     8.4438    102.570 1.6034e+02     15.409      0.761   0.761103    -0.9107    -0.2444    25.0637   997.0364     -0.862     -0.594 0.0000e+00
     -0.606 1.2723e-11  -565.4264     8.4652    102.488 1.0753e+02     15.410      0.761   0.762142    -0.9172    -0.2864    25.0644   997.0362     -0.861     -0.594 0.0000e+00
     -0.606 1.3995e-10  -565.4235     8.4759    102.376 8.9200e+01     15.411      0.784   0.785186    -0.9176    -0.2896    25.0648   997.0361     -0.862     -0.594 0.0000e+00
     -0.606 1.5395e-09  -560.4667     8.4717    102.264 7.9926e+01     15.414      0.785   0.786336    -0.9056    -0.2487    25.0650   997.0361     -0.861     -0.594 0.0000e+00
     -0.606 1.6934e-08  -552.2138     8.4649    102.320 7.6629e+01     15.422      0.775   0.776056    -0.9066    -0.2727    25.0656   997.0359     -0.861     -0.594 0.0000e+00
     -0.605 1.8627e-07  -555.8933     8.4579    102.551 7.7279e+01     15.422      0.787   0.787583    -0.9192    -0.2709    25.0667   997.0356     -0.861     -0.594 0.0000e+00
     -0.605 1.8627e-07  -569.5076     8.4517    102.744 9.0807e+01     15.412      0.798   0.799016    -0.9155    -0.1925    25.0676   997.0354     -0.860     -0.593 0.0000e+00
     -0.606 1.6935e-08  -575.8898     8.4318    102.725 2.3494e+02     15.408      0.786   0.787595    -0.8992    -0.1828    25.0683   997.0352     -0.862     -0.594 0.0000e+00
     -0.606 1.5474e-09  -576.4468     8.4366    102.553 4.1495e+02     15.410      0.775   0.776181    -0.9033    -0.2233    25.0688   997.0351     -0.862     -0.595 0.0000e+00
     -0.606 2.2689e-10  -577.1884     8.4648    102.466 5.7474e+02     15.411      0.787   0.787708    -0.9175    -0.2350    25.0697   997.0349     -0.861     -0.594 0.0000e+00
     -0.606 9.6903e-10  -577.2847     8.4850    102.448 8.9240e+02     15.413      0.799   0.800274    -0.9191    -0.2562    25.0715   997.0344     -0.861     -0.594 0.0000e+00
     -0.606 1.0521e-08  -577.2673     8.4849    102.447 1.1269e+03     15.413      0.800   0.801419    -0.9221    -0.2736    25.0734   997.0340     -0.861     -0.593 0.0000e+00
     -0.606 1.1571e-07  -580.2476     8.4551    102.572 1.1583e+03     15.412      0.800   0.801550    -0.9349    -0.2728    25.0743   997.0337     -0.861     -0.594 0.0000e+00
     -0.606      0.000  -585.8729     8.4517    102.694 1.1612e+03     15.409      0.800   0.801867    -0.9407    -0.2818    25.0752   997.0335     -0.860     -0.593 0.0000e+00
     -0.606      0.000  -588.5825     8.4583    102.754 1.1643e+03     15.409      0.804   0.805250    -0.9257    -0.2798    25.0769   997.0330     -0.861     -0.594 0.0000e+00
     -0.605      0.000  -584.4438     8.4415    102.755 1.1724e+03     15.412      0.840   0.842454    -0.9060    -0.2819    25.0784   997.0326     -0.860     -0.593 0.0000e+00
     -0.605      0.002  -538.9302     8.4670    102.666 1.1740e+03     15.426      0.995   0.998313    -0.9210    -0.3072    25.0799   997.0323     -0.861     -0.593 0.0000e+00
     -0.605      0.009  -459.1848     8.4743    102.511 1.1696e+03     15.445      2.171   2.182952    -0.9830    -0.3456    25.0809   997.0320     -0.862     -0.594 0.0000e+00
     -0.605      0.025  -410.2620     8.4770    102.280 1.1661e+03     15.447      9.067   9.147542    -1.0545    -0.4031    25.0825   997.0315     -0.861     -0.593 0.0000e+00
     -0.604      0.050  -418.1297     8.4835    102.216 1.1451e+03     15.438     23.337  23.599217    -1.0994    -0.4191    25.0829   997.0314     -0.860     -0.593 0.0000e+00
     -0.599      0.079  -466.3799     8.4672    102.427 9.8015e+02     15.423     35.620  36.100380    -1.1158     0.1832    25.0845   997.0311     -0.861     -0.593 0.0000e+00
     -0.577      0.110  -496.3442     8.4651    102.615 6.4680e+02     15.400     39.808  40.427478    -0.9759     7.6345    25.0836   997.0313     -0.835     -0.575 0.0000e+00
     -0.533      0.139  -495.4638     8.4143    102.673 5.4825e+02     15.384     40.207  40.894403    -0.6860    21.3508    25.1989   997.0024     -0.761     -0.525 0.0000e+00
     -0.483      0.160  -494.2812     8.3595    102.692 8.5390e+02     15.379     40.320  41.047823    -0.5195    28.7983    25.4622   996.9397     -0.683     -0.471 0.0000e+00
     -0.436      0.170  -493.8320     8.3656    102.739 1.1498e+03     15.380     40.384  41.140013    -0.4980    29.0152    25.6648   996.8916     -0.622     -0.428 0.0000e+00
     -0.388      0.168  -493.2164     8.3623    102.901 1.2316e+03     15.381     40.407  41.183949    -0.4742    23.9385    25.7822   996.8610     -0.555     -0.383 0.0000e+00
     -0.341      0.158  -492.2583     8.3492    103.124 1.2237e+03     15.381     40.407  41.198231    -0.1461    12.9425    25.8611   996.8404     -0.479     -0.330 0.0000e+00
     -0.303      0.146  -490.4215     8.3477    103.365 1.1999e+03     15.378     40.380  41.185772     0.4652     4.4170    25.8983   996.8308     -0.425     -0.294 0.0000e+00
     -0.273      0.132  -487.8718     8.3380    103.665 1.1780e+03     15.376     40.341  41.160281     0.7938     1.9519    25.9338   996.8215     -0.389     -0.268 0.0000e+00
     -0.243      0.116  -485.0040     8.3532    103.987 1.1698e+03     15.376     40.313  41.143934     0.8142     1.6769    25.9563   996.8155     -0.347     -0.239 0.0000e+00
     -0.212      0.099  -481.9895     8.3712    104.277 1.1748e+03     15.375     40.277  41.115081     0.8167     1.6763    25.9706   996.8119     -0.299     -0.206 0.0000e+00
     -0.184      0.083  -478.9568     8.3827    104.473 1.1867e+03     15.374     40.224  41.065332     0.8527     1.7388    25.9915   996.8065     -0.255     -0.177 0.0000e+00
     -0.164      0.067  -476.1262     8.4087    104.564 1.2031e+03     15.374     40.207  41.050215     0.8964     1.7454    26.0092   996.8019     -0.231     -0.159 0.0000e+00
     -0.152      0.049  -473.4049     8.4318    104.607 1.2181e+03     15.374     40.215  41.059247     0.9062     1.7559    26.0248   996.7978     -0.213     -0.147 0.0000e+00
     -0.144      0.033  -470.6612     8.4571    104.623 1.2282e+03     15.374     40.203  41.047592     0.8950     1.7634    26.0360   996.7949     -0.202     -0.139 0.0000e+00
     -0.139      0.021  -467.8172     8.4724    104.534 1.2346e+03     15.375     40.193  41.036251     0.8846     1.6982    26.0405   996.7937     -0.196     -0.136 0.0000e+00
     -0.136      0.012  -464.9166     8.4769    104.337 1.2347e+03     15.376     40.206  41.049069     0.8851     1.6883    26.0426   996.7931     -0.193     -0.134 0.0000e+00
     -0.136      0.006  -462.3476     8.4792    104.241 1.2307e+03     15.377     40.231  41.075623     0.8930     1.7471    26.0437   996.7928     -0.194     -0.134 0.0000e+00
     -0.136      0.003  -460.1583     8.4826    104.286 1.2237e+03     15.377     40.256  41.103425     0.8932     1.7903    26.0443   996.7927     -0.194     -0.134 0.0000e+00
     -0.136      0.002  -457.8910     8.4810    104.359 1.2147e+03     15.378     40.283  41.131332     0.8781     1.8330    26.0430   996.7930     -0.194     -0.134 0.0000e+00
     -0.136      0.002  -455.3254     8.4514    104.358 1.2062e+03     15.378     40.313  41.159144     0.8635     1.8856    26.0418   996.7933     -0.193     -0.133 0.0000e+00
     -0.135      0.002  -452.7125     8.4441    103.813 1.2013e+03     15.379     40.343  41.185804     0.8685     1.9465    26.0434   996.7928     -0.191     -0.132 0.0000e+00
     -0.134      0.002  -450.3895     8.4542    101.743 1.1974e+03     15.380     40.358  41.199769     0.8814     1.9860    26.0475   996.7918     -0.190     -0.131 0.0000e+00
     -0.134      0.002  -448.4901     8.4569     97.472 1.1909e+03     15.380     40.358  41.201049     0.8863     1.9508    26.0482   996.7917     -0.191     -0.131 0.0000e+00
     -0.134      0.002  -446.7830     8.4698     91.586 1.1874e+03     15.380     40.354  41.201277     0.8800     1.8989    26.0428   996.7931     -0.190     -0.131 0.0000e+00
     -0.133      0.001  -445.0637     8.4585     85.599 1.1869e+03     15.380     40.350  41.202535     0.8811     1.9074    26.0367   996.7947     -0.190     -0.131 0.0000e+00
     -0.133      0.001  -443.1902     8.3234     80.908 1.1916e+03     15.379     40.359  41.216268     0.9475     1.9512    26.0347   996.7952     -0.190     -0.131 0.0000e+00
     -0.133      0.001  -441.2512     7.9527     77.969 1.1990e+03     15.379     40.378  41.240388     1.0539     1.9818    26.0372   996.7947     -0.188     -0.130 0.0000e+00
     -0.132      0.001  -439.6027     7.4265     76.454 1.2050e+03     15.380     40.374  41.240274     1.0992     1.9679    26.0429   996.7932     -0.187     -0.129 0.0000e+00
     -0.132      0.001  -438.2290     6.8932     75.912 1.2109e+03     15.380     40.347  41.214895     1.0940     1.9204    26.0491   996.7915     -0.188     -0.130 0.0000e+00
     -0.132      0.001  -437.0314     6.5005     75.878 1.2146e+03     15.380     40.318  41.187426     1.0866     1.8892    26.0560   996.7896     -0.188     -0.129 0.0000e+00
     -0.132      0.000  -435.9631     6.2806     75.932 1.2171e+03     15.381     40.293  41.162046     1.0857     1.8991    26.0619   996.7880     -0.188     -0.129 0.0000e+00
     -0.132 1.8628e-08  -434.6901     6.1651     75.738 1.2179e+03     15.382     40.291  41.161934     1.0836     1.9036    26.0672   996.7866     -0.188     -0.129 0.0000e+00
     -0.132 2.0490e-07  -432.9980     6.1381     75.248 1.2167e+03     15.381     40.311  41.186064     1.0715     1.8740    26.0712   996.7856     -0.187     -0.129 0.0000e+00
     -0.132 2.0490e-07  -431.1630     6.1440     74.735 1.2147e+03     15.380     40.320  41.199911     1.0635     1.8502    26.0712   996.7855     -0.187     -0.129 0.0000e+00
     -0.132 1.8627e-08  -429.5392     6.1614     74.480 1.2114e+03     15.381     40.318  41.202417     1.0344     1.8899    26.0711   996.7856     -0.189     -0.130 0.0000e+00
     -0.132 1.6934e-09  -428.0779     6.1473     74.489 1.2069e+03     15.381     40.328  41.216379     0.9863     1.9769    26.0738   996.7849     -0.188     -0.129 0.0000e+00
     -0.132 1.5395e-10  -426.5720     6.0955     74.448 1.2031e+03     15.380     40.349  41.241778     0.9584     1.9754    26.0789   996.7835     -0.187     -0.129 0.0000e+00
     -0.132 1.3995e-11  -424.9253     6.0449     74.116 1.2011e+03     15.380     40.359  41.255627     0.9452     1.9061    26.0853   996.7818     -0.188     -0.129 0.0000e+00
     -0.132 1.2723e-12  -423.3106     6.0200     73.482 1.1998e+03     15.380     40.358  41.256885     0.9599     1.9286    26.0909   996.7803     -0.188     -0.129 0.0000e+00
     -0.132 1.1566e-13  -421.9333     6.0360     72.747 1.1994e+03     15.380     40.356  41.256999     1.0025     2.0420    26.0955   996.7791     -0.188     -0.130 0.0000e+00
     -0.132 1.0515e-14  -420.6624     6.0379     72.163 1.2006e+03     15.380     40.354  41.257000     1.0323     2.1432    26.1004   996.7778     -0.189     -0.130 0.0000e+00
     -0.132 9.5591e-16  -419.3870     6.0107     71.784 1.2032e+03     15.380     40.353  41.256897     1.0335     2.1573    26.1049   996.7766     -0.188     -0.129 0.0000e+00
     -0.132 8.7043e-17  -418.2147     5.9538     71.613 1.2063e+03     15.380     40.352  41.255752     1.0262     2.0751    26.1081   996.7757     -0.187     -0.129 0.0000e+00
     -0.132 9.4706e-18  -417.1567     5.8819     71.665 1.2105e+03     15.379     40.338  41.243162     1.0393     1.9736    26.1108   996.7750     -0.188     -0.129 0.0000e+00
     -0.132 1.7995e-17  -416.0592     5.8369     71.916 1.2152e+03     15.379     40.325  41.231620     1.0683     1.9600    26.1125   996.7746     -0.188     -0.129 0.0000e+00
     -0.132 1.9011e-16  -414.8401     5.8059     72.376 1.2183e+03     15.379     40.335  41.243150     1.0904     2.0135    26.1133   996.7744     -0.187     -0.129 0.0000e+00
     -0.132 2.0905e-15  -413.6018     5.7899     72.958 1.2196e+03     15.380     40.346  41.255626     1.1068     2.0024    26.1141   996.7741     -0.188     -0.129 0.0000e+00
     -0.132 2.2995e-14  -412.5307     5.7973     73.477 1.2210e+03     15.381     40.346  41.255521     1.1234     1.9283    26.1157   996.7737     -0.187     -0.129 0.0000e+00
     -0.132 2.5295e-13  -411.4388     5.8143     73.825 1.2215e+03     15.381     40.332  41.241880     1.1293     1.9075    26.1176   996.7732     -0.188     -0.130 0.0000e+00
     -0.132 2.7824e-12  -410.2086     5.8540     74.033 1.2202e+03     15.380     40.309  41.217645     1.1393     1.9572    26.1194   996.7727     -0.187     -0.129 0.0000e+00
     -0.132 3.0607e-11  -408.9274     5.9084     74.158 1.2179e+03     15.379     40.309  41.216386     1.1498     1.9794    26.1209   996.7723     -0.188     -0.129 0.0000e+00
     -0.132 3.3667e-10  -407.4770     5.9531     74.149 1.2156e+03     15.379     40.322  41.226658     1.1218     1.9007    26.1215   996.7721     -0.187     -0.129 0.0000e+00
     -0.132 3.7034e-09  -406.0082     5.9805     73.957 1.2134e+03     15.380     40.312  41.214900     1.0869     1.8302    26.1211   996.7722     -0.187     -0.129 0.0000e+00
     -0.132 4.0738e-08  -404.5900     5.9930     73.614 1.2112e+03     15.382     40.301  41.201156     1.0803     1.8486    26.1205   996.7724     -0.187     -0.129 0.0000e+00
     -0.131 4.4811e-07  -403.0642     6.0072     73.171 1.2100e+03     15.382     40.288  41.187430     1.0893     1.8819    26.1194   996.7728     -0.187     -0.129 0.0000e+00
     -0.131      0.000  -401.5841     6.0085     72.733 1.2099e+03     15.381     40.278  41.175879     1.1487     1.8904    26.1169   996.7734     -0.187     -0.129 0.0000e+00
     -0.131      0.000  -400.2886     5.9909     72.360 1.2104e+03     15.381     40.291  41.188440     1.2358     1.8823    26.1136   996.7742     -0.186     -0.128 0.0000e+00
     -0.131      0.001  -398.9291     5.9634     71.955 1.2123e+03     15.381     40.314  41.212360     1.2649     1.8865    26.1111   996.7750     -0.187     -0.129 0.0000e+00
     -0.131      0.002  -397.4505     5.9241     71.528 1.2150e+03     15.382     40.313  41.211196     1.2629     1.9075    26.1094   996.7753     -0.187     -0.129 0.0000e+00
     -0.131      0.002  -396.1777     5.8840     71.168 1.2172e+03     15.383     40.280  41.174372     1.2975     1.9638    26.1085   996.7755     -0.186     -0.128 0.0000e+00
     -0.130      0.004  -395.1550     5.8612     70.817 1.2195e+03     15.383     40.259  41.147956     1.3491     2.0184    26.1079   996.7757     -0.186     -0.128 0.0000e+00
     -0.129      0.007  -394.1187     5.8280     70.437 1.2216e+03     15.382     40.260  41.145689     1.3627     1.9836    26.1080   996.7758     -0.184     -0.126 0.0000e+00
     -0.127      0.012  -392.9405     5.7858     70.049 1.2231e+03     15.382     40.265  41.146960     1.3469     1.9210    26.1081   996.7757     -0.181     -0.124 0.0000e+00
     -0.126      0.019  -391.6642     5.7636     69.716 1.2209e+03     15.383     40.287  41.163319     1.3303     1.9145    26.1048   996.7767     -0.180     -0.125 0.0000e+00
     -0.122      0.027  -390.3027     5.7358     69.631 1.2095e+03     15.383     40.343  41.216519     1.3142     1.9392    26.0971   996.7787     -0.178     -0.122 0.0000e+00
     -0.113      0.036  -388.9545     5.7040     70.109 1.1996e+03     15.383     40.406  41.282410     1.2954     1.9455    26.0939   996.7796     -0.161     -0.111 0.0000e+00
     -0.102      0.043  -387.6663     5.6738     71.614 1.2053e+03     15.382     40.441  41.325268     1.2744     1.9216    26.0903   996.7806     -0.145     -0.100 0.0000e+00
     -0.088      0.049  -386.3421     5.6398     74.334 1.2213e+03     15.382     40.461  41.353869     1.2319     1.8559    26.0792   996.7836     -0.128     -0.088 0.0000e+00
     -0.072      0.054  -384.9041     5.6278     77.644 1.2341e+03     15.382     40.474  41.374344     1.1732     1.7697    26.0736   996.7852     -0.098     -0.068 0.0000e+00
     -0.058      0.059  -383.3562     5.6503     80.484 1.2369e+03     15.382     40.477  41.382415     1.1552     1.7375    26.0753   996.7848     -0.082     -0.057 0.0000e+00
     -0.046      0.065  -381.9096     5.7575     82.102 1.2329e+03     15.381     40.480  41.387986     1.1579     1.7410    26.0858   996.7820     -0.067     -0.046 0.0000e+00
     -0.032      0.070  -380.5772     6.0010     82.560 1.2049e+03     15.381     40.470  41.378239     1.1387     1.7081    26.0984   996.7788     -0.045     -0.032 0.0000e+00
     -0.013      0.074  -379.2064     6.3008     82.429 9.4299e+02     15.381     40.423  41.328033     1.1047     1.7178    26.1065   996.7767     -0.022     -0.015 0.0000e+00
      0.011      0.079  -377.8112     6.5576     82.176 4.7002e+02     15.382     40.388  41.288733     1.0612     1.8246    26.1134   996.7751      0.018      0.012 0.0000e+00
      0.035      0.083  -376.3557     6.6827     81.986 3.0240e+02     15.382     40.391  41.283904     1.0322     1.9004    26.1165   996.7742      0.053      0.036 0.0000e+00
      0.056      0.083  -374.8579     6.6972     81.814 5.2352e+02     15.382     40.391  41.269638     1.0217     1.9130    26.1158   996.7745      0.078      0.053 0.0000e+00
      0.077      0.080  -373.3822     6.6754     81.624 7.1578e+02     15.383     40.380  41.243172     1.0292     1.9080    26.1134   996.7753      0.109      0.075 0.0000e+00
      0.098      0.075  -371.9357     6.6478     81.402 6.8980e+02     15.383     40.365  41.217772     1.0658     1.9086    26.1118   996.7758      0.138      0.095 0.0000e+00
      0.118      0.069  -370.6172     6.6400     81.126 5.7155e+02     15.383     40.370  41.216409     1.1019     1.9551    26.1016   996.7786      0.170      0.117 0.0000e+00
      0.136      0.062  -369.3141     6.6269     80.772 5.2773e+02     15.383     40.385  41.226683     1.1130     1.9895    26.0805   996.7843      0.196      0.134 0.0000e+00
      0.150      0.052  -367.7950     6.6155     80.395 5.5847e+02     15.383     40.376  41.215047     1.1141     1.8785    26.0614   996.7894      0.212      0.147 0.0000e+00
      0.163      0.043  -366.1883     6.5990     80.105 5.6702e+02     15.383     40.365  41.202655     1.1236     1.6773    26.0483   996.7929      0.234      0.161 0.0000e+00
      0.173      0.037  -364.6866     6.5788     79.889 5.3402e+02     15.383     40.366  41.203799     1.1426     1.6166    26.0401   996.7952      0.249      0.171 0.0000e+00
      0.178      0.037  -363.3186     6.5506     79.728 4.9754e+02     15.384     40.391  41.228874     1.1631     1.6932    26.0356   996.7965      0.253      0.174 0.0000e+00
      0.181      0.041  -362.0375     6.5126     79.622 4.8215e+02     15.384     40.414  41.251948     1.1892     1.7801    26.0325   996.7972      0.255      0.176 0.0000e+00
      0.189      0.047  -360.6396     6.4939     79.525 4.9941e+02     15.384     40.391  41.228885     1.2102     1.8430    26.0308   996.7976      0.262      0.180 0.0000e+00
      0.204      0.056  -359.0656     6.4758     79.444 5.1671e+02     15.383     40.366  41.203915     1.2073     1.8703    26.0308   996.7978      0.286      0.197 0.0000e+00
      0.224      0.066  -357.3744     6.4616     79.398 5.2017e+02     15.383     40.365  41.203925     1.2119     1.9386    26.0306   996.7980      0.321      0.222 0.0000e+00
      0.242      0.074  -355.5065     6.4563     79.368 5.1990e+02     15.383     40.388  41.229010     1.2278     1.9480    26.0301   996.7982      0.345      0.237 0.0000e+00
      0.262      0.080  -353.6034     6.4474     79.400 5.1305e+02     15.383     40.412  41.253321     1.2280     1.8126    26.0304   996.7982      0.371      0.255 0.0000e+00
      0.284      0.084  -351.7438     6.4389     79.525 5.0908e+02     15.383     40.404  41.243971     1.2141     1.7088    26.0312   996.7981      0.406      0.280 0.0000e+00
      0.305      0.088  -349.8857     6.4377     79.664 5.1150e+02     15.383     40.404  41.242913     1.2026     1.6547    26.0331   996.7976      0.434      0.299 0.0000e+00
      0.326      0.093  -348.0870     6.4330     79.764 5.1866e+02     15.383     40.404  41.240519     1.2421     1.7069    26.0356   996.7970      0.461      0.317 0.0000e+00
      0.350      0.097  -346.0850     6.4322     79.821 5.0801e+02     15.384     40.382  41.215026     1.3192     1.8930    26.0351   996.7973      0.496      0.341 0.0000e+00
      0.377      0.099  -343.9199     6.4483     79.816 4.8330e+02     15.384     40.358  41.188570     1.3626     1.9825    26.0330   996.7979      0.537      0.369 0.0000e+00
      0.404      0.100  -342.0423     6.4602     79.749 4.8443e+02     15.384     40.347  41.174531     1.3670     1.9312    26.0315   996.7985      0.575      0.396 0.0000e+00
      0.432      0.100  -340.4185     6.4680     79.653 4.8423e+02     15.384     40.348  41.172224     1.3627     1.8563    26.0289   996.7994      0.614      0.423 0.0000e+00
      0.458      0.101  -338.8271     6.4742     79.553 4.6308e+02     15.384     40.339  41.160675     1.4441     1.8319    26.0256   996.8003      0.653      0.450 0.0000e+00
      0.481      0.104  -336.9121     6.4743     79.460 4.5199e+02     15.384     40.342  41.161830     1.6071     1.8773    26.0221   996.8013      0.686      0.473 0.0000e+00
      0.503      0.108  -334.7298     6.4680     79.411 4.6088e+02     15.384     40.367  41.186190     1.6930     1.9238    26.0186   996.8023      0.713      0.492 0.0000e+00
      0.529      0.112  -332.8323     6.4595     79.426 4.5913e+02     15.384     40.383  41.201309     1.7010     1.9148    26.0154   996.8033      0.747      0.516 0.0000e+00
      0.562      0.116  -331.0922     6.4527     79.497 4.2575e+02     15.384     40.400  41.217677     1.7805     1.9054    26.0128   996.8042      0.799      0.551 0.0000e+00
      0.597      0.117  -329.2628     6.4430     79.568 3.9427e+02     15.384     40.440  41.257144     1.9390     1.9132    26.0108   996.8049      0.853      0.588 0.0000e+00
      0.629      0.116  -327.4918     6.4393     79.572 3.8510e+02     15.384     40.482  41.297653     2.0239     1.9057    26.0090   996.8055      0.896      0.617 0.0000e+00
      0.658      0.110  -325.6819     6.4404     79.525 3.8530e+02     15.384     40.512  41.326620     2.0446     1.9181    26.0070   996.8061      0.936      0.645 0.0000e+00
      0.687      0.100  -323.7262     6.4477     79.446 3.7810e+02     15.384     40.542  41.353489     2.1311     1.9257    26.0051   996.8068      0.978      0.674 0.0000e+00
      0.712      0.090  -321.8284     6.4576     79.285 3.6213e+02     15.384     40.561  41.368620     2.2497     1.9285    26.0043   996.8071      1.014      0.699 0.0000e+00
      0.734      0.083  -320.0299     6.4560     79.022 3.5028e+02     15.384     40.580  41.382614     2.3059     1.9523    26.0024   996.8077      1.045      0.721 0.0000e+00
      0.751      0.078  -318.2418     6.4515     78.717 3.4795e+02     15.385     40.599  41.395734     2.3145     1.9381    25.9984   996.8089      1.070      0.738 0.0000e+00
      0.766      0.078  -316.5555     6.4480     78.422 3.4715e+02     15.385     40.610  41.400291     2.3540     1.8942    25.9938   996.8102      1.087      0.749 0.0000e+00
      0.782      0.080  -314.9562     6.4372     78.163 3.3964e+02     15.386     40.590  41.374228     2.4397     1.8686    25.9878   996.8118      1.109      0.766 0.0000e+00
      0.802      0.085  -313.2735     6.4130     77.880 3.3364e+02     15.386     40.498  41.271028     2.4927     1.9023    25.9832   996.8132      1.139      0.785 0.0000e+00
      0.827      0.090  -311.4385     6.3884     77.493 3.2472e+02     15.386     40.356  41.104594     2.4990     1.9592    25.9764   996.8151      1.175      0.810 0.0000e+00
      0.855      0.093  -309.4619     6.3639     77.075 3.0473e+02     15.387     40.179  40.885226     2.4681     1.9385    25.9652   996.8182      1.217      0.839 0.0000e+00
      0.881      0.093  -307.6139     6.3449     76.687 2.8509e+02     15.389     40.004  40.649740     2.4048     1.8919    25.9609   996.8194      1.253      0.864 0.0000e+00
      0.905      0.091  -305.9591     6.3287     76.297 2.7524e+02     15.392     39.912  40.478791     2.3631     1.8769    25.9549   996.8212      1.288      0.889 0.0000e+00
      0.927      0.088  -304.2521     6.2945     75.867 2.7800e+02     15.395     39.920  40.404981     2.3551     1.8940    25.9283   996.8282      1.320      0.910 0.0000e+00
      0.947      0.083  -302.3768     6.2641     75.346 2.8974e+02     15.397     39.969  40.391896     2.3570     1.8930    25.8801   996.8410      1.347      0.930 0.0000e+00
      0.968      0.079  -300.3208     6.2435     74.671 2.9285e+02     15.398     39.994  40.383952     2.3186     1.8304    25.8099   996.8596      1.376      0.949 0.0000e+00
      0.988      0.076  -298.4929     6.2229     73.738 2.7773e+02     15.399     39.930  40.308889     2.2526     1.8229    25.7086   996.8863      1.407      0.970 0.0000e+00
      1.007      0.075  -296.9683     6.2035     72.494 2.5969e+02     15.399     39.444  39.801655     2.2265     1.8718    25.5908   996.9174      1.434      0.989 0.0000e+00
      1.026      0.077  -295.3080     6.1711     71.061 2.4686e+02     15.403     38.489  38.757276     2.2329     1.9072    25.5078   996.9391      1.459      1.006 0.0000e+00
      1.043      0.080  -293.3030     6.1233     69.641 2.3272e+02     15.410     37.686  37.772574     2.2531     1.9412    25.4729   996.9482      1.485      1.024 0.0000e+00
      1.061      0.084  -291.1394     6.0517     68.425 2.1599e+02     15.418     37.303  37.161378     2.2801     1.9399    25.4641   996.9506      1.505      1.039 0.0000e+00
      1.083      0.089  -289.1089     5.9423     67.448 2.0611e+02     15.426     37.118  36.761308     2.2821     1.9261    25.4772   996.9472      1.537      1.060 0.0000e+00
      1.110      0.094  -286.9933     5.8287     66.628 2.0760e+02     15.433     36.960  36.425383     2.2685     1.9113    25.3962   996.9681      1.580      1.089 0.0000e+00
      1.137      0.099  -284.6601     5.7328     65.908 2.1031e+02     15.439     36.757  36.082062     2.2587     1.8983    25.1288   997.0371      1.618      1.116 0.0000e+00
      1.162      0.101  -282.1505     5.6667     65.170 2.0828e+02     15.444     36.577  35.782948     2.2499     1.9063    24.7926   997.1231      1.650      1.137 0.0000e+00
      1.188      0.097  -279.3642     5.6222     64.317 2.0375e+02     15.449     36.512  35.600779     2.2377     1.8703    24.4933   997.1988      1.688      1.163 0.0000e+00
      1.216      0.090  -276.5242     5.5770     63.336 1.9968e+02     15.453     36.555  35.529182     2.2166     1.8409    24.2530   997.2591      1.731      1.192 0.0000e+00
      1.242      0.084  -273.7960     5.5414     62.294 1.9514e+02     15.457     36.680  35.551673     2.2038     1.8938    24.0662   997.3055      1.769      1.219 0.0000e+00
      1.261      0.079  -271.0717     5.4992     61.409 1.8666e+02     15.459     36.819  35.618747     2.2065     1.9605    23.9069   997.3447      1.797      1.240 0.0000e+00
      1.275      0.074  -268.3642     5.4427     60.902 1.7706e+02     15.459     36.804  35.578583     2.2111     1.9614    23.7456   997.3843      1.814      1.250 0.0000e+00
      1.288      0.070  -265.7537     5.3762     60.773 1.7421e+02     15.460     36.613  35.383305     2.2213     1.9039    23.5863   997.4232      1.829      1.261 0.0000e+00
      1.307      0.070  -263.2546     5.2940     60.931 1.7801e+02     15.463     36.429  35.161339     2.3293     1.9186    23.4436   997.4578      1.856      1.280 0.0000e+00
      1.327      0.073  -260.9479     5.2195     61.246 1.7986e+02     15.468     36.356  34.988775     2.5256     2.0702    23.3376   997.4834      1.890      1.303 0.0000e+00
      1.347      0.079  -258.6850     5.1806     61.518 1.7840e+02     15.474     36.395  34.883079     2.6311     2.1922    23.3186   997.4881      1.917      1.321 0.0000e+00
      1.366      0.084  -256.2851     5.1717     61.663 1.7675e+02     15.479     36.495  34.834980     2.6504     2.1913    23.3350   997.4841      1.941      1.338 0.0000e+00
      1.386      0.088  -253.9574     5.1904     61.668 1.7463e+02     15.483     36.571  34.787745     2.6634     2.1623    23.2877   997.4955      1.969      1.359 0.0000e+00
      1.409      0.092  -251.6205     5.2434     61.473 1.7179e+02     15.487     36.651  34.755971     2.7890     2.3225    23.1341   997.5323      2.001      1.381 0.0000e+00
      1.435      0.096  -249.1090     5.2887     61.032 1.6847e+02     15.492     36.806  34.767926     3.0533     2.6865    22.9168   997.5839      2.041      1.408 0.0000e+00
      1.461      0.098  -246.4785     5.3214     60.330 1.6489e+02     15.498     37.030  34.805194     3.2077     2.8900    22.7062   997.6336      2.078      1.432 0.0000e+00
      1.487      0.098  -243.3892     5.3420     59.342 1.6091e+02     15.506     37.253  34.825600     3.2256     2.8603    22.5451   997.6713      2.114      1.458 0.0000e+00
      1.512      0.094  -239.7196     5.3373     58.036 1.5665e+02     15.513     37.382  34.760574     3.2789     2.8074    22.4276   997.6987      2.154      1.485 0.0000e+00
      1.537      0.090  -235.9236     5.3188     56.532 1.5279e+02     15.520     37.449  34.653259     3.3757     2.8341    22.2491   997.7399      2.187      1.507 0.0000e+00
      1.560      0.089  -232.2515     5.2814     55.006 1.4984e+02     15.525     37.486  34.543093     3.4318     2.9085    21.9961   997.7978      2.222      1.531 0.0000e+00
      1.580      0.091  -228.3591     5.2272     53.471 1.4747e+02     15.530     37.451  34.380177     3.4522     2.9165    21.7337   997.8571      2.251      1.551 0.0000e+00
      1.597      0.092  -223.7076     5.1308     51.766 1.4419e+02     15.536     37.412  34.206162     3.5843     2.8967    21.4828   997.9131      2.268      1.563 0.0000e+00
      1.620      0.092  -218.5996     5.0137     49.838 1.3968e+02     15.542     37.447  34.088680     3.8185     2.9445    21.2481   997.9648      2.298      1.585 0.0000e+00
      1.650      0.087  -213.9202     4.8956     47.871 1.3484e+02     15.547     37.546  34.038192     3.9475     3.0478    21.0611   998.0059      2.346      1.618 0.0000e+00
      1.681      0.079  -210.0641     4.7810     46.036 1.3040e+02     15.551     37.657  34.039687     3.9795     3.1165    20.9016   998.0406      2.397      1.653 0.0000e+00
      1.704      0.071  -206.9072     4.6509     44.551 1.2667e+02     15.552     37.702  34.043177     4.0812     3.0875    20.7197   998.0797      2.430      1.674 0.0000e+00
      1.716      0.065  -203.8848     4.4836     43.574 1.2311e+02     15.551     37.590  33.953438     4.2428     3.0410    20.5080   998.1247      2.443      1.684 0.0000e+00
      1.721      0.061  -200.3650     4.3239     43.021 1.2091e+02     15.551     37.403  33.779552     4.3220     3.0003    20.3018   998.1682      2.448      1.688 0.0000e+00
      1.728      0.061  -196.7004     4.1609     42.832 1.2106e+02     15.553     37.329  33.653929     4.3323     2.9735    20.1637   998.1971      2.452      1.691 0.0000e+00
      1.745      0.064  -193.5622     4.0211     42.972 1.2116e+02     15.556     37.316  33.576583     4.3872     2.9918    20.1076   998.2088      2.475      1.707 0.0000e+00
      1.770      0.069  -190.9861     3.9370     43.305 1.2012e+02     15.557     37.250  33.478781     4.4708     2.9459    20.1690   998.1962      2.520      1.738 0.0000e+00
      1.794      0.074  -188.8701     3.8851     43.702 1.1908e+02     15.558     37.081  33.296233     4.5136     2.8658    20.1951   998.1907      2.556      1.762 0.0000e+00
      1.813      0.075  -186.9063     3.8761     43.977 1.1813e+02     15.561     36.853  33.019072     4.5325     2.8817    20.0672   998.2174      2.580      1.778 0.0000e+00
      1.829      0.072  -184.8794     3.9047     43.902 1.1681e+02     15.568     36.769  32.792431     4.5842     2.8629    19.9652   998.2385      2.602      1.794 0.0000e+00
      1.847      0.068  -183.0333     3.9397     43.400 1.1514e+02     15.576     36.822  32.649550     4.6529     2.7422    19.9278   998.2462      2.628      1.812 0.0000e+00
      1.864      0.067  -181.4496     3.9825     42.568 1.1350e+02     15.583     36.837  32.496771     4.6769     2.6581    19.9098   998.2500      2.654      1.830 0.0000e+00
      1.879      0.068  -179.8411     4.0237     41.556 1.1166e+02     15.588     36.814  32.340825     4.6646     2.6364    19.8449   998.2632      2.672      1.841 0.0000e+00
      1.896      0.070  -178.1251     4.0368     40.466 1.0886e+02     15.593     36.819  32.223128     4.6657     2.6507    19.6099   998.3110      2.692      1.856 0.0000e+00
      1.916      0.072  -176.3615     4.0118     39.371 1.0571e+02     15.598     36.788  32.088706     4.6522     2.5902    19.3079   998.3717      2.725      1.879 0.0000e+00
      1.936      0.074  -174.4345     3.9457     38.251 1.0321e+02     15.601     36.698  31.920880     4.6063     2.4544    19.0877   998.4154      2.756      1.900 0.0000e+00
      1.954      0.075  -172.5500     3.8638     37.054 1.0064e+02     15.604     36.634  31.779999     4.5683     2.3825    18.9190   998.4485      2.779      1.915 0.0000e+00
      1.973      0.075  -170.8708     3.7716     35.872 9.7635e+01     15.607     36.584  31.654130     4.5461     2.3383    18.7456   998.4821      2.807      1.935 0.0000e+00
      1.993      0.074  -169.0156     3.6809     34.768 9.5152e+01     15.610     36.527  31.540918     4.5852     2.2288    18.5970   998.5108      2.838      1.957 0.0000e+00
      2.011      0.073  -167.0687     3.5911     33.813 9.2882e+01     15.611     36.515  31.489640     4.6786     2.0548    18.4876   998.5317      2.860      1.972 0.0000e+00
      2.029      0.074  -165.6579     3.4781     33.108 9.0062e+01     15.612     36.540  31.478197     4.7226     1.9511    18.3734   998.5534      2.883      1.988 0.0000e+00
      2.049      0.075  -164.8635     3.3758     32.577 8.7510e+01     15.613     36.493  31.402517     4.7156     1.9362    18.2474   998.5771      2.915      2.011 0.0000e+00
      2.067      0.078  -164.1740     3.2777     32.148 8.5376e+01     15.617     36.404  31.272448     4.6226     1.9441    18.1547   998.5945      2.940      2.027 0.0000e+00
      2.085      0.082  -162.8286     3.1812     31.824 8.2908e+01     15.621     36.470  31.237801     4.4481     1.9777    18.1155   998.6019      2.961      2.041 0.0000e+00
      2.108      0.082  -160.3842     3.1246     31.557 8.0141e+01     15.624     36.672  31.300715     4.3508     1.9647    18.0696   998.6105      2.996      2.065 0.0000e+00
      2.133      0.080  -157.5055     3.0805     31.355 7.7484e+01     15.627     36.831  31.335107     4.3235     1.8891    18.0247   998.6190      3.033      2.091 0.0000e+00
      2.156      0.077  -155.2960     3.0386     31.205 7.5212e+01     15.631     36.864  31.272842     4.1284     1.8196    17.9749   998.6283      3.068      2.115 0.0000e+00
      2.176      0.074  -153.9751     3.0234     31.078 7.3542e+01     15.635     36.776  31.118745     3.7745     1.7758    17.8331   998.6544      3.099      2.137 0.0000e+00
      2.190      0.073  -153.3214     3.0049     30.995 7.2224e+01     15.638     36.712  30.994482     3.5920     1.7369    17.6612   998.6858      3.116      2.147 0.0000e+00
      2.203      0.073  -153.2431     2.9941     30.893 7.0713e+01     15.640     36.768  30.975737     3.5907     1.6926    17.5327   998.7091      3.131      2.158 0.0000e+00
      2.219      0.078  -153.2000     2.9917     30.714 6.9047e+01     15.641     36.889  31.018902     3.5781     1.6532    17.4078   998.7315      3.157      2.176 0.0000e+00
      2.239      0.084  -152.1979     2.9803     30.456 6.7230e+01     15.642     37.085  31.135654     3.4865     1.6379    17.2977   998.7511      3.183      2.194 0.0000e+00
      2.263      0.090  -150.0759     2.9842     30.154 6.5151e+01     15.645     37.346  31.308770     3.3420     1.6796    17.2125   998.7662      3.216      2.218 0.0000e+00
      2.292      0.093  -148.0202     2.9809     29.869 6.3110e+01     15.648     37.593  31.462432     3.2607     1.7108    17.1154   998.7834      3.260      2.247 0.0000e+00
      2.321      0.094  -146.7013     2.9690     29.616 6.1424e+01     15.650     37.899  31.661176     3.2381     1.6375    17.0319   998.7981      3.304      2.278 0.0000e+00
      2.345      0.093  -146.0031     2.9469     29.340 6.0151e+01     15.652     38.299  31.935218     3.1450     1.5825    16.9753   998.8082      3.339      2.302 0.0000e+00
      2.364      0.092  -145.8587     2.9177     28.985 5.9015e+01     15.655     38.584  32.111052     2.9944     1.6301    16.9174   998.8184      3.361      2.318 0.0000e+00
      2.384      0.091  -145.6436     2.8944     28.622 5.7780e+01     15.657     38.697  32.137487     2.9236     1.6636    16.8451   998.8310      3.388      2.336 0.0000e+00
      2.406      0.091  -144.6066     2.8758     28.350 5.6487e+01     15.660     38.774  32.127876     2.9090     1.6442    16.7678   998.8444      3.422      2.359 0.0000e+00
      2.431      0.094  -142.8716     2.8586     28.163 5.5205e+01     15.663     38.860  32.121643     2.7983     1.6017    16.6907   998.8578      3.458      2.384 0.0000e+00
      2.457      0.099  -140.3246     2.8241     27.964 5.4017e+01     15.667     39.114  32.252372     2.6054     1.5265    16.6095   998.8718      3.496      2.411 0.0000e+00
      2.482      0.101  -137.0425     2.7897     27.735 5.2959e+01     15.670     39.583  32.566342     2.5034     1.4566    16.5254   998.8862      3.532      2.435 0.0000e+00
      2.507      0.098  -134.5061     2.7685     27.588 5.1810e+01     15.672     39.956  32.808789     2.5094     1.4440    16.4278   998.9026      3.563      2.457 0.0000e+00
      2.535      0.093  -133.3175     2.7615     27.581 5.0582e+01     15.673     40.142  32.899557     2.5064     1.5111    16.3267   998.9196      3.606      2.485 0.0000e+00
      2.563      0.086  -132.9959     2.7503     27.632 4.9638e+01     15.675     40.212  32.902343     2.4664     1.6151    16.2215   998.9372      3.652      2.517 0.0000e+00
      2.584      0.077  -133.1119     2.7253     27.561 4.8947e+01     15.678     40.195  32.842422     2.4450     1.6719    16.1285   998.9529      3.678      2.536 0.0000e+00
      2.600      0.069  -132.9999     2.7145     27.314 4.8275e+01     15.680     40.209  32.809491     2.4481     1.7164    16.0541   998.9652      3.697      2.549 0.0000e+00
      2.615      0.063  -132.5879     2.7194     26.966 4.7660e+01     15.682     40.356  32.884814     2.3997     1.7418    15.9700   998.9789      3.721      2.565 0.0000e+00
      2.628      0.062  -132.4323     2.7391     26.538 4.7145e+01     15.682     40.614  33.055148     2.2985     1.7035    15.9020   998.9900      3.739      2.577 0.0000e+00
      2.640      0.066  -132.7534     2.7366     26.062 4.6578e+01     15.683     40.859  33.219239     2.2350     1.7000    15.8522   998.9981      3.753      2.588 0.0000e+00
      2.655      0.075  -133.5455     2.7086     25.548 4.5863e+01     15.685     41.137  33.409424     2.2238     1.7690    15.7957   999.0072      3.775      2.602 0.0000e+00
      2.675      0.084  -133.9215     2.6806     24.969 4.5027e+01     15.686     41.474  33.641444     2.2196     1.7821    15.7364   999.0168      3.803      2.621 0.0000e+00
      2.698      0.091  -133.0840     2.6376     24.414 4.4064e+01     15.688     41.666  33.740268     2.2039     1.8239    15.6883   999.0247      3.835      2.644 0.0000e+00
      2.727      0.095  -132.0225     2.5917     24.011 4.2981e+01     15.690     41.738  33.715907     2.1767     1.9990    15.6491   999.0310      3.877      2.673 0.0000e+00
      2.758      0.096  -131.7561     2.5466     23.752 4.1981e+01     15.692     41.792  33.664048     2.1578     2.1147    15.6055   999.0382      3.926      2.707 0.0000e+00
      2.784      0.095  -132.4446     2.4878     23.550 4.1261e+01     15.695     41.763  33.557300     2.1655     2.1587    15.5600   999.0456      3.965      2.733 0.0000e+00
      2.803      0.093  -133.3778     2.4271     23.233 4.0613e+01     15.698     41.705  33.440350     2.2226     2.2221    15.4988   999.0554      3.987      2.748 0.0000e+00
      2.822      0.088  -133.5745     2.3967     22.685 3.9794e+01     15.702     41.731  33.392068     2.3139     2.2972    15.3941   999.0718      4.012      2.766 0.0000e+00
      2.845      0.084  -133.5330     2.3774     21.960 3.8870e+01     15.705     41.852  33.417597     2.3636     2.3801    15.2630   999.0922      4.045      2.789 0.0000e+00
      2.870      0.083  -133.9078     2.3702     21.157 3.8032e+01     15.707     42.024  33.495128     2.3848     2.4347    15.1663   999.1071      4.083      2.815 0.0000e+00
      2.892      0.088  -134.4069     2.3496     20.415 3.7369e+01     15.708     42.239  33.631458     2.6180     2.5806    15.0885   999.1190      4.116      2.838 0.0000e+00
      2.909      0.093  -134.7498     2.2910     19.769 3.6719e+01     15.709     42.499  33.796871     3.0472     2.8049    15.0080   999.1312      4.137      2.852 0.0000e+00
      2.928      0.098  -134.2679     2.2236     19.212 3.5882e+01     15.712     42.740  33.908774     3.2827     2.8461    14.9176   999.1449      4.161      2.869 0.0000e+00
      2.954      0.099  -132.8828     2.1360     18.772 3.4818e+01     15.716     42.959  33.969128     3.3957     2.8046    14.8312   999.1580      4.198      2.893 0.0000e+00
      2.987      0.098  -131.6824     2.0634     18.438 3.3648e+01     15.720     43.178  34.018848     4.5477     3.0574    14.8096   999.1614      4.249      2.929 0.0000e+00
      3.020      0.096  -131.2826     2.0010     18.250 3.2622e+01     15.724     43.379  34.065609     6.6730     3.5340    14.7820   999.1659      4.300      2.966 0.0000e+00
      3.045      0.093  -131.4909     1.9442     18.165 3.1917e+01     15.728     43.604  34.153664     7.8245     3.7946    14.6796   999.1812      4.336      2.989 0.0000e+00
      3.061      0.089  -131.9634     1.9106     18.088 3.1367e+01     15.730     43.826  34.258511     7.8654     3.8060    14.5371   999.2020      4.354      3.002 0.0000e+00
      3.076      0.085  -132.3501     1.8770     18.023 3.0548e+01     15.731     43.985  34.317963     7.3206     3.9461    14.3862   999.2239      4.370      3.013 0.0000e+00
      3.097      0.084  -132.2941     1.8654     17.940 2.9429e+01     15.734     44.134  34.364775     6.3298     4.2867    14.2499   999.2436      4.402      3.035 0.0000e+00
      3.122      0.085  -131.7166     1.8682     17.806 2.8358e+01     15.737     44.419  34.507160     5.7943     4.4903    14.1504   999.2579      4.442      3.064 0.0000e+00
      3.147      0.087  -130.9600     1.8587     17.667 2.7394e+01     15.741     45.374  35.151076     5.7379     4.4857    14.0819   999.2676      4.476      3.087 0.0000e+00
      3.171      0.088  -130.3736     1.8568     17.557 2.6472e+01     15.744     47.258  36.502458     5.7339     4.4024    14.0088   999.2780      4.510      3.110 0.0000e+00
      3.192      0.088  -129.6171     1.8557     17.499 2.5669e+01     15.746     49.431  38.091045     5.9370     4.3069    13.9322   999.2888      4.542      3.132 0.0000e+00
      3.211      0.087  -128.0077     1.8392     17.405 2.4863e+01     15.747     51.597  39.698393     6.3151     4.2593    13.8474   999.3005      4.567      3.149 0.0000e+00
      3.231      0.087  -124.9394     1.8315     17.238 2.3899e+01     15.750     53.819  41.338775     6.5284     4.2383    13.7405   999.3153      4.594      3.168 0.0000e+00
      3.255      0.086  -120.0509     1.8206     17.130 2.2891e+01     15.754     55.710  42.690916     6.7328     4.2245    13.6116   999.3336      4.630      3.192 0.0000e+00
      3.280      0.086  -113.3840     1.8232     17.081 2.1956e+01     15.758     57.052  43.605209     8.8917     4.2645    13.5100   999.3480      4.666      3.217 0.0000e+00
      3.303      0.087  -104.9018     1.8225     17.063 2.1155e+01     15.761     57.964  44.204116    12.8616     4.3781    13.4724   999.3538      4.701      3.241 0.0000e+00
      3.323      0.087   -94.3256     1.7918     17.078 2.0419e+01     15.763     58.507  44.535954    15.0303     4.4656    13.4190   999.3618      4.729      3.260 0.0000e+00
      3.343      0.089   -80.9264     1.7910     17.068 1.9604e+01     15.766     58.821  44.696995    15.2278     4.5325    13.3181   999.3758      4.753      3.277 0.0000e+00
      3.364      0.092   -63.7785     1.7913     17.061 1.8757e+01     15.769     59.163  44.881428    15.1448     5.0839    13.2051   999.3911      4.785      3.299 0.0000e+00
      3.387      0.096   -41.6038     1.7886     17.081 1.7859e+01     15.773     59.663  45.178634    14.9529     6.1204    13.1207   999.4022      4.816      3.321 0.0000e+00
      3.413      0.099   -11.4783     1.8008     17.098 1.6824e+01     15.778     60.299  45.560388    14.8628     6.7296    13.0604   999.4102      4.852      3.345 0.0000e+00
      3.442      0.100    26.1725     1.7973     17.098 1.5801e+01     15.783     60.944  45.941653    14.8648     6.8538    12.9867   999.4198      4.896      3.376 0.0000e+00
      3.471      0.098    63.0182     1.7985     17.110 1.4951e+01     15.788     61.549  46.296378    14.8443     7.0386    12.9300   999.4272      4.939      3.406 0.0000e+00
      3.498      0.094    92.0999     1.8054     17.154 1.4281e+01     15.789     62.085  46.611128    14.8049     7.2471    12.8671   999.4354      4.977      3.432 0.0000e+00
      3.520      0.090   115.4633     1.8112     17.176 1.3747e+01     15.790     62.477  46.826502    14.7607     7.2802    12.7768   999.4469      5.008      3.453 0.0000e+00
      3.539      0.088   135.9982     1.8140     17.161 1.3259e+01     15.791     62.812  46.995560    14.6340     7.2676    12.6889   999.4581      5.033      3.470 0.0000e+00
      3.558      0.088   151.5292     1.8154     17.152 1.2759e+01     15.791     63.194  47.194723    13.3504     7.1629    12.6012   999.4691      5.062      3.489 0.0000e+00
      3.578      0.090   164.8958     1.8284     17.176 1.2165e+01     15.791     63.586  47.393113    10.9708     6.8388    12.5317   999.4778      5.086      3.507 0.0000e+00
      3.602      0.094   188.0848     1.8329     17.242 1.1420e+01     15.793     63.929  47.552799     9.6473     6.6098    12.4747   999.4849      5.120      3.531 0.0000e+00
      3.630      0.098   218.8733     1.8310     17.279 1.0678e+01     15.797     64.189  47.664949     9.4409     6.5581    12.4073   999.4932      5.164      3.560 0.0000e+00
      3.658      0.100   237.9111     1.8338     17.226 9.9738e+00     15.799     64.379  47.733069     8.5895     6.2472    12.3409   999.5014      5.202      3.587 0.0000e+00
      3.683      0.101   241.3728     1.8362     17.136 9.2786e+00     15.799     64.495  47.741388     7.0495     5.6322    12.2676   999.5104      5.240      3.613 0.0000e+00
      3.708      0.099   239.6493     1.8511     17.069 8.6597e+00     15.797     64.467  47.638458     6.2133     5.2674    12.1819   999.5206      5.275      3.636 0.0000e+00
      3.732      0.096   237.4635     1.8624     17.039 8.0892e+00     15.797     64.314  47.440912     6.1288     5.2009    12.1224   999.5277      5.306      3.659 0.0000e+00
      3.757      0.093   235.1639     1.8532     17.003 7.5720e+00     15.798     64.179  47.257669     6.0562     5.1380    12.0738   999.5334      5.342      3.683 0.0000e+00
      3.782      0.092   232.8385     1.8456     16.973 7.1820e+00     15.799     64.111  47.137188     5.5349     4.8842    12.0085   999.5411      5.382      3.711 0.0000e+00
      3.806      0.094   230.9435     1.8387     16.983 6.9076e+00     15.799     64.002  47.000045     4.6039     4.4671    11.9453   999.5484      5.415      3.735 0.0000e+00
      3.826      0.099   229.2010     1.8421     16.988 6.6554e+00     15.800     63.826  46.805822     4.0984     4.2494    11.8809   999.5557      5.441      3.751 0.0000e+00
      3.846      0.102   227.0853     1.8413     17.004 6.3803e+00     15.802     63.603  46.566626     4.0379     4.2080    11.8086   999.5638      5.467      3.769 0.0000e+00
      3.872      0.105   224.8938     1.8340     17.001 6.0598e+00     15.804     63.298  46.266649     3.8068     4.1380    11.7533   999.5700      5.503      3.795 0.0000e+00
      3.906      0.108   222.7508     1.8454     16.940 5.7407e+00     15.805     62.908  45.908938     3.3730     4.0558    11.7189   999.5740      5.557      3.831 0.0000e+00
      3.940      0.111   220.4472     1.8421     16.891 5.5306e+00     15.807     62.416  45.479585     3.1225     4.0042    11.6680   999.5797      5.610      3.868 0.0000e+00
      3.967      0.111   218.0349     1.8485     16.851 5.3764e+00     15.809     61.963  45.075216     3.0950     3.9609    11.6040   999.5867      5.643      3.891 0.0000e+00
      3.991      0.109   215.6099     1.8570     16.791 5.1887e+00     15.811     61.724  44.829042     3.0696     3.6688    11.5431   999.5933      5.672      3.911 0.0000e+00
      4.019      0.105   213.1522     1.8432     16.695 5.0000e+00     15.813     61.482  44.598172     2.9968     3.1504    11.4845   999.5997      5.716      3.941 0.0000e+00
      4.047      0.104   210.8613     1.8445     16.540 4.8277e+00     15.813     61.069  44.251841     2.9390     2.8428    11.4317   999.6052      5.758      3.970 0.0000e+00
      4.072      0.106   208.9046     1.8433     16.423 4.6503e+00     15.814     60.637  43.879356     2.9247     2.7997    11.3713   999.6116      5.792      3.993 0.0000e+00
      4.098      0.107   207.2181     1.8380     16.431 4.4842e+00     15.816     60.242  43.522649     2.7851     2.7320    11.3038   999.6188      5.828      4.018 0.0000e+00
      4.124      0.107   205.6987     1.8347     16.492 4.3418e+00     15.819     59.862  43.176564     2.4905     2.5400    11.2626   999.6232      5.866      4.045 0.0000e+00
      4.153      0.107   204.2135     1.8121     16.506 4.1994e+00     15.820     59.532  42.868959     2.3103     2.4003    11.2342   999.6261      5.905      4.071 0.0000e+00
      4.183      0.107   202.6833     1.7956     16.475 4.0544e+00     15.821     59.331  42.660064     2.2755     2.3469    11.1833   999.6315      5.951      4.103 0.0000e+00
      4.211      0.106   201.1363     1.8045     16.411 3.9378e+00     15.822     59.257  42.555224     2.1744     2.2377    11.1193   999.6381      5.993      4.132 0.0000e+00
      4.236      0.105   199.7040     1.8190     16.294 3.8373e+00     15.823     59.139  42.426539     2.0029     2.0755    11.0600   999.6440      6.023      4.153 0.0000e+00
      4.261      0.104   198.4433     1.8218     16.162 3.7318e+00     15.825     58.944  42.246753     1.9094     1.9653    11.0010   999.6500      6.058      4.177 0.0000e+00
      4.288      0.103   197.3372     1.8184     16.040 3.6351e+00     15.826     58.786  42.095369     1.8930     1.9353    10.9434   999.6559      6.099      4.206 0.0000e+00
      4.315      0.103   196.0525     1.8177     15.960 3.5405e+00     15.827     58.604  41.929219     1.8903     1.9194    10.9021   999.6602      6.138      4.233 0.0000e+00
      4.341      0.103   194.5259     1.8015     15.944 3.4473e+00     15.829     58.331  41.697830     1.8677     1.8764    10.8670   999.6637      6.174      4.257 0.0000e+00
      4.367      0.103   193.3336     1.7883     15.883 3.3729e+00     15.829     58.133  41.519366     1.8197     1.7926    10.8334   999.6671      6.212      4.284 0.0000e+00
      4.394      0.102   192.4774     1.7769     15.751 3.3062e+00     15.829     58.036  41.421817     1.7873     1.6951    10.8003   999.6704      6.251      4.310 0.0000e+00
      4.419      0.101   191.7446     1.7626     15.637 3.2259e+00     15.829     57.866  41.280086     1.7620     1.6594    10.7710   999.6734      6.285      4.333 0.0000e+00
      4.446      0.099   190.9270     1.7725     15.563 3.1389e+00     15.830     57.704  41.138699     1.7137     1.6700    10.7421   999.6762      6.322      4.360 0.0000e+00
      4.472      0.096   189.9052     1.7683     15.545 3.0611e+00     15.831     57.793  41.172259     1.6603     1.6855    10.7031   999.6801      6.362      4.387 0.0000e+00
      4.496      0.094   189.1118     1.7460     15.525 2.9933e+00     15.832     58.196  41.431918     1.6418     1.7095    10.6805   999.6825      6.396      4.410 0.0000e+00
      4.519      0.094   188.5615     1.7375     15.430 2.9311e+00     15.832     58.574  41.675609     1.6324     1.6860    10.6697   999.6835      6.428      4.432 0.0000e+00
      4.540      0.096   187.9843     1.7264     15.330 2.8652e+00     15.832     58.653  41.706525     1.5463     1.5383    10.6453   999.6859      6.458      4.454 0.0000e+00
      4.562      0.100   187.3811     1.7281     15.242 2.7917e+00     15.833     58.558  41.615267     1.3930     1.2980    10.6166   999.6887      6.488      4.473 0.0000e+00
      4.587      0.104   186.8611     1.7347     15.137 2.7247e+00     15.834     58.369  41.460887     1.3040     1.1490    10.5928   999.6913      6.520      4.495 0.0000e+00
      4.617      0.107   186.3435     1.7160     15.056 2.6550e+00     15.835     58.173  41.299892     1.2909     1.1781    10.5742   999.6935      6.565      4.527 0.0000e+00
      4.650      0.109   185.6828     1.7069     14.989 2.5776e+00     15.835     58.056  41.192132     1.1586     1.2384    10.5503   999.6959      6.616      4.562 0.0000e+00
      4.680      0.111   185.0663     1.7017     14.896 2.5188e+00     15.835     58.156  41.237043     0.8968     1.2252    10.5294   999.6979      6.659      4.591 0.0000e+00
      4.705      0.111   184.5685     1.6858     14.832 2.4716e+00     15.835     59.042  41.842873     0.7575     1.2255    10.5147   999.6993      6.693      4.615 0.0000e+00
      4.729      0.110   184.3102     1.6776     14.783 2.4210e+00     15.835     60.786  43.057914     0.7515     1.2420    10.4959   999.7012      6.723      4.635 0.0000e+00
      4.757      0.109   184.2657     1.6772     14.707 2.3730e+00     15.836     62.317  44.120468     0.7483     1.2183    10.4744   999.7034      6.763      4.663 0.0000e+00
      4.789      0.108   183.9446     1.6603     14.652 2.3279e+00     15.837     63.014  44.596261     0.7473     1.1794    10.4490   999.7058      6.813      4.697 0.0000e+00
      4.819      0.108   183.3534     1.6551     14.598 2.2866e+00     15.838     63.334  44.811057     0.7586     1.1831    10.4313   999.7079      6.856      4.727 0.0000e+00
      4.845      0.106   183.0548     1.6571     14.514 2.2546e+00     15.837     63.447  44.876377     0.7616     1.2291    10.4169   999.7102      6.892      4.751 0.0000e+00
      4.870      0.103   183.0876     1.6401     14.388 2.2193e+00     15.837     63.208  44.687648     0.7541     1.2551    10.3966   999.7128      6.925      4.774 0.0000e+00
      4.895      0.099   182.8896     1.6399     14.207 2.1740e+00     15.837     62.965  44.497253     0.7537     1.2566    10.3815   999.7144      6.962      4.800 0.0000e+00
      4.920      0.098   182.4675     1.6347     14.058 2.1403e+00     15.837     62.779  44.351980     0.7468     1.2132    10.3757   999.7152      6.999      4.826 0.0000e+00
      4.945      0.100   182.1133     1.6239     13.973 2.1192e+00     15.838     62.394  44.073910     0.7379     1.1765    10.3647   999.7164      7.035      4.851 0.0000e+00
      4.968      0.104   181.7911     1.6162     13.913 2.0908e+00     15.839     61.926  43.738059     0.7318     1.1561    10.3465   999.7180      7.068      4.873 0.0000e+00
      4.992      0.106   181.4967     1.5877     13.869 2.0512e+00     15.840     61.474  43.402017     0.6636     1.0692    10.3313   999.7194      7.098      4.893 0.0000e+00
      5.021      0.104   181.2210     1.5709     13.815 2.0082e+00     15.840     61.204  43.185046     0.5436     0.9505    10.3180   999.7209      7.137      4.921 0.0000e+00
      5.054      0.100   180.9529     1.5668     13.752 1.9660e+00     15.840     61.188  43.146131     0.4823     0.8883    10.3154   999.7211      7.190      4.958 0.0000e+00
      5.086      0.097   180.5775     1.5554     13.637 1.9271e+00     15.840     61.184  43.121917     0.4850     0.9348    10.3175   999.7209      7.239      4.992 0.0000e+00
      5.108      0.097   179.9519     1.5572     13.476 1.9073e+00     15.839     61.237  43.146190     0.4997     1.0663    10.3022   999.7222      7.272      5.014 0.0000e+00
      5.122      0.096   179.2398     1.5475     13.386 1.9011e+00     15.839     61.390  43.249152     0.5076     1.2085    10.2758   999.7245      7.283      5.022 0.0000e+00
      5.138      0.096   178.6786     1.5451     13.385 1.8751e+00     15.839     61.449  43.287593     0.4951     1.2463    10.2535   999.7267      7.300      5.033 0.0000e+00
      5.167      0.098   178.3282     1.5357     13.375 1.8352e+00     15.840     61.459  43.293565     0.4720     1.1800    10.2343   999.7285      7.345      5.064 0.0000e+00
      5.201      0.102   178.0155     1.5070     13.281 1.8038e+00     15.840     61.497  43.321354     0.4573     1.0929    10.2235   999.7297      7.403      5.104 0.0000e+00
      5.231      0.107   177.3060     1.4992     13.151 1.7739e+00     15.840     61.388  43.242688     0.4513     1.0176    10.2228   999.7301      7.444      5.132 0.0000e+00
      5.254      0.109   176.2893     1.5022     13.012 1.7429e+00     15.839     61.035  42.977252     0.4468     0.9909    10.2195   999.7304      7.471      5.150 0.0000e+00
      5.279      0.109   175.5307     1.5083     12.862 1.7146e+00     15.839     60.708  42.714753     0.4313     0.9764    10.2174   999.7307      7.507      5.175 0.0000e+00
      5.307      0.110   175.1897     1.4911     12.758 1.6910e+00     15.840     60.516  42.544615     0.3988     0.9439    10.2202   999.7307      7.551      5.207 0.0000e+00
      5.335      0.112   174.9196     1.4758     12.703 1.6699e+00     15.841     60.411  42.443636     0.3678     0.9415    10.2234   999.7305      7.588      5.232 0.0000e+00
      5.365      0.116   174.1573     1.4638     12.633 1.6444e+00     15.842     60.804  42.699936     0.3610     0.9825    10.2104   999.7316      7.629      5.259 0.0000e+00
      5.396      0.117   173.1145     1.4422     12.535 1.6224e+00     15.842     61.673  43.294654     0.3647     1.0281    10.1780   999.7346      7.677      5.293 0.0000e+00
      5.428      0.116   172.3779     1.4323     12.427 1.5996e+00     15.842     62.401  43.793902     0.3360     1.0114    10.1460   999.7377      7.721      5.323 0.0000e+00
      5.458      0.115   171.9615     1.4308     12.341 1.5750e+00     15.842     62.761  44.038483     0.2906     0.9517    10.1241   999.7396      7.763      5.352 0.0000e+00
      5.486      0.113   171.6940     1.4239     12.331 1.5550e+00     15.843     62.936  44.156848     0.2840     0.9588    10.1089   999.7412      7.804      5.381 0.0000e+00
      5.513      0.111   171.2089     1.4109     12.313 1.5308e+00     15.843     63.377  44.463210     0.3029     0.9943    10.0962   999.7429      7.840      5.406 0.0000e+00
      5.541      0.111   170.3969     1.4008     12.213 1.4952e+00     15.843     64.343  45.139684     0.2995     0.9690    10.0881   999.7440      7.882      5.433 0.0000e+00
      5.570      0.111   169.7068     1.3842     12.138 1.4645e+00     15.842     65.456  45.923673     0.2615     0.9282    10.0812   999.7449      7.923      5.463 0.0000e+00
      5.597      0.113   169.3174     1.3884     12.078 1.4529e+00     15.841     66.291  46.513989     0.2160     0.9129    10.0773   999.7454      7.959      5.489 0.0000e+00
      5.626      0.117   168.9581     1.3958     11.986 1.4413e+00     15.841     66.813  46.880295     0.2067     0.9212    10.0771   999.7456      8.001      5.517 0.0000e+00
      5.655      0.121   168.5466     1.3709     11.911 1.4104e+00     15.841     67.152  47.114457     0.2257     0.9598    10.0732   999.7465      8.045      5.547 0.0000e+00
      5.685      0.124   168.2135     1.3659     11.802 1.3690e+00     15.841     67.349  47.249879     0.2168     0.9676    10.0762   999.7468      8.084      5.573 0.0000e+00
      5.719      0.126   167.8556     1.3661     11.692 1.3470e+00     15.841     67.350  47.247756     0.1768     0.9476    10.0834   999.7466      8.131      5.605 0.0000e+00
      5.755      0.128   167.3170     1.3442     11.651 1.3337e+00     15.841     67.222  47.152274     0.1518     0.9234    10.0822   999.7471      8.185      5.644 0.0000e+00
      5.789      0.129   166.6905     1.3464     11.612 1.2961e+00     15.841     67.083  47.047843     0.1520     0.9159    10.0781   999.7477      8.236      5.679 0.0000e+00
      5.820      0.129   166.2180     1.3306     11.532 1.2577e+00     15.841     66.938  46.937515     0.1602     0.9936    10.0753   999.7481      8.278      5.707 0.0000e+00
      5.851      0.124   165.9060     1.3106     11.418 1.2421e+00     15.841     66.894  46.897712     0.1648     1.0384    10.0745   999.7483      8.321      5.737 0.0000e+00
      5.884      0.116   165.5000     1.3152     11.278 1.2262e+00     15.841     66.976  46.947551     0.1605     0.9766    10.0703   999.7488      8.370      5.771 0.0000e+00
      5.917      0.108   164.9230     1.3096     11.184 1.2040e+00     15.842     67.016  46.968653     0.1458     0.8988    10.0639   999.7494      8.419      5.804 0.0000e+00
      5.945      0.103   164.3490     1.3014     11.205 1.1828e+00     15.842     66.835  46.835371     0.1302     0.8880    10.0591   999.7500      8.460      5.833 0.0000e+00
      5.967      0.103   163.8082     1.2878     11.174 1.1610e+00     15.842     66.421  46.542432     0.1349     0.9489    10.0513   999.7508      8.489      5.853 0.0000e+00
      5.984      0.105   163.1166     1.2726     11.021 1.1474e+00     15.842     65.969  46.220494     0.1550     0.9836    10.0448   999.7514      8.509      5.867 0.0000e+00
      6.005      0.109   162.2679     1.2504     10.913 1.1417e+00     15.842     65.656  45.990526     0.1635     0.9643    10.0411   999.7520      8.534      5.885 0.0000e+00
      6.037      0.112   161.3763     1.2672     10.892 1.1113e+00     15.841     65.572  45.920629     0.1413     0.9552    10.0345   999.7527      8.581      5.916 0.0000e+00
      6.077      0.117   160.5103     1.2710     10.912 1.0598e+00     15.841     65.439  45.819818     0.1066     0.9763    10.0333   999.7527      8.646      5.961 0.0000e+00
      6.113      0.119   159.7979     1.2350     10.880 1.0335e+00     15.841     65.041  45.533511     0.0963     0.9799    10.0327   999.7528      8.700      5.998 0.0000e+00
      6.140      0.118   159.2168     1.2300     10.773 1.0295e+00     15.841     64.471  45.125530     0.1032     0.9637    10.0214   999.7537      8.733      6.021 0.0000e+00
      6.164      0.112   158.5597     1.2248     10.663 1.0254e+00     15.841     63.783  44.632836     0.1039     0.9526    10.0120   999.7547      8.764      6.042 0.0000e+00
      6.192      0.105   157.7039     1.2346     10.585 1.0143e+00     15.842     63.196  44.211036     0.1135     0.9483    10.0074   999.7553      8.806      6.072 0.0000e+00
      6.221      0.102   156.7851     1.2330     10.553 9.8996e-01     15.842     62.944  44.025275     0.1341     0.9455    10.0020   999.7556      8.850      6.102 0.0000e+00
      6.248      0.103   156.0541     1.2133     10.515 9.6784e-01     15.842     62.883  43.973973     0.1434     0.9535     9.9953   999.7562      8.888      6.128 0.0000e+00
      6.270      0.107   155.4909     1.2049     10.479 9.6191e-01     15.841     62.891  43.971648     0.1493     0.9758     9.9861   999.7569      8.919      6.150 0.0000e+00
      6.292      0.110   154.9657     1.1902     10.462 9.5775e-01     15.841     63.117  44.124127     0.1391     0.9407     9.9762   999.7576      8.945      6.167 0.0000e+00
      6.320      0.111   154.5224     1.1945     10.418 9.4076e-01     15.841     63.271  44.230408     0.1050     0.9068     9.9685   999.7583      8.983      6.195 0.0000e+00
      6.355      0.111   154.0019     1.1879     10.323 9.0754e-01     15.841     63.016  44.050438     0.0800     0.9443     9.9626   999.7590      9.040      6.234 0.0000e+00
      6.389      0.111   153.2338     1.1809     10.170 8.7536e-01     15.841     62.742  43.852709     0.0765     0.9820     9.9554   999.7598      9.092      6.269 0.0000e+00
      6.417      0.109   152.5480     1.1855     10.035 8.5723e-01     15.841     62.690  43.807752     0.0811     0.9847     9.9498   999.7605      9.130      6.295 0.0000e+00
      6.441      0.104   152.0769     1.1771      9.992 8.5124e-01     15.841     62.725  43.824281     0.0778     0.9432     9.9506   999.7608      9.162      6.317 0.0000e+00
      6.464      0.096   151.5809     1.1712     10.047 8.4779e-01     15.841     62.786  43.862090     0.0755     0.9258     9.9515   999.7606      9.194      6.339 0.0000e+00
      6.489      0.091   151.0252     1.1478     10.147 8.3085e-01     15.842     62.819  43.883978     0.0816     0.9806     9.9455   999.7610      9.230      6.363 0.0000e+00
      6.514      0.091   150.4352     1.1296     10.148 8.1414e-01     15.842     62.842  43.898478     0.1042     1.0220     9.9376   999.7619      9.267      6.390 0.0000e+00
      6.535      0.097   149.7812     1.1264      9.992 8.0736e-01     15.841     62.866  43.910434     0.1297     0.9801     9.9306   999.7626      9.297      6.410 0.0000e+00
      6.553      0.105   149.2261     1.1319      9.842 8.0313e-01     15.840     62.860  43.901564     0.1327     0.9203     9.9262   999.7631      9.316      6.424 0.0000e+00
      6.576      0.112   148.8860     1.1517      9.792 7.8788e-01     15.840     62.884  43.918194     0.1402     0.9518     9.9271   999.7631      9.346      6.444 0.0000e+00
      6.610      0.117   148.5089     1.1578      9.782 7.5944e-01     15.841     62.978  43.984526     0.1446     1.0172     9.9264   999.7633      9.399      6.480 0.0000e+00
      6.650      0.123   148.0229     1.1280      9.758 7.3582e-01     15.841     63.105  44.068727     0.1191     1.0582     9.9208   999.7641      9.460      6.523 0.0000e+00
      6.685      0.128   147.5699     1.1061      9.711 7.2404e-01     15.841     63.270  44.174425     0.0883     1.0698     9.9160   999.7646      9.512      6.558 0.0000e+00
      6.715      0.130   147.1605     1.1077      9.679 7.2004e-01     15.841     63.481  44.310215     0.0779     1.0206     9.9167   999.7647      9.551      6.586 0.0000e+00
      6.742      0.129   146.8586     1.1052      9.622 7.0634e-01     15.841     63.676  44.440802     0.1077     0.9787     9.9198   999.7646      9.585      6.610 0.0000e+00
      6.774      0.126   146.5869     1.1069      9.522 6.8187e-01     15.840     63.825  44.547076     0.1526     0.9747     9.9166   999.7650      9.630      6.640 0.0000e+00
      6.812      0.124   146.1989     1.0953      9.467 6.5833e-01     15.839     63.962  44.642854     0.1631     0.9727     9.9081   999.7661      9.692      6.681 0.0000e+00
      6.848      0.124   145.7807     1.0963      9.489 6.4126e-01     15.839     64.157  44.773510     0.1495     0.9538     9.8960   999.7674      9.746      6.720 0.0000e+00
      6.876      0.123   145.4881     1.0929      9.528 6.3474e-01     15.840     64.468  44.984045     0.1312     0.9188     9.8903   999.7680      9.782      6.745 0.0000e+00
      6.901      0.120   145.2423     1.0736      9.506 6.3569e-01     15.841     64.719  45.156762     0.1141     0.9260     9.8968   999.7676      9.813      6.766 0.0000e+00
      6.931      0.116   144.9602     1.0679      9.428 6.3122e-01     15.841     64.798  45.211092     0.1132     0.9730     9.8985   999.7677      9.855      6.796 0.0000e+00
      6.965      0.116   144.6581     1.0718      9.350 6.1066e-01     15.841     64.871  45.260014     0.1207     0.9724     9.8918   999.7684      9.908      6.832 0.0000e+00
      6.995      0.119   144.2566     1.0825      9.308 5.9381e-01     15.841     64.938  45.303834     0.1088     0.9187     9.8843   999.7693      9.950      6.861 0.0000e+00
      7.022      0.120   143.8052     1.0778      9.253 5.9003e-01     15.840     64.933  45.296484     0.0850     0.9071     9.8840   999.7696      9.986      6.885 0.0000e+00
      7.052      0.117   143.4162     1.0673      9.149 5.8244e-01     15.840     64.946  45.298126     0.0710     0.9344     9.8854   999.7697     10.028      6.914 0.0000e+00
      7.085      0.113   143.1676     1.0555      9.082 5.6887e-01     15.840     64.993  45.323683     0.0725     0.9398     9.8819   999.7702     10.077      6.949 0.0000e+00
      7.118      0.112   142.9505     1.0536      9.098 5.5972e-01     15.839     65.036  45.351521     0.0841     0.9731     9.8800   999.7705     10.129      6.984 0.0000e+00
      7.145      0.114   142.5975     1.0518      9.152 5.5315e-01     15.838     65.076  45.380748     0.0870     0.9938     9.8781   999.7707     10.166      7.009 0.0000e+00
      7.166      0.118   142.2551     1.0332      9.197 5.4840e-01     15.838     65.138  45.423100     0.0787     0.9497     9.8724   999.7713     10.191      7.026 0.0000e+00
      7.191      0.122   141.9080     1.0235      9.174 5.4275e-01     15.838     65.227  45.482650     0.0703     0.9209     9.8630   999.7722     10.222      7.047 0.0000e+00
      7.225      0.125   141.4115     1.0298      9.070 5.2195e-01     15.838     65.298  45.529342     0.0705     0.9535     9.8619   999.7725     10.271      7.082 0.0000e+00
      7.265      0.130   140.8990     1.0357      8.983 5.0566e-01     15.839     65.325  45.543217     0.1007     1.0010     9.8665   999.7723     10.335      7.126 0.0000e+00
      7.305      0.134   140.4430     1.0440      8.945 5.0696e-01     15.840     65.395  45.586913     0.1395     1.0144     9.8651   999.7728     10.396      7.167 0.0000e+00
      7.337      0.134   140.0283     1.0445      8.914 4.9924e-01     15.840     65.531  45.676720     0.1399     1.0125     9.8627   999.7731     10.438      7.197 0.0000e+00
      7.367      0.132   139.6708     1.0247      8.899 4.8284e-01     15.839     65.629  45.740175     0.1242     0.9787     9.8608   999.7735     10.474      7.222 0.0000e+00
      7.399      0.127   139.2178     1.0139      8.876 4.7503e-01     15.839     65.697  45.782718     0.1315     0.9495     9.8569   999.7739     10.522      7.256 0.0000e+00
      7.433      0.123   138.6810     1.0147      8.812 4.6861e-01     15.839     65.745  45.810154     0.1513     1.0022     9.8523   999.7745     10.574      7.291 0.0000e+00
      7.467      0.120   138.2571     1.0081      8.796 4.5609e-01     15.839     65.770  45.817930     0.1534     1.0318     9.8493   999.7751     10.621      7.323 0.0000e+00
      7.498      0.118   137.8778     1.0071      8.826 4.4391e-01     15.839     65.866  45.876727     0.1382     0.9643     9.8449   999.7756     10.667      7.355 0.0000e+00
      7.525      0.117   137.5365     1.0104      8.800 4.3532e-01     15.839     66.061  46.013119     0.1203     0.9405     9.8408   999.7760     10.707      7.382 0.0000e+00
      7.550      0.117   137.2275     0.9949      8.767 4.2082e-01     15.839     66.324  46.197184     0.0900     0.9852     9.8392   999.7763     10.736      7.402 0.0000e+00
      7.577      0.118   136.8952     0.9918      8.740 4.0853e-01     15.839     66.609  46.387944     0.0573     0.9896     9.8300   999.7773     10.774      7.428 0.0000e+00
      7.610      0.119   136.5304     1.0071      8.652 4.0776e-01     15.839     66.847  46.541780     0.0398     0.9599     9.8190   999.7784     10.825      7.463 0.0000e+00
      7.645      0.119   136.0862     0.9962      8.594 4.0186e-01     15.839     67.031  46.660331     0.0218     0.9346     9.8239   999.7782     10.877      7.500 0.0000e+00
      7.678      0.118   135.7402     0.9899      8.589 3.8781e-01     15.839     67.158  46.741924     0.0202     0.9244     9.8288   999.7781     10.921      7.530 0.0000e+00
      7.708      0.114   135.4434     0.9981      8.569 3.7515e-01     15.839     67.202  46.766373     0.0591     0.9734     9.8194   999.7791     10.964      7.559 0.0000e+00
      7.736      0.107   134.9936     0.9773      8.580 3.6755e-01     15.839     67.210  46.765443     0.0906     1.0463     9.8091   999.7802     11.004      7.587 0.0000e+00
      7.761      0.098   134.6037     0.9698      8.585 3.6832e-01     15.840     67.264  46.794174     0.0776     1.0159     9.8021   999.7809     11.038      7.611 0.0000e+00
      7.786      0.092   134.3430     0.9792      8.530 3.7431e-01     15.840     67.374  46.859779     0.0452     0.9151     9.7969   999.7816     11.073      7.635 0.0000e+00
      7.809      0.088   134.0783     0.9675      8.486 3.7504e-01     15.839     67.572  46.987191     0.0136     0.8579     9.7936   999.7819     11.110      7.660 0.0000e+00
      7.829      0.089   133.8119     0.9723      8.451 3.6423e-01     15.839     67.876  47.191779    -0.0001     0.9072     9.7889   999.7825     11.138      7.680 0.0000e+00
      7.845      0.092   133.4456     0.9811      8.467 3.4474e-01     15.839     68.127  47.365068     0.0134     0.9965     9.7829   999.7830     11.157      7.692 0.0000e+00
      7.865      0.095   133.0055     0.9625      8.540 3.2882e-01     15.839     68.222  47.431510     0.0239     0.9770     9.7738   999.7839     11.182      7.709 0.0000e+00
      7.893      0.099   132.5337     0.9654      8.501 3.2760e-01     15.839     68.306  47.487149     0.0229     0.9105     9.7640   999.7850     11.223      7.738 0.0000e+00
      7.925      0.105   132.0427     0.9578      8.330 3.4077e-01     15.838     68.466  47.593312     0.0194     0.9145     9.7594   999.7857     11.275      7.774 0.0000e+00
      7.954      0.110   131.6294     0.9529      8.103 3.4782e-01     15.837     68.624  47.699158     0.0209     0.9560     9.7596   999.7859     11.318      7.803 0.0000e+00
      7.979      0.113   131.2359     0.9794      7.950 3.3048e-01     15.838     68.793  47.814461     0.0308     0.9670     9.7614   999.7858     11.348      7.823 0.0000e+00
      8.005      0.113   130.8133     0.9688      7.981 3.0127e-01     15.838     69.020  47.971462     0.0339     0.9441     9.7590   999.7861     11.382      7.847 0.0000e+00
      8.036      0.112   130.3045     0.9489      8.114 2.8815e-01     15.838     69.258  48.136986     0.0295     0.9193     9.7539   999.7869     11.429      7.879 0.0000e+00
      8.067      0.112   129.7314     0.9179      8.211 2.9519e-01     15.838     69.482  48.291830     0.0255     0.9073     9.7513   999.7872     11.476      7.913 0.0000e+00
      8.097      0.112   129.3041     0.8912      8.222 2.9396e-01     15.838     69.709  48.446689     0.0431     0.9367     9.7497   999.7875     11.517      7.941 0.0000e+00
      8.125      0.110   129.0101     0.9027      8.184 2.7913e-01     15.838     69.956  48.612377     0.0810     0.9653     9.7491   999.7878     11.556      7.968 0.0000e+00
      8.152      0.107   128.4998     0.9233      8.144 2.6558e-01     15.839     70.285  48.834642     0.1016     0.9445     9.7495   999.7880     11.596      7.995 0.0000e+00
      8.179      0.103   127.7802     0.9367      8.110 2.6052e-01     15.839     70.677  49.102037     0.1011     0.9253     9.7499   999.7882     11.633      8.021 0.0000e+00
      8.204      0.101   127.1919     0.9355      8.097 2.6036e-01     15.838     71.066  49.368865     0.0941     0.9394     9.7481   999.7885     11.669      8.045 0.0000e+00
      8.229      0.100   126.8069     0.9282      8.079 2.5571e-01     15.837     71.563  49.711249     0.1023     0.9776     9.7427   999.7892     11.707      8.071 0.0000e+00
      8.254      0.101   126.4813     0.9252      8.030 2.5321e-01     15.837     72.627  50.447618     0.1247     0.9754     9.7373   999.7898     11.742      8.096 0.0000e+00
      8.278      0.103   126.0085     0.9199      8.042 2.5035e-01     15.838     75.116  52.175672     0.1352     0.9132     9.7344   999.7904     11.772      8.117 0.0000e+00
      8.302      0.107   125.3926     0.9181      8.103 2.3984e-01     15.838     78.783  54.727215     0.1346     0.8772     9.7322   999.7908     11.806      8.140 0.0000e+00
      8.331      0.112   124.7991     0.9228      8.119 2.3678e-01     15.838     82.642  57.416185     0.1269     0.9182     9.7298   999.7913     11.849      8.169 0.0000e+00
      8.362      0.116   124.3387     0.9066      8.066 2.4367e-01     15.838     86.677  60.231182     0.1185     0.9967     9.7283   999.7917     11.893      8.200 0.0000e+00
      8.393      0.117   124.0413     0.9103      7.961 2.3895e-01     15.837     90.140  62.650930     0.1189     1.0363     9.7269   999.7928     11.936      8.230 0.0000e+00
      8.425      0.117   123.6992     0.9246      7.906 2.2257e-01     15.837     91.860  63.862543     0.1220     1.0194     9.7287   999.7944     11.983      8.262 0.0000e+00
      8.457      0.116   123.1274     0.9230      7.980 2.1242e-01     15.836     92.245  64.141714     0.1276     0.9643     9.7356   999.7952     12.031      8.295 0.0000e+00
      8.485      0.116   122.6348     0.9205      8.092 2.1013e-01     15.834     92.125  64.056385     0.1392     0.8848     9.7415   999.7964     12.071      8.323 0.0000e+00
      8.510      0.115   122.4750     0.9010      8.088 2.0982e-01     15.834     91.661  63.720525     0.1474     0.8482     9.7485   999.7975     12.102      8.344 0.0000e+00
      8.538      0.112   122.3131     0.8903      7.980 2.1386e-01     15.835     90.935  63.194699     0.1506     0.8994     9.7597   999.7971     12.141      8.370 0.0000e+00
      8.571      0.110   121.8819     0.9027      7.894 2.1324e-01     15.835     90.469  62.845939     0.1491     0.9887     9.7674   999.7966     12.191      8.406 0.0000e+00
      8.602      0.108   121.7355     0.9254      7.870 1.9971e-01     15.836     90.819  63.062260     0.1489     1.1044     9.7661   999.7968     12.238      8.437 0.0000e+00
      8.628      0.106   122.0064     0.9241      7.889 1.8911e-01     15.837     92.069  63.903800     0.1483     1.1984     9.7579   999.7975     12.274      8.462 0.0000e+00
      8.652      0.103   121.8872     0.9025      7.884 1.9120e-01     15.837     93.694  65.013845     0.1415     1.1983     9.7455   999.7984     12.307      8.485 0.0000e+00
      8.676      0.100   121.3268     0.8946      7.832 1.8960e-01     15.837     94.661  65.680145     0.1907     1.1722     9.7316   999.7994     12.340      8.508 0.0000e+00
      8.701      0.100   120.8232     0.8916      7.839 1.7741e-01     15.837     94.735  65.731875     0.2946     1.1575     9.7167   999.8009     12.375      8.533 0.0000e+00
      8.727      0.103   120.3582     0.8968      7.882 1.7099e-01     15.837     94.790  65.766438     0.3494     1.1583     9.6996   999.8029     12.412      8.557 0.0000e+00
      8.753      0.104   119.5765     0.9021      7.865 1.6856e-01     15.837     95.100  65.970925     0.3478     1.1820     9.6897   999.8047     12.449      8.583 0.0000e+00
      8.779      0.101   118.5990     0.8847      7.830 1.6291e-01     15.836     95.223  66.043441     0.3791     1.1690     9.6891   999.8053     12.485      8.609 0.0000e+00
      8.808      0.094   117.8318     0.8878      7.776 1.6024e-01     15.835     95.185  66.007666     0.4607     1.1388     9.6910   999.8050     12.527      8.637 0.0000e+00
      8.837      0.086   117.3556     0.9031      7.711 1.5683e-01     15.837     95.341  66.110356     0.5247     1.1601     9.6902   999.8052     12.574      8.670 0.0000e+00
      8.859      0.083   116.8850     0.8917      7.673 1.4820e-01     15.838     95.759  66.395271     0.5512     1.1866     9.6829   999.8062     12.606      8.692 0.0000e+00
      8.872      0.085   116.0993     0.8920      7.641 1.4077e-01     15.837     96.514  66.910301     0.5522     1.1497     9.6750   999.8069     12.620      8.701 0.0000e+00
      8.882      0.091   115.1696     0.8863      7.630 1.4905e-01     15.837     97.760  67.761373     0.5559     1.1604     9.6704   999.8072     12.629      8.707 0.0000e+00
      8.900      0.099   114.5056     0.8732      7.640 1.6579e-01     15.837     99.015  68.613374     0.5871     1.2822     9.6679   999.8076     12.651      8.723 0.0000e+00
      8.933      0.107   114.0082     0.8751      7.674 1.6338e-01     15.837     99.991  69.266558     0.6236     1.3862     9.6661   999.8081     12.700      8.756 0.0000e+00
      8.974      0.114   113.1988     0.8669      7.761 1.5241e-01     15.837    101.365  70.192410     0.6454     1.4213     9.6622   999.8088     12.767      8.802 0.0000e+00
      9.012      0.119   112.2046     0.8670      7.824 1.4354e-01     15.838    103.531  71.671076     0.6596     1.5009     9.6553   999.8101     12.826      8.843 0.0000e+00
      9.039      0.124   111.4523     0.8705      7.784 1.3579e-01     15.838    106.624  73.794988     0.6802     1.6274     9.6469   999.8114     12.859      8.866 0.0000e+00
      9.060      0.126   110.7277     0.8681      7.668 1.3760e-01     15.838    110.528  76.481268     0.6947     1.6809     9.6345   999.8128     12.882      8.882 0.0000e+00
      9.086      0.127   109.7244     0.8853      7.574 1.3859e-01     15.838    114.333  79.098364     0.6922     1.7010     9.6204   999.8145     12.915      8.905 0.0000e+00
      9.122      0.129   108.7859     0.8966      7.577 1.3302e-01     15.838    117.589  81.336875     0.6969     1.6994     9.6101   999.8163     12.970      8.942 0.0000e+00
      9.164      0.133   108.0699     0.8899      7.619 1.2761e-01     15.838    121.483  84.021917     0.7237     1.6610     9.6027   999.8182     13.037      8.989 0.0000e+00
      9.203      0.134   107.2627     0.8734      7.657 1.2474e-01     15.837    126.535  87.518399     0.7491     1.6496     9.5963   999.8205     13.094      9.028 0.0000e+00
      9.237      0.130   106.5110     0.8561      7.689 1.2379e-01     15.837    130.591  90.340187     0.7656     1.6985     9.5890   999.8228     13.140      9.060 0.0000e+00
      9.267      0.120   106.1223     0.8628      7.670 1.2373e-01     15.838    132.205  91.481172     0.7985     1.7720     9.5820   999.8244     13.180      9.088 0.0000e+00
      9.296      0.109   105.7462     0.8703      7.631 1.2375e-01     15.838    132.316  91.578456     0.8420     1.7482     9.5776   999.8261     13.222      9.116 0.0000e+00
      9.323      0.100   105.0613     0.8700      7.585 1.2376e-01     15.837    131.664  91.134645     0.8623     1.6504     9.5779   999.8285     13.263      9.144 0.0000e+00
      9.348      0.097   104.4659     0.8812      7.510 1.2389e-01     15.836    130.675  90.442225     0.8721     1.6195     9.5852   999.8298     13.299      9.169 0.0000e+00
      9.368      0.099   103.9686     0.8734      7.475 1.2497e-01     15.836    130.283  90.142473     0.8847     1.6501     9.5968   999.8292     13.325      9.188 0.0000e+00
      9.387      0.104   103.2646     0.8678      7.483 1.2593e-01     15.837    130.686  90.373821     0.8906     1.6767     9.6058   999.8286     13.347      9.203 0.0000e+00
      9.411      0.110   102.5782     0.8685      7.478 1.2493e-01     15.837    131.316  90.757748     0.8963     1.7013     9.6083   999.8282     13.380      9.225 0.0000e+00
      9.442      0.116   101.8642     0.8512      7.464 1.2383e-01     15.838    131.768  91.030123     0.9053     1.7414     9.6060   999.8279     13.428      9.258 0.0000e+00
      9.479      0.119   100.9989     0.8497      7.462 1.2363e-01     15.839    132.030  91.185342     0.9233     1.8183     9.5958   999.8288     13.484      9.297 0.0000e+00
      9.516      0.118   100.3764     0.8544      7.467 1.2356e-01     15.839    132.398  91.425402     0.9422     1.8751     9.5746   999.8311     13.537      9.333 0.0000e+00
      9.548      0.110   100.2744     0.8532      7.487 1.2358e-01     15.839    132.905  91.769062     0.9431     1.8443     9.5526   999.8332     13.582      9.364 0.0000e+00
      9.575      0.097   100.0234     0.8504      7.510 1.2361e-01     15.839    133.660  92.285991     0.9441     1.8242     9.5378   999.8348     13.621      9.391 0.0000e+00
      9.597      0.082    98.1159     0.8516      7.474 1.2365e-01     15.839    134.649  92.966329     1.0021     1.9409     9.5284   999.8356     13.653      9.413 0.0000e+00
      9.614      0.067    95.1066     0.8518      7.395 1.2370e-01     15.838    135.328  93.440144     1.1101     2.1223     9.5234   999.8363     13.677      9.430 0.0000e+00
      9.629      0.054    93.3220     0.8523      7.319 1.2369e-01     15.837    135.578  93.623697     1.1715     2.1977     9.5222   999.8367     13.697      9.444 0.0000e+00
      9.640      0.043    91.8530     0.8617      7.268 1.2368e-01     15.837    135.522  93.594613     1.1815     2.2011     9.5203   999.8370     13.714      9.455 0.0000e+00
      9.649      0.036    89.3049     0.8547      7.270 1.2370e-01     15.837    135.328  93.470355     1.1836     2.1978     9.5182   999.8379     13.725      9.463 0.0000e+00
      9.656      0.032    87.6366     0.8429      7.312 1.2370e-01     15.836    135.105  93.330509     1.2170     2.2612     9.5201   999.8379     13.734      9.469 0.0000e+00
      9.661      0.028    87.4265     0.8356      7.367 1.2367e-01     15.836    134.766  93.112941     1.2985     2.4515     9.5256   999.8376     13.741      9.474 0.0000e+00
      9.668      0.024    87.0228     0.8254      7.406 1.2367e-01     15.836    134.493  92.939921     1.3397     2.6101     9.5295   999.8372     13.749      9.480 0.0000e+00
      9.676      0.020    86.0254     0.8288      7.386 1.2365e-01     15.836    134.501  92.956860     1.3339     2.6350     9.5314   999.8370     13.762      9.489 0.0000e+00
      9.682      0.015    84.9177     0.8332      7.280 1.2362e-01     15.836    134.651  93.063188     1.3230     2.5115     9.5374   999.8366     13.774      9.497 0.0000e+00
      9.686      0.010    83.9545     0.8410      7.157 1.2369e-01     15.835    134.678  93.080003     1.3032     2.3181     9.5441   999.8358     13.779      9.500 0.0000e+00
      9.687      0.005    83.1548     0.8465      7.125 1.2373e-01     15.835    134.613  93.032900     1.2950     2.1856     9.5501   999.8352     13.779      9.500 0.0000e+00
      9.686      0.000    82.2183     0.8468      7.175 1.2371e-01     15.836    134.484  92.939147     1.2902     2.1107     9.5555   999.8348     13.778      9.500 0.0000e+00
      9.684     -0.003    80.8902     0.8326      7.258 1.2371e-01     15.836    134.162  92.710116     1.2456     2.0653     9.5554   999.8348     13.774      9.497 0.0000e+00
      9.681     -0.004    79.4864     0.8090      7.290 1.2369e-01     15.836    133.665  92.363805     1.1756     2.0486     9.5542   999.8349     13.770      9.494 0.0000e+00
      9.679     -0.004    78.7539     0.8110      7.254 1.2371e-01     15.836    133.129  91.997494     1.1499     2.0801     9.5541   999.8349     13.767      9.492 0.0000e+00
      9.679     -0.003    78.5728     0.8154      7.224 1.2379e-01     15.835    132.435  91.526618     1.1636     2.1375     9.5519   999.8351     13.766      9.492 0.0000e+00
      9.680     -0.002    77.9849     0.8302      7.194 1.2381e-01     15.835    131.285  90.743183     1.2080     2.1585     9.5488   999.8352     13.768      9.493 0.0000e+00
      9.680     -0.003    77.0668     0.8371      7.173 1.2374e-01     15.835    129.500  89.524784     1.2850     2.1626     9.5473   999.8351     13.768      9.493 0.0000e+00
      9.680     -0.010    75.5596     0.8236      7.181 1.2366e-01     15.834    125.683  86.912422     1.3235     2.1525     9.5490   999.8348     13.768      9.493 0.0000e+00
      9.679     -0.025    73.3549     0.8251      7.171 1.2363e-01     15.833    117.419  81.234026     1.3015     2.1051     9.5530   999.8343     13.767      9.492 0.0000e+00
      9.678     -0.046    71.6620     0.8205      7.175 1.2363e-01     15.833    108.049  74.805131     1.1611     2.0011     9.5570   999.8335     13.767      9.492 0.0000e+00
      9.671     -0.073    70.4065     0.8145      7.216 1.2363e-01     15.831    103.083  71.441598     0.9138     1.8224     9.5609   999.8326     13.764      9.489 0.0000e+00
      9.649     -0.109    69.5320     0.8215      7.204 1.2365e-01     15.829     98.877  68.608200     0.7720     1.6958     9.5731   999.8308     13.736      9.470 0.0000e+00
      9.612     -0.155    69.2623     0.8168      7.113 1.2372e-01     15.828     93.676  65.081083     0.7624     1.6723     9.5879   999.8261     13.672      9.426 0.0000e+00
      9.570     -0.207    68.7799     0.8126      7.006 1.2379e-01     15.827     91.104  63.371648     0.7214     1.6411     9.6096   999.8189     13.611      9.384 0.0000e+00
      9.522     -0.260    68.0870     0.8252      6.943 1.2430e-01     15.825     89.482  62.303860     0.6203     1.5588     9.6497   999.8151     13.560      9.349 0.0000e+00
      9.450     -0.311    67.7675     0.8232      6.962 1.3005e-01     15.824     85.831  59.796047     0.5500     1.4673     9.6928   999.8100     13.456      9.278 0.0000e+00
      9.353     -0.359    67.6702     0.8074      7.017 1.3558e-01     15.824     80.891  56.367319     0.5292     1.4273     9.7367   999.8024     13.303      9.172 0.0000e+00
      9.248     -0.399    67.4265     0.7940      7.061 1.3359e-01     15.824     77.869  54.264253     0.4732     1.3834     9.7806   999.7984     13.155      9.070 0.0000e+00
      9.139     -0.426    66.9710     0.7813      7.056 1.3844e-01     15.824     76.850  53.553473     0.3697     1.2798     9.8172   999.7943     13.006      8.967 0.0000e+00
      9.020     -0.438    66.7241     0.7882      7.009 1.5769e-01     15.824     76.305  53.172253     0.2979     1.2044     9.8372   999.7908     12.833      8.848 0.0000e+00
      8.897     -0.440    67.0222     0.7955      6.982 1.7868e-01     15.824     75.725  52.767231     0.2733     1.1932     9.8408   999.7873     12.648      8.721 0.0000e+00
      8.782     -0.442    67.3920     0.8013      6.997 1.8948e-01     15.824     74.477  51.895478     0.2728     1.2122     9.8413   999.7859     12.482      8.606 0.0000e+00
      8.679     -0.448    67.4093     0.8033      7.037 1.9642e-01     15.824     73.042  50.888516     0.2534     1.1946     9.8406   999.7855     12.345      8.512 0.0000e+00
      8.576     -0.459    67.3177     0.7907      7.039 2.1299e-01     15.824     71.489  49.801031     0.2010     1.1185     9.8387   999.7847     12.205      8.415 0.0000e+00
      8.465     -0.473    67.4882     0.7910      7.034 2.3505e-01     15.824     70.023  48.780634     0.1636     1.0460     9.8396   999.7844     12.043      8.304 0.0000e+00
      8.341     -0.485    67.8372     0.7891      7.098 2.6425e-01     15.824     69.370  48.330476     0.1441     0.9701     9.8394   999.7830     11.871      8.185 0.0000e+00
      8.203     -0.494    68.0091     0.8007      7.149 3.0755e-01     15.824     69.310  48.295269     0.1366     0.9566     9.8319   999.7826     11.675      8.049 0.0000e+00
      8.058     -0.501    68.1036     0.8002      7.123 3.4728e-01     15.823     68.747  47.910477     0.1504     1.0883     9.8267   999.7818     11.451      7.895 0.0000e+00
      7.927     -0.505    68.2926     0.7897      7.044 3.6898e-01     15.823     67.678  47.170355     0.1677     1.2241     9.8286   999.7804     11.262      7.765 0.0000e+00
      7.815     -0.509    68.4873     0.8073      6.978 3.9123e-01     15.823     66.928  46.648693     0.1647     1.2256     9.8318   999.7794     11.120      7.667 0.0000e+00
      7.699     -0.509    68.7372     0.8129      6.963 4.3256e-01     15.823     66.429  46.301805     0.1519     1.1401     9.8372   999.7786     10.963      7.558 0.0000e+00
      7.566     -0.505    69.0762     0.8097      6.981 4.7857e-01     15.823     66.117  46.087352     0.1467     1.0492     9.8442   999.7772     10.765      7.422 0.0000e+00
      7.424     -0.503    69.3167     0.7967      6.969 5.2061e-01     15.823     66.020  46.024063     0.1491     0.9856     9.8475   999.7756     10.560      7.281 0.0000e+00
      7.282     -0.503    69.4081     0.7881      6.941 5.6039e-01     15.823     65.952  45.981041     0.1612     0.9545     9.8473   999.7747     10.354      7.138 0.0000e+00
      7.152     -0.503    69.4929     0.7863      6.961 5.9051e-01     15.823     65.714  45.821153     0.1598     0.9816     9.8474   999.7740     10.158      7.004 0.0000e+00
      7.040     -0.501    69.5680     0.7931      7.020 6.2528e-01     15.822     65.311  45.551183     0.1418     1.0730     9.8503   999.7731     10.012      6.903 0.0000e+00
      6.930     -0.501    69.8854     0.7912      7.065 6.7875e-01     15.822     65.051  45.383498     0.1346     1.1660     9.8544   999.7722      9.873      6.807 0.0000e+00
      6.800     -0.505    70.4058     0.7817      7.047 7.4352e-01     15.821     64.846  45.253993     0.1398     1.2147     9.8570   999.7714      9.681      6.675 0.0000e+00
      6.658     -0.510    70.6116     0.7877      7.013 8.1836e-01     15.820     64.553  45.064688     0.1659     1.1469     9.8603   999.7704      9.463      6.524 0.0000e+00
      6.520     -0.512    70.6521     0.7937      6.989 8.9608e-01     15.820     64.437  44.999334     0.1933     0.9987     9.8693   999.7687      9.273      6.393 0.0000e+00
      6.385     -0.510    70.8097     0.8050      6.944 9.7563e-01     15.819     64.469  45.035235     0.2033     0.9330     9.8810   999.7670      9.085      6.263 0.0000e+00
      6.252     -0.506    71.1414     0.7968      6.891 1.0579e+00     15.819     64.386  44.990867     0.2107     0.9365     9.8905   999.7655      8.879      6.122 0.0000e+00
      6.135     -0.501    71.5657     0.7920      6.876 1.1312e+00     15.818     64.238  44.907329     0.2063     0.9377     9.9020   999.7638      8.720      6.012 0.0000e+00
      6.023     -0.501    71.8095     0.7923      6.932 1.2193e+00     15.817     64.122  44.850562     0.2172     1.0503     9.9165   999.7620      8.583      5.917 0.0000e+00
      5.893     -0.504    71.9384     0.7850      7.024 1.3413e+00     15.817     63.943  44.748943     0.2569     1.2674     9.9263   999.7606      8.387      5.783 0.0000e+00
      5.754     -0.501    72.0063     0.7781      7.061 1.4698e+00     15.817     63.824  44.694505     0.2854     1.4005     9.9329   999.7593      8.174      5.636 0.0000e+00
      5.620     -0.492    72.1134     0.7727      6.995 1.5998e+00     15.816     63.883  44.763789     0.2951     1.4237     9.9500   999.7571      7.997      5.514 0.0000e+00
      5.485     -0.480    72.4593     0.7812      6.910 1.7485e+00     15.815     63.771  44.697847     0.3461     1.3413     9.9730   999.7545      7.803      5.379 0.0000e+00
      5.357     -0.466    72.7467     0.7948      6.875 1.8909e+00     15.815     63.433  44.468620     0.4343     1.2288     9.9865   999.7525      7.598      5.239 0.0000e+00
      5.255     -0.456    72.8345     0.8035      6.874 2.0104e+00     15.815     63.222  44.341271     0.4653     1.1966    10.0096   999.7500      7.467      5.148 0.0000e+00
      5.163     -0.455    73.0041     0.7886      6.887 2.1568e+00     15.814     63.125  44.300883     0.4627     1.1925    10.0411   999.7470      7.363      5.075 0.0000e+00
      5.051     -0.461    73.2487     0.7753      6.869 2.3633e+00     15.813     62.902  44.170785     0.5080     1.2135    10.0447   999.7461      7.193      4.958 0.0000e+00
      4.923     -0.471    73.3830     0.7755      6.864 2.6124e+00     15.812     62.667  44.038026     0.5837     1.3131    10.0421   999.7454      6.995      4.823 0.0000e+00
      4.797     -0.480    73.4232     0.7717      6.916 2.9389e+00     15.811     62.603  44.028952     0.6152     1.4003    10.0635   999.7429      6.830      4.710 0.0000e+00
      4.664     -0.485    73.4768     0.7793      6.960 3.3625e+00     15.810     62.432  43.934143     0.6118     1.4096    10.0901   999.7400      6.641      4.579 0.0000e+00
      4.529     -0.481    73.4297     0.7731      6.948 3.7802e+00     15.809     62.087  43.717034     0.6768     1.4264    10.1055   999.7378      6.422      4.429 0.0000e+00
      4.413     -0.474    73.2839     0.7672      6.883 4.2185e+00     15.807     61.808  43.562439     0.8089     1.4663    10.1308   999.7349      6.270      4.324 0.0000e+00
      4.308     -0.469    73.3487     0.7796      6.823 4.8653e+00     15.806     61.510  43.398171     0.8934     1.4800    10.1698   999.7310      6.141      4.234 0.0000e+00
      4.190     -0.465    73.5242     0.7836      6.814 5.6755e+00     15.805     61.155  43.191069     0.9167     1.4545    10.1842   999.7291      5.958      4.108 0.0000e+00
      4.069     -0.460    73.5130     0.7839      6.846 6.5999e+00     15.804     60.939  43.089896     1.0341     1.5351    10.1944   999.7273      5.781      3.985 0.0000e+00
      3.949     -0.459    73.3858     0.7716      6.873 7.8444e+00     15.803     60.924  43.127213     1.2628     1.7346    10.2385   999.7227      5.626      3.878 0.0000e+00
      3.824     -0.462    73.3622     0.7626      6.883 9.4050e+00     15.802     60.978  43.197942     1.4029     1.8397    10.2791   999.7184      5.439      3.750 0.0000e+00
      3.704     -0.465    73.4866     0.7615      6.901 1.1120e+01     15.801     60.988  43.246794     1.4303     1.8789    10.3050   999.7152      5.253      3.622 0.0000e+00
      3.600     -0.467    73.5997     0.7666      6.926 1.3475e+01     15.799     60.925  43.273547     1.4610     1.9342    10.3514   999.7104      5.124      3.533 0.0000e+00
      3.490     -0.470    73.6977     0.7702      6.963 1.7450e+01     15.797     60.896  43.331042     1.7934     2.1992    10.4009   999.7054      4.984      3.437 0.0000e+00
      3.359     -0.473    73.7242     0.7675      6.988 2.2471e+01     15.794     61.019  43.497662     2.4065     2.6800    10.4157   999.7033      4.775      3.293 0.0000e+00
      3.229     -0.474    73.4902     0.7718      6.949 2.7248e+01     15.791     61.044  43.637633     2.7515     2.9754    10.4382   999.7006      4.579      3.157 0.0000e+00
      3.109     -0.473    73.2777     0.7712      6.859 3.2289e+01     15.787     60.745  43.563415     2.9234     3.0919    10.5116   999.6932      4.428      3.053 0.0000e+00
      2.987     -0.469    73.2202     0.7748      6.809 3.7751e+01     15.786     59.980  43.108332     4.3318     3.4030    10.5837   999.6856      4.251      2.930 0.0000e+00
      2.865     -0.463    73.1381     0.7808      6.839 4.2351e+01     15.783     58.807  42.388674     6.8861     3.8868    10.6196   999.6816      4.060      2.799 0.0000e+00
      2.758     -0.457    72.9732     0.7740      6.893 4.6353e+01     15.776     57.973  42.035628     8.2773     4.1348    10.7257   999.6709      3.923      2.704 0.0000e+00
      2.650     -0.454    72.5173     0.7561      6.923 5.1467e+01     15.768     57.558  42.014045     8.3438     4.1693    10.8875   999.6545      3.784      2.610 0.0000e+00
      2.526     -0.452    72.0994     0.7470      6.897 5.7355e+01     15.763     56.748  41.620191     7.6722     4.0301    10.9299   999.6494      3.590      2.475 0.0000e+00
      2.404     -0.449    71.9647     0.7547      6.827 6.2585e+01     15.758     55.863  41.145901     6.4130     3.6877    10.9775   999.6434      3.406      2.348 0.0000e+00
      2.294     -0.443    71.5771     0.7561      6.789 6.8184e+01     15.753     55.541  41.103922     5.7175     3.4969    11.2402   999.6157      3.270      2.255 0.0000e+00
      2.182     -0.438    71.1986     0.7563      6.802 7.5225e+01     15.749     54.817  40.732035     5.6529     3.4743    11.5433   999.5831      3.111      2.145 0.0000e+00
      2.064     -0.433    71.3459     0.7519      6.832 8.1936e+01     15.744     53.074  39.632883     5.6209     3.4139    11.6728   999.5680      2.920      2.014 0.0000e+00
      1.960     -0.430    71.4656     0.7364      6.869 8.7872e+01     15.733     51.401  38.731673     5.5600     3.3504    11.8000   999.5529      2.780      1.917 0.0000e+00
      1.864     -0.430    71.5272     0.7288      6.928 9.5346e+01     15.721     50.526  38.468072     5.5175     3.3253    12.0257   999.5273      2.666      1.839 0.0000e+00
      1.751     -0.429    71.6602     0.7301      7.001 1.0445e+02     15.712     49.836  38.223333     5.4884     3.2813    12.1566   999.5114      2.497      1.722 0.0000e+00
      1.630     -0.429    71.1810     0.7323      7.095 1.1306e+02     15.705     49.008  37.803803     5.2652     3.1958    12.2536   999.4988      2.305      1.589 0.0000e+00
      1.520     -0.431    70.7231     0.7279      7.270 1.2141e+02     15.698     48.092  37.330717     4.8599     3.1167    12.6527   999.4496      2.160      1.490 0.0000e+00
      1.415     -0.437    71.1146     0.7274      7.583 1.3084e+02     15.689     46.498  36.374893     4.6412     3.0795    13.1416   999.3879      2.021      1.393 0.0000e+00
      1.306     -0.446    71.6131     0.7315      8.037 1.4038e+02     15.674     44.584  35.322239     4.6139     3.0554    13.3651   999.3582      1.851      1.275 0.0000e+00
      1.200     -0.458    71.7595     0.7356      8.579 1.4976e+02     15.650     43.480  35.138004     4.5679     3.0306    13.5485   999.3330      1.705      1.176 0.0000e+00
      1.090     -0.473    71.4223     0.7467      9.125 1.6091e+02     15.623     42.900  35.417437     4.2388     2.9861    13.8045   999.2982      1.568      1.082 0.0000e+00
      0.959     -0.485    70.6337     0.7751      9.691 1.7327e+02     15.601     42.257  35.528937     3.6579     2.8946    14.0666   999.2606      1.369      0.944 0.0000e+00
      0.819     -0.489    70.3976     0.8157     10.444 1.8319e+02     15.578     41.587  35.598532     3.3429     2.8515    14.4785   999.2008      1.155      0.796 0.0000e+00
      0.687     -0.483    70.8047     0.8586     11.548 1.8993e+02     15.556     40.921  35.625132     3.2999     2.8775    15.3763   999.0648      0.978      0.675 0.0000e+00
      0.560     -0.468    70.9961     0.8950     13.190 1.9515e+02     15.543     40.491  35.597527     3.1758     2.9684    16.3890   998.9016      0.794      0.548 0.0000e+00
      0.442     -0.444    71.1629     0.9289     15.534 1.9986e+02     15.540     40.391  35.582507     2.9673     3.1607    17.0085   998.7955      0.617      0.425 0.0000e+00
      0.338     -0.418    71.6166     0.9819     18.551 2.1074e+02     15.541     40.475  35.633974     2.8584     3.3141    17.7773   998.6576      0.479      0.331 0.0000e+00
      0.239     -0.395    71.9222     1.0617     22.110 2.7509e+02     15.541     40.799  35.965927     2.8419     3.3472    18.6793   998.4884      0.343      0.236 0.0000e+00
      0.140     -0.371    71.7597     1.1949     25.854 4.9086e+02     15.536     41.155  36.486683     2.7671     3.4575    19.0974   998.4065      0.195      0.134 0.0000e+00
      0.047     -0.343    71.2872     1.4182     29.186 7.8401e+02     15.524     41.243  36.917398     2.6311     3.7211    19.0699   998.4114      0.064      0.044 0.0000e+00
     -0.040     -0.305    70.7694     1.7022     31.686 9.4557e+02     15.507     41.332  37.429982     2.5625     3.9250    18.9837   998.4279     -0.054     -0.037 0.0000e+00
     -0.125     -0.256    70.3167     2.0406     33.238 9.8339e+02     15.487     41.343  37.988626     2.5665     4.0004    18.9932   998.4259     -0.182     -0.126 0.0000e+00
     -0.198     -0.201    69.9437     2.4032     34.158 1.0125e+03     15.464     40.974  38.278274     2.4887     3.7744    19.2406   998.3770     -0.300     -0.207 0.0000e+00
     -0.241     -0.145    69.8729     2.6937     35.203 1.0480e+03     15.446     40.484  38.330954     2.3183     3.2867    19.7563   998.2730     -0.358     -0.247 0.0000e+00
     -0.256     -0.094    70.0636     2.9013     36.954 1.0637e+03     15.436     40.105  38.245503     2.2223     3.0130    20.2095   998.1800     -0.368     -0.254 0.0000e+00
     -0.260     -0.050    70.3569     2.9957     39.454 1.0603e+03     15.433     40.044  38.260908     2.2340     3.0057    20.8663   998.0404     -0.369     -0.255 0.0000e+00
     -0.260     -0.020    71.4394     2.9926     42.529 1.0564e+03     15.432     40.225  38.453812     2.3352     3.2331    21.7906   997.8371     -0.370     -0.255 0.0000e+00
     -0.260     -0.006    79.0228     3.0233     45.898 1.0594e+03     15.431     40.060  38.356613     2.4836     3.6334    22.4484   997.6871     -0.371     -0.256 0.0000e+00
     -0.260     -0.001    88.6558     3.1615     49.315 1.0636e+03     15.433     39.715  38.037768     2.5510     3.8637    22.7779   997.6103     -0.370     -0.255 0.0000e+00
     -0.260 -8.725e-08    86.9011     3.3779     52.425 1.0621e+03     15.435     39.670  37.898890     2.5579     3.8880    22.7948   997.6063     -0.370     -0.255 0.0000e+00
     -0.260 -9.598e-07    79.7461     3.6582     54.548 1.0531e+03     15.435     39.823  37.946595     2.6146     3.6870    22.7314   997.6214     -0.369     -0.255 0.0000e+00
     -0.260     -0.000    75.9675     3.9440     55.417 1.0201e+03     15.433     39.968  38.106682     2.7217     3.2871    22.9066   997.5800     -0.370     -0.255 0.0000e+00
     -0.260     -0.000    73.7379     4.2344     55.375 9.2664e+02     15.427     39.834  38.120981     2.7748     3.0360    22.9538   997.5686     -0.370     -0.255 0.0000e+00
     -0.260     -0.001    71.7167     4.5526     54.887 7.5645e+02     15.423     39.433  37.865855     2.7612     3.0201    22.7620   997.6138     -0.371     -0.256 0.0000e+00
     -0.260     -0.009    68.5639     4.7597     54.314 5.4468e+02     15.423     39.173  37.624195     2.7474     3.1640    22.5759   997.6574     -0.370     -0.255 0.0000e+00
     -0.260     -0.034    65.1297     4.8162     53.719 3.5299e+02     15.427     39.190  37.547249     2.7229     4.2261    22.5879   997.6546     -0.369     -0.255 0.0000e+00
     -0.260     -0.080    63.0611     4.7763     53.102 2.3654e+02     15.431     39.258  37.506529     2.6750     6.1460    22.8586   997.5912     -0.370     -0.255 0.0000e+00
     -0.265     -0.137    63.1693     4.6991     52.641 2.0665e+02     15.434     39.342  37.512488     2.6259     7.2190    23.0796   997.5388     -0.369     -0.255 0.0000e+00
     -0.291     -0.182    66.2653     4.6518     52.399 2.4585e+02     15.435     39.526  37.619202     2.5492     7.5870    23.0726   997.5402     -0.389     -0.268 0.0000e+00
     -0.362     -0.206    69.6070     4.6211     52.314 3.9325e+02     15.439     39.723  37.717831     1.9671    10.5606    22.8977   997.5815     -0.486     -0.334 0.0000e+00
     -0.472     -0.207    70.9642     4.5693     52.194 6.6766e+02     15.444     39.862  37.752928     0.9188    15.9123    22.7371   997.6185     -0.684     -0.472 0.0000e+00
     -0.563     -0.187    71.6632     4.5366     51.728 9.2301e+02     15.448     40.003  37.789577     0.3461    18.7358    22.6690   997.6340     -0.844     -0.582 0.0000e+00
     -0.597     -0.146    72.5519     4.5239     50.992 1.0245e+03     15.452     40.170  37.843496     0.2015    18.6400    22.6010   997.6499     -0.860     -0.594 0.0000e+00
     -0.600     -0.091    73.5355     4.5291     50.367 1.0089e+03     15.455     40.279  37.833544    -0.7246    15.3040    22.4695   997.6805     -0.851     -0.588 0.0000e+00
     -0.599     -0.040    74.5220     4.5491     50.133 9.6671e+02     15.459     40.090  37.542154    -2.3827     9.1621    22.3471   997.7088     -0.854     -0.589 0.0000e+00
     -0.599     -0.010    75.2731     4.5122     50.483 8.0715e+02     15.463     37.019  34.574021    -3.2712     5.7664    22.2353   997.7345     -0.851     -0.587 0.0000e+00
     -0.599     -0.000    76.0776     4.4439     51.842 6.5782e+02     15.466     26.389  24.597006    -3.2855     5.2493    22.1017   997.7651     -0.853     -0.589 0.0000e+00
     -0.599 1.0133e-09    77.4519     4.3934     54.810 7.8274e+02     15.468     13.078  12.170008    -2.6122     3.3221    21.9613   997.7971     -0.852     -0.588 0.0000e+00
     -0.600 1.1147e-08    79.5006     4.3829     59.554 7.2650e+02     15.470      7.073   6.569279    -1.3678    -0.1291    21.8123   997.8305     -0.853     -0.588 0.0000e+00
     -0.600 1.2261e-07    82.3502     4.4146     65.510 3.4018e+02     15.471      6.480   6.012872    -0.6939    -2.0089    21.6714   997.8624     -0.853     -0.588 0.0000e+00
     -0.600 1.1240e-07    85.4057     4.5176     71.534 1.6703e+02     15.472      6.074   5.632622    -0.6538    -2.1712    21.5483   997.8861     -0.853     -0.588 0.0000e+00
     -0.600 -1.052e-13    89.4273     4.7825     76.537 4.1053e+02     15.473      5.477   5.076440    -0.8165    -1.8853    21.4689   997.8977     -0.853     -0.588 0.0000e+00
     -0.600 -1.157e-12    95.0103     5.2224     79.989 8.4387e+02     15.475      5.114   4.737186    -1.1160    -1.2988    21.4193   997.9080     -0.853     -0.588 0.0000e+00
     -0.600 -1.273e-11    99.8237     5.7941     81.900 8.9762e+02     15.476      5.075   4.698781    -1.2802    -0.9850    21.3894   997.9150     -0.853     -0.588 0.0000e+00
     -0.601 -1.400e-10   102.5416     6.3692     82.703 5.2947e+02     15.477      4.984   4.612085    -1.3049    -0.9749    21.3666   997.9197     -0.855     -0.589 0.0000e+00
     -0.601 -1.540e-09   104.2968     6.8274     82.842 3.2998e+02     15.478      4.743   4.385893    -1.3185    -0.9707    21.3376   997.9261     -0.855     -0.589 0.0000e+00
     -0.601 -1.695e-08   106.0758     7.1404     82.627 5.8047e+02     15.478      4.456   4.118098    -1.3113    -0.9003    21.3090   997.9322     -0.853     -0.588 0.0000e+00
     -0.601 -1.864e-07   107.9610     7.2933     82.303 1.0343e+03     15.478      4.231   3.908515    -1.2947    -0.8102    21.2820   997.9383     -0.854     -0.589 0.0000e+00
     -0.601 -1.864e-07   109.9688     7.3542     81.962 1.2377e+03     15.479      4.202   3.879272    -1.2992    -0.7747    21.2554   997.9440     -0.855     -0.589 0.0000e+00
     -0.600 -1.695e-08   112.1977     7.3641     81.779 1.2237e+03     15.480      4.148   3.827882    -1.3085    -0.7801    21.2306   997.9493     -0.854     -0.589 0.0000e+00
     -0.600 -1.541e-09   114.5197     7.3353     81.972 1.2222e+03     15.482      3.908   3.603937    -1.2250    -0.5659    21.2070   997.9545     -0.854     -0.589 0.0000e+00
     -0.600 -1.402e-10   116.4481     7.3134     82.532 1.2142e+03     15.483      3.746   3.452394    -1.0623    -0.1071    21.1821   997.9599     -0.854     -0.589 0.0000e+00
     -0.600 -1.388e-11   118.0473     7.2808     83.373 9.9163e+02     15.484      3.612   3.326071    -0.9724     0.1668    21.1562   997.9655     -0.854     -0.589 0.0000e+00
     -0.600 -1.378e-11   120.4339     7.2557     84.338 7.7866e+02     15.484      3.289   3.026887    -0.9587     0.2391    21.1301   997.9712     -0.854     -0.589 0.0000e+00
     -0.601 -1.400e-10   123.6226     7.2825     85.233 9.8381e+02     15.485      2.851   2.622582    -0.9442     0.2180    21.1028   997.9770     -0.855     -0.589 0.0000e+00
     -0.601 -1.540e-09   126.2291     7.3370     86.013 1.1923e+03     15.486      2.436   2.238848    -0.9211     0.0825    21.0742   997.9832     -0.855     -0.589 0.0000e+00
     -0.601 -1.694e-08   127.9439     7.4202     86.657 9.7124e+02     15.487      2.176   1.998283    -0.9076    -0.0253    21.0447   997.9897     -0.854     -0.589 0.0000e+00
     -0.601 -1.863e-07   129.8156     7.5215     87.177 5.1058e+02     15.488      2.242   2.057923    -0.9056    -0.0561    21.0141   997.9962     -0.855     -0.590 0.0000e+00
     -0.601 -1.863e-07   132.1681     7.6029     87.649 3.2236e+02     15.489      2.537   2.326430    -0.9256    -0.0495    20.9824   998.0030     -0.855     -0.590 0.0000e+00
     -0.601 -1.693e-08   134.4474     7.6793     88.064 6.4226e+02     15.489      2.681   2.457314    -0.9686    -0.0485    20.9499   998.0099     -0.854     -0.589 0.0000e+00
     -0.601 -1.539e-09   136.5531     7.7432     88.399 8.3362e+02     15.490      2.661   2.436754    -0.9951    -0.0776    20.9173   998.0168     -0.855     -0.589 0.0000e+00
     -0.601 -1.400e-10   138.7849     7.7880     88.669 4.8442e+02     15.491      2.894   2.648008    -0.9886    -0.0921    20.8846   998.0240     -0.856     -0.590 0.0000e+00
     -0.601 -1.272e-11   140.9550     7.8385     88.884 4.5632e+02     15.492      3.472   3.174303    -0.9760    -0.0524    20.8513   998.0312     -0.855     -0.590 0.0000e+00
     -0.601 -1.157e-12   142.7446     7.8814     89.043 9.4139e+02     15.493      3.946   3.605108    -0.9956    -0.0447    20.8172   998.0385     -0.856     -0.590 0.0000e+00
     -0.601 -1.052e-13   144.4201     7.9153     89.152 9.3694e+02     15.495      4.095   3.738787    -1.0253    -0.1015    20.7836   998.0457     -0.855     -0.590 0.0000e+00
     -0.601 -9.639e-15   145.9840     7.9453     89.228 4.2381e+02     15.496      4.070   3.713543    -1.0302    -0.0870    20.7469   998.0535     -0.856     -0.590 0.0000e+00
     -0.601 -1.738e-15   146.6826     7.9698     89.259 1.3456e+02     15.496      4.035   3.680015    -1.0267    -0.0404    20.7119   998.0613     -0.855     -0.590 0.0000e+00
     -0.601 -9.990e-29 -9.990e-29     7.9903 -9.990e-29 1.1198e+02 -9.990e-29 -9.990e-29 -9.990e-29 -9.990e-29 -9.990e-29    20.6766   998.0689     -0.856     -0.590 0.0000e+00
     -0.601 -9.990e-29 -9.990e-29     8.0030 -9.990e-29 1.1398e+02 -9.990e-29 -9.990e-29 -9.990e-29 -9.990e-29 -9.990e-29    20.6458   998.0755     -0.855     -0.590 0.0000e+00
     -0.601 -9.990e-29 -9.990e-29     8.0168 -9.990e-29 1.1682e+02 -9.990e-29 -9.990e-29 -9.990e-29 -9.990e-29 -9.990e-29    20.6085   998.0835     -0.855     -0.590 0.0000e+00
     -0.601 -9.990e-29 -9.990e-29     8.0247 -9.990e-29 1.1776e+02 -9.990e-29 -9.990e-29 -9.990e-29 -9.990e-29 -9.990e-29    20.5814   998.0891     -0.856     -0.590 0.0000e+00
