* Sea-Bird SBE19plus  Data File:
* FileName = C:\DATA\071519_fcr_0006.hex
* Software version 2.8.0.119 SB_Terminal.dll
* Temperature SN = 7809
* Conductivity SN = 7809
* System UpLoad Time = Jul 15 2019 16:38:58
* <ApplicationData>
* <Seaterm232>
* <SoftwareVersion>2.8.0.119</SoftwareVersion>
* <BuildDate>07-Nov-2018</BuildDate>
* </Seaterm232>
* </ApplicationData>
* cast   6 15 Jul 2019 11:23:45 samples 3005 to 3753, avg = 1, stop = mag switch
# nquan = 16
# nvalues = 632                         
# units = specified
# name 0 = depFM: Depth [fresh water, m]
# name 1 = dz/dtM: Descent Rate [m/s]
# name 2 = sbeox0Mg/L: Oxygen, SBE 43 [mg/l]
# name 3 = sbeox0PS: Oxygen, SBE 43 [% saturation]
# name 4 = specc: Specific Conductance [uS/cm]
# name 5 = c0uS/cm: Conductivity [uS/cm]
# name 6 = flECO-AFL: Fluorescence, WET Labs ECO-AFL/FL [mg/m^3]
# name 7 = ph: pH
# name 8 = orp: Oxidation Reduction Potential [mV]
# name 9 = par/sat/log: PAR/Logarithmic, Satlantic
# name 10 = turbWETntu0: Turbidity, WET Labs ECO [NTU]
# name 11 = prdM: Pressure, Strain Gauge [db]
# name 12 = prdE: Pressure, Strain Gauge [psi]
# name 13 = tv290C: Temperature [ITS-90, deg C]
# name 14 = density00: Density [density, kg/m^3]
# name 15 = flag:  0.000e+00
# span 0 =     -0.527,      7.383       
# span 1 =     -0.007,      0.182       
# span 2 =     0.9973,    15.0263       
# span 3 =      9.226,    176.288       
# span 4 =      2.428,     42.516       
# span 5 =   2.303089,  38.506473       
# span 6 =    -1.8043,     6.1992       
# span 7 =      6.787,      8.048       
# span 8 =    40.2738,   342.1570       
# span 9 = 1.2349e-01, 2.4355e+03       
# span 10 =    -0.9539,    10.0781      
# span 11 =     -0.517,      7.241      
# span 12 =     -0.750,     10.502      
# span 13 =    10.8196,    28.0663      
# span 14 =   996.2352,   999.6767      
# span 15 = 0.0000e+00, 0.0000e+00      
# interval = seconds: 0.25
# start_time = Jul 15 2019 11:23:45 [Instrument's time stamp, header]
# bad_flag = -9.990e-29
# <Sensors count="9" >
#   <sensor Channel="1" >
#     <!-- Count, Temperature -->
#     <TemperatureSensor SensorID="58" >
#       <SerialNumber>7809</SerialNumber>
#       <CalibrationDate>24-Mar-19</CalibrationDate>
#       <A0>1.21792325e-003</A0>
#       <A1>2.81669265e-004</A1>
#       <A2>-1.60333336e-006</A2>
#       <A3>1.98414625e-007</A3>
#       <Slope>1.00000000</Slope>
#       <Offset>0.0000</Offset>
#     </TemperatureSensor>
#   </sensor>
#   <sensor Channel="2" >
#     <!-- Frequency 0, Conductivity -->
#     <ConductivitySensor SensorID="3" >
#       <SerialNumber>7809</SerialNumber>
#       <CalibrationDate>24-Mar-19</CalibrationDate>
#       <UseG_J>1</UseG_J>
#       <!-- Cell const and series R are applicable only for wide range sensors. -->
#       <SeriesR>0.0000</SeriesR>
#       <CellConst>2000.0000</CellConst>
#       <ConductivityType>0</ConductivityType>
#       <Coefficients equation="0" >
#         <A>0.00000000e+000</A>
#         <B>0.00000000e+000</B>
#         <C>0.00000000e+000</C>
#         <D>0.00000000e+000</D>
#         <M>0.0</M>
#         <CPcor>-9.57000000e-008</CPcor>
#       </Coefficients>
#       <Coefficients equation="1" >
#         <G>-1.00589325e+000</G>
#         <H>1.26816302e-001</H>
#         <I>-1.51560448e-004</I>
#         <J>2.67137274e-005</J>
#         <CPcor>-9.57000000e-008</CPcor>
#         <CTcor>3.2500e-006</CTcor>
#         <!-- WBOTC not applicable unless ConductivityType = 1. -->
#         <WBOTC>0.00000000e+000</WBOTC>
#       </Coefficients>
#       <Slope>1.00000000</Slope>
#       <Offset>0.00000</Offset>
#     </ConductivitySensor>
#   </sensor>
#   <sensor Channel="3" >
#     <!-- Count, Pressure, Strain Gauge -->
#     <PressureSensor SensorID="46" >
#       <SerialNumber>7809</SerialNumber>
#       <CalibrationDate>11-Mar-19</CalibrationDate>
#       <PA0>4.56561833e-002</PA0>
#       <PA1>4.85095118e-004</PA1>
#       <PA2>-2.88327090e-012</PA2>
#       <PTEMPA0>-5.48784562e+001</PTEMPA0>
#       <PTEMPA1>5.53756816e+001</PTEMPA1>
#       <PTEMPA2>-5.86727098e-001</PTEMPA2>
#       <PTCA0>5.25246745e+005</PTCA0>
#       <PTCA1>1.22304214e+001</PTCA1>
#       <PTCA2>-3.56745036e-001</PTCA2>
#       <PTCB0>2.51668750e+001</PTCB0>
#       <PTCB1>3.75000000e-004</PTCB1>
#       <PTCB2>0.00000000e+000</PTCB2>
#       <Offset>0.000000</Offset>
#     </PressureSensor>
#   </sensor>
#   <sensor Channel="4" >
#     <!-- A/D voltage 0, Oxygen, SBE 43 -->
#     <OxygenSensor SensorID="38" >
#       <SerialNumber>0434</SerialNumber>
#       <CalibrationDate>13-Apr-19</CalibrationDate>
#       <Use2007Equation>1</Use2007Equation>
#       <CalibrationCoefficients equation="0" >
#         <!-- Coefficients for Owens-Millard equation. -->
#         <Boc>0.0000</Boc>
#         <Soc>0.0000e+000</Soc>
#         <offset>0.0000</offset>
#         <Pcor>0.00e+000</Pcor>
#         <Tcor>0.0000</Tcor>
#         <Tau>0.0</Tau>
#       </CalibrationCoefficients>
#       <CalibrationCoefficients equation="1" >
#         <!-- Coefficients for Sea-Bird equation - SBE calibration in 2007 and later. -->
#         <Soc>4.2007e-001</Soc>
#         <offset>-0.6109</offset>
#         <A>-4.3656e-003</A>
#         <B> 1.7017e-004</B>
#         <C>-2.5341e-006</C>
#         <D0> 2.5826e+000</D0>
#         <D1> 1.92634e-004</D1>
#         <D2>-4.64803e-002</D2>
#         <E> 3.6000e-002</E>
#         <Tau20> 1.1800</Tau20>
#         <H1>-3.3000e-002</H1>
#         <H2> 5.0000e+003</H2>
#         <H3> 1.4500e+003</H3>
#       </CalibrationCoefficients>
#     </OxygenSensor>
#   </sensor>
#   <sensor Channel="5" >
#     <!-- A/D voltage 1, PAR/Logarithmic, Satlantic -->
#     <PARLog_SatlanticSensor SensorID="76" >
#       <SerialNumber>1122</SerialNumber>
#       <CalibrationDate>08-May-2019</CalibrationDate>
#       <a0>9.7456e-001</a0>
#       <a1>8.1640e-001</a1>
#       <Im>1.3589e+000</Im>
#       <Multiplier>1.0000e+000</Multiplier>
#     </PARLog_SatlanticSensor>
#   </sensor>
#   <sensor Channel="6" >
#     <!-- A/D voltage 2, pH -->
#     <pH_Sensor SensorID="43" >
#       <SerialNumber>0363</SerialNumber>
#       <CalibrationDate>15-Apr-19</CalibrationDate>
#       <Slope>4.5952</Slope>
#       <Offset>2.5370</Offset>
#     </pH_Sensor>
#   </sensor>
#   <sensor Channel="7" >
#     <!-- A/D voltage 3, Oxidation Reduction Potential -->
#     <OxidationReductionPotentialSensor SensorID="41" >
#       <SerialNumber>0363</SerialNumber>
#       <CalibrationDate>15-Apr-19</CalibrationDate>
#       <B>2.499480</B>
#       <M>-0.496195</M>
#       <Offset>0.0</Offset>
#     </OxidationReductionPotentialSensor>
#   </sensor>
#   <sensor Channel="8" >
#     <!-- A/D voltage 4, Fluorometer, WET Labs ECO-AFL/FL -->
#     <FluoroWetlabECO_AFL_FL_Sensor SensorID="20" >
#       <SerialNumber>FLNTURT-2496</SerialNumber>
#       <CalibrationDate>08-May-2019</CalibrationDate>
#       <ScaleFactor>5.00000000e+001</ScaleFactor>
#       <!-- Dark output -->
#       <Vblank>0.0550</Vblank>
#     </FluoroWetlabECO_AFL_FL_Sensor>
#   </sensor>
#   <sensor Channel="9" >
#     <!-- A/D voltage 5, Turbidity Meter, WET Labs, ECO-NTU -->
#     <TurbidityMeter SensorID="67" >
#       <SerialNumber>FLNTURT-2496</SerialNumber>
#       <CalibrationDate>08-May-2019</CalibrationDate>
#       <ScaleFactor>189.000000</ScaleFactor>
#       <!-- Dark output -->
#       <DarkVoltage>0.071000</DarkVoltage>
#     </TurbidityMeter>
#   </sensor>
# </Sensors>
# datcnv_date = Jul 15 2019 16:42:07, 7.26.7.129 [datcnv_vars = 15]
# datcnv_in = C:\DATA\071519_fcr45.hex C:\DATA\SBE19plusV2_7809.xmlcon
# datcnv_skipover = 0
# datcnv_ox_hysteresis_correction = yes
# datcnv_ox_tau_correction = yes
# filter_date = Jul 15 2019 16:42:29, 7.26.7.129
# filter_in = C:\DATA\071519_fcr45.cnv
# filter_low_pass_tc_A = 0.030
# filter_low_pass_tc_B = 0.150
# filter_low_pass_A_vars = prdM prdE tv290C density00
# filter_low_pass_B_vars = depFM dz/dtM sbeox0Mg/L sbeox0PS specc c0uS/cm flECO-AFL ph orp par/sat/log turbWETntu0
# alignctd_date = Jul 15 2019 16:42:45, 7.26.7.129
# alignctd_in = C:\DATA\071519_fcr45.cnv
# alignctd_adv = dz/dtM 1.000, sbeox0Mg/L 1.000, sbeox0PS 1.000, specc 1.000, c0uS/cm 1.000, flECO-AFL 1.000, ph 1.000, orp 1.000, turbWETntu0 1.000                                                                                 
# file_type = ascii
*END*
     -0.525     -0.001     8.3033     95.798      6.464   6.135375    -0.1257      6.791   342.1570 8.7740e+01    -0.0480     -0.515     -0.747    22.2104   997.7303 0.0000e+00
     -0.526     -0.001     8.3007     95.786      6.482   6.153854    -0.1383      6.789   340.2230 8.9737e+01    -0.0746     -0.516     -0.748    22.3113   997.7072 0.0000e+00
     -0.526     -0.001     8.3003     95.796      6.395   6.072256    -0.1377      6.787   338.1381 9.3872e+01    -0.1770     -0.516     -0.748    22.4002   997.6869 0.0000e+00
     -0.526     -0.000     8.3012     95.812      6.290   5.972683    -0.1275      6.787   337.6850 1.0174e+02    -0.3681     -0.516     -0.748    22.4382   997.6783 0.0000e+00
     -0.526 -1.861e-08     8.3037     95.836      6.148   5.837184    -0.1188      6.788   338.8738 1.1606e+02    -0.4836     -0.516     -0.748    22.4550   997.6745 0.0000e+00
     -0.526 -2.048e-07     8.3080     95.876      5.739   5.447969    -0.1187      6.789   340.3806 1.3878e+02    -0.5249     -0.516     -0.748    22.4602   997.6732 0.0000e+00
     -0.526 -2.048e-07     8.3106     95.897      4.939   4.688882    -0.1262      6.790   340.1580 1.6956e+02    -0.5728     -0.516     -0.748    22.4718   997.6705 0.0000e+00
     -0.526 -1.861e-08     8.3105     95.886      4.291   4.073785    -0.1325      6.793   337.9900 2.4700e+02    -0.5714     -0.516     -0.748    22.4747   997.6698 0.0000e+00
     -0.526 -1.692e-09     8.3111     95.885      3.846   3.651008    -0.1339      6.797   334.7301 4.9520e+02    -0.5409     -0.516     -0.748    22.4700   997.6709 0.0000e+00
     -0.526 -1.549e-10     8.3148     95.920      3.360   3.189158    -0.1343      6.801   330.9429 8.8263e+02    -0.5322     -0.515     -0.748    22.4643   997.6723 0.0000e+00
     -0.526 -2.544e-11     8.3176     95.947      2.949   2.798622    -0.1279      6.803   326.8736 1.1630e+03    -0.5319     -0.516     -0.749    22.4597   997.6730 0.0000e+00
     -0.526 -1.400e-10     8.3165     95.929      2.678   2.540988    -0.1262      6.804   323.2139 1.2599e+03    -0.5370     -0.516     -0.748    22.4548   997.6740 0.0000e+00
     -0.527 -1.540e-09     8.3150     95.907      2.615   2.482021    -0.1314      6.804   321.8829 1.2449e+03    -0.5605     -0.516     -0.749    22.4496   997.6751 0.0000e+00
     -0.527 -1.693e-08     8.3143     95.893      2.665   2.529223    -0.1308      6.804   322.4823 1.1822e+03    -0.5871     -0.517     -0.749    22.4453   997.6760 0.0000e+00
     -0.527 -1.863e-07     8.3097     95.834      2.612   2.478054    -0.1273      6.804   322.6313 1.1655e+03    -0.5967     -0.516     -0.749    22.4422   997.6767 0.0000e+00
     -0.527 -1.861e-07     8.3037     95.759      2.498   2.370259    -0.1234      6.803   323.2545 1.1737e+03    -0.5778     -0.517     -0.749    22.4402   997.6771 0.0000e+00
     -0.527 -1.484e-08     8.3009     95.720      2.428   2.303089    -0.1266      6.801   323.8224 1.1335e+03    -0.5557     -0.516     -0.748    22.4373   997.6777 0.0000e+00
     -0.527 2.1480e-08     8.3002     95.705      2.691   2.553009    -0.1311      6.801   321.5819 1.0881e+03    -0.5581     -0.516     -0.749    22.4347   997.6784 0.0000e+00
     -0.527 2.5308e-07     8.3021     95.721      3.146   2.984092    -0.1265      6.803   315.9548 1.0927e+03    -0.5413     -0.516     -0.749    22.4309   997.6792 0.0000e+00
     -0.527      0.000     8.3044     95.742      3.046   2.889553    -0.1665      6.805   306.7202 1.1667e+03    -0.6154     -0.517     -0.749    22.4282   997.6799 0.0000e+00
     -0.527      0.000     8.3050     95.746      2.556   2.423838    -0.2591      6.809   292.0941 1.3380e+03    -0.8312     -0.517     -0.749    22.4227   997.6811 0.0000e+00
     -0.527      0.000     8.3065     95.769      2.553   2.422436    -0.3098      6.811   268.2573 1.5259e+03    -0.9539     -0.516     -0.749    22.4217   997.6814 0.0000e+00
     -0.527      0.004     8.3045     95.809      6.279   5.977474    -0.3108      6.787   190.7614 1.3622e+03    -0.9527     -0.517     -0.749    22.4140   997.6833 0.0000e+00
     -0.527      0.016     8.2597     95.812     17.496  16.821108    -0.3411      6.794    72.5802 9.7499e+02    -0.8167     -0.516     -0.750    22.4177   997.6824 0.0000e+00
     -0.527      0.039     8.1292     95.759     30.531  29.799849    -0.7290      6.964    40.2738 1.2019e+03     0.9528     -0.516     -0.748    22.4053   997.6851 0.0000e+00
     -0.525      0.069     7.9501     95.685     36.729  36.559993    -1.4366      7.262    94.2294 1.9068e+03     4.2528     -0.517     -0.750    22.4239   997.6808 0.0000e+00
     -0.513      0.104     7.7952     95.606     37.539  38.095932    -1.8043      7.536   134.1213 2.2993e+03     6.0812     -0.515     -0.747    22.3944   997.6874 0.0000e+00
     -0.477      0.138     7.6863     95.563     37.303  38.406690    -1.7503      7.728   147.3868 2.3930e+03     6.1494     -0.476     -0.690    22.4826   997.6712 0.0000e+00
     -0.423      0.165     7.6094     95.569     36.968  38.477343    -0.8702      7.853   153.7825 2.4355e+03     4.9467     -0.413     -0.600    23.4098   997.4571 0.0000e+00
     -0.367      0.180     7.5564     95.617     36.700  38.506473     0.7568      7.934   156.9893 2.4232e+03     2.7801     -0.360     -0.521    24.8178   997.1102 0.0000e+00
     -0.312      0.182     7.5302     95.765     36.503  38.505466     1.6648      7.983   157.5946 2.0809e+03     1.6481     -0.304     -0.441    25.8423   996.8445 0.0000e+00
     -0.263      0.175     7.5270     96.016     36.346  38.465483     1.7769      8.012   150.6043 1.3732e+03     1.5827     -0.254     -0.368    26.5267   996.6618 0.0000e+00
     -0.223      0.167     7.5376     96.307     36.166  38.340618     1.8954      8.030   144.5715 8.1571e+02     1.6299     -0.216     -0.314    27.0867   996.5087 0.0000e+00
     -0.190      0.165     7.5572     96.627     35.947  38.138414     2.1006      8.038   153.2256 5.6804e+02     1.7265     -0.185     -0.268    27.5066   996.3924 0.0000e+00
     -0.159      0.168     7.5852     97.005     35.799  37.988472     2.2290      8.035   163.1780 4.7264e+02     1.7679     -0.158     -0.228    27.7734   996.3175 0.0000e+00
     -0.120      0.171     7.6227     97.442     35.754  37.924170     2.2691      8.023   165.7023 4.4634e+02     1.7696     -0.124     -0.180    27.9373   996.2712 0.0000e+00
     -0.066      0.170     7.6666     97.911     35.738  37.868719     2.4808      8.008   166.8829 4.1129e+02     1.8135     -0.069     -0.100    28.0178   996.2486 0.0000e+00
     -0.006      0.162     7.7080     98.365     35.666  37.762279     2.8639      7.992   168.0744 3.5091e+02     1.8402     -0.000     -0.001    28.0465   996.2407 0.0000e+00
      0.042      0.143     7.7415     98.754     35.577  37.652777     3.0699      7.975   169.0087 2.8118e+02     1.7971      0.047      0.068    28.0663   996.2352 0.0000e+00
      0.076      0.115     7.7703     99.062     35.573  37.623790     3.0896      7.958   169.7481 2.3164e+02     1.7513      0.077      0.112    28.0433   996.2419 0.0000e+00
      0.100      0.084     7.7904     99.246     35.640  37.665666     3.1278      7.942   170.7341 2.1285e+02     1.7121      0.103      0.149    27.9681   996.2634 0.0000e+00
      0.110      0.056     7.7992     99.346     35.752  37.778200     3.1862      7.926   171.8949 2.1840e+02     1.6181      0.113      0.163    27.9165   996.2780 0.0000e+00
      0.112      0.037     7.8049     99.456     35.917  37.968811     3.2144      7.911   173.3731 2.2770e+02     1.5651      0.108      0.158    27.9215   996.2765 0.0000e+00
      0.113      0.029     7.8115     99.560     36.062  38.129562     3.2173      7.897   174.6690 2.2246e+02     1.5625      0.110      0.159    27.8841   996.2871 0.0000e+00
      0.118      0.026     7.8489     99.997     36.142  38.198422     3.2124      7.885   175.4314 2.1067e+02     1.5217      0.115      0.168    27.8148   996.3068 0.0000e+00
      0.126      0.024     7.9343    101.030     36.193  38.230081     3.1811      7.874   176.2247 1.9779e+02     1.4974      0.122      0.176    27.8149   996.3068 0.0000e+00
      0.137      0.019     8.0081    101.960     36.223  38.258397     3.1244      7.865   177.1191 1.8521e+02     1.4984      0.134      0.193    27.8541   996.2958 0.0000e+00
      0.149      0.010     8.0135    102.062     36.238  38.286877     3.0914      7.855   177.7286 1.8005e+02     1.5008      0.149      0.216    27.8764   996.2897 0.0000e+00
      0.155      0.002     7.9565    101.387     36.251  38.320548     3.0933      7.842   177.8286 1.8115e+02     1.5266      0.158      0.229    27.8427   996.2993 0.0000e+00
      0.148     -0.004     7.8572    100.191     36.250  38.348157     3.1560      7.829   172.8219 1.8626e+02     1.5480      0.149      0.216    27.7926   996.3133 0.0000e+00
      0.133     -0.007     7.7290     98.645     36.232  38.366830     3.2686      7.819   168.0417 1.9242e+02     1.5620      0.127      0.185    27.7923   996.3134 0.0000e+00
      0.125     -0.006     7.5966     97.030     36.192  38.355956     3.3290      7.812   173.4624 1.9525e+02     1.5650      0.117      0.170    27.8198   996.3056 0.0000e+00
      0.129      0.003     7.4739     95.491     36.110  38.280214     3.3481      7.805   178.4804 1.9330e+02     1.5524      0.126      0.183    27.8448   996.2985 0.0000e+00
      0.135      0.017     7.3639     94.066     35.995  38.149300     3.4731      7.795   178.7245 1.8856e+02     1.6063      0.134      0.194    27.8806   996.2884 0.0000e+00
      0.139      0.031     7.2774     92.921     35.910  38.042600     3.6874      7.786   180.7157 1.8445e+02     1.7244      0.134      0.195    27.9412   996.2712 0.0000e+00
      0.147      0.040     7.2135     92.081     35.946  38.069178     3.7975      7.777   182.5955 1.7822e+02     1.8010      0.141      0.204    27.9954   996.2559 0.0000e+00
      0.163      0.045     7.1625     91.411     36.033  38.153256     3.8162      7.769   183.2984 1.6917e+02     1.8113      0.159      0.230    28.0097   996.2520 0.0000e+00
      0.180      0.048     7.1216     90.855     36.063  38.170496     3.8526      7.763   183.8798 1.5981e+02     1.7842      0.179      0.259    27.9899   996.2576 0.0000e+00
      0.193      0.048     7.0929     90.435     36.068  38.150650     3.9000      7.756   184.4620 1.5017e+02     1.7676      0.191      0.277    27.9584   996.2665 0.0000e+00
      0.203      0.044     7.0694     90.088     36.044  38.103694     3.9295      7.751   184.9170 1.4167e+02     1.7746      0.197      0.286    27.9429   996.2710 0.0000e+00
      0.213      0.036     7.0444     89.742     36.002  38.047047     3.9395      7.749   184.6496 1.3347e+02     1.7697      0.208      0.303    27.9422   996.2713 0.0000e+00
      0.225      0.030     7.0251     89.485     35.997  38.037012     3.9699      7.746   178.6471 1.2565e+02     1.7424      0.223      0.322    27.9210   996.2773 0.0000e+00
      0.233      0.027     7.0186     89.387     36.011  38.045825     4.0278      7.741   173.3440 1.2090e+02     1.7059      0.231      0.333    27.8787   996.2894 0.0000e+00
      0.235      0.025     7.0222     89.405     36.005  38.026640     4.0588      7.736   179.6398 1.1837e+02     1.6896      0.231      0.335    27.8452   996.2989 0.0000e+00
      0.237      0.022     7.0319     89.498     35.989  37.995455     4.0583      7.728   186.3674 1.1626e+02     1.7090      0.230      0.334    27.8307   996.3029 0.0000e+00
      0.243      0.020     7.0502     89.713     35.989  37.986127     4.0570      7.722   187.3182 1.1386e+02     1.7440      0.236      0.343    27.8284   996.3037 0.0000e+00
      0.253      0.018     7.0827     90.116     35.984  37.977319     4.0511      7.717   187.5220 1.1101e+02     1.7525      0.249      0.361    27.8223   996.3053 0.0000e+00
      0.259      0.017     7.1303     90.715     35.963  37.952431     4.0483      7.713   186.9383 1.0829e+02     1.7450      0.256      0.372    27.8011   996.3114 0.0000e+00
      0.261      0.015     7.1912     91.484     35.953  37.939101     4.0579      7.710   180.1751 1.0619e+02     1.7528      0.256      0.371    27.7761   996.3184 0.0000e+00
      0.262      0.013     7.2617     92.377     35.959  37.943101     4.0631      7.706   166.9221 1.0497e+02     1.7813      0.257      0.373    27.7672   996.3210 0.0000e+00
      0.264      0.012     7.3338     93.284     35.957  37.937313     4.0764      7.705   158.3372 1.0446e+02     1.7940      0.260      0.377    27.7645   996.3217 0.0000e+00
      0.266      0.013     7.3971     94.074     35.959  37.932588     4.1060      7.705   156.1343 1.0447e+02     1.7429      0.260      0.376    27.7591   996.3232 0.0000e+00
      0.269      0.014     7.4440     94.659     35.979  37.949437     4.1173      7.706   155.0867 1.0479e+02     1.6873      0.262      0.380    27.7552   996.3243 0.0000e+00
      0.275      0.015     7.4699     94.985     35.982  37.950600     4.1183      7.706   154.4460 1.0667e+02     1.7117      0.270      0.390    27.7536   996.3248 0.0000e+00
      0.280      0.015     7.4734     95.031     35.978  37.946647     4.1268      7.705   153.9801 1.1192e+02     1.7750      0.275      0.398    27.7494   996.3260 0.0000e+00
      0.285      0.013     7.4592     94.854     35.994  37.965116     4.1327      7.702   153.5845 1.1850e+02     1.7970      0.279      0.404    27.7362   996.3298 0.0000e+00
      0.289      0.010     7.4347     94.545     36.010  37.983486     4.1296      7.699   153.3619 1.2344e+02     1.7814      0.284      0.412    27.7289   996.3319 0.0000e+00
      0.291      0.006     7.4072     94.198     36.004  37.978332     4.1238      7.697   153.1817 1.2555e+02     1.7505      0.287      0.417    27.7299   996.3316 0.0000e+00
      0.291      0.003     7.3835     93.895     35.994  37.966270     4.1147      7.695   152.8679 1.2465e+02     1.7515      0.286      0.414    27.7298   996.3316 0.0000e+00
      0.289      0.001     7.3651     93.658     35.994  37.964597     4.0971      7.694   152.6651 1.2249e+02     1.7939      0.283      0.410    27.7309   996.3313 0.0000e+00
      0.288      0.000     7.3533     93.503     35.989  37.958097     4.0841      7.694   152.7087 1.2123e+02     1.8041      0.281      0.408    27.7342   996.3304 0.0000e+00
      0.289      0.000     7.3499     93.460     35.982  37.951163     4.0704      7.693   152.7064 1.2155e+02     1.7757      0.283      0.409    27.7353   996.3301 0.0000e+00
      0.290      0.000     7.3500     93.470     35.972  37.944233     4.0449      7.693   152.5518 1.2287e+02     1.7457      0.285      0.413    27.7341   996.3304 0.0000e+00
      0.290      0.001     7.3456     93.426     35.960  37.937780     4.0182      7.693   152.4734 1.2436e+02     1.7688      0.285      0.414    27.7320   996.3310 0.0000e+00
      0.290      0.001     7.3321     93.265     35.955  37.936625     4.0082      7.692   152.5338 1.2531e+02     1.8253      0.285      0.413    27.7281   996.3321 0.0000e+00
      0.290      0.001     7.3057     92.935     35.946  37.930275     4.0097      7.692   152.5933 1.2548e+02     1.8401      0.284      0.412    27.7278   996.3322 0.0000e+00
      0.290      0.001     7.2644     92.411     35.941  37.924489     4.0015      7.692   152.5913 1.2520e+02     1.8167      0.284      0.411    27.7344   996.3303 0.0000e+00
      0.291      0.001     7.2123     91.743     35.948  37.930149     4.0045      7.691   152.5952 1.2492e+02     1.7712      0.285      0.413    27.7436   996.3277 0.0000e+00
      0.292      0.002     7.1572     91.033     35.957  37.935224     4.0383      7.689   152.7262 1.2488e+02     1.7488      0.286      0.415    27.7505   996.3258 0.0000e+00
      0.292      0.002     7.1098     90.419     35.950  37.922364     4.0717      7.689   152.8849 1.2511e+02     1.7751      0.287      0.416    27.7538   996.3250 0.0000e+00
      0.292      0.003     7.0807     90.035     35.935  37.901605     4.0791      7.689   152.9657 1.2537e+02     1.8273      0.286      0.414    27.7536   996.3249 0.0000e+00
      0.293      0.003     7.0713     89.908     35.913  37.874646     4.0846      7.689   153.1010 1.2577e+02     1.8557      0.286      0.415    27.7498   996.3259 0.0000e+00
      0.294      0.003     7.0767     89.975     35.891  37.850305     4.1029      7.688   153.2302 1.2657e+02     1.8241      0.288      0.418    27.7445   996.3275 0.0000e+00
      0.295      0.003     7.0902     90.150     35.900  37.861201     4.1100      7.687   153.3227 1.2765e+02     1.8052      0.289      0.420    27.7372   996.3295 0.0000e+00
      0.296      0.004     7.1050     90.345     35.914  37.879434     4.1178      7.686   153.5312 1.2880e+02     1.8241      0.291      0.422    27.7281   996.3321 0.0000e+00
      0.296      0.005     7.1156     90.486     35.912  37.880334     4.1111      7.685   153.7731 1.2948e+02     1.8224      0.291      0.422    27.7226   996.3337 0.0000e+00
      0.296      0.007     7.1134     90.455     35.906  37.872093     4.0722      7.683   153.9241 1.2913e+02     1.7852      0.289      0.420    27.7214   996.3340 0.0000e+00
      0.296      0.008     7.0913     90.151     35.888  37.843264     4.0546      7.679   154.0662 1.2759e+02     1.7348      0.289      0.419    27.7237   996.3333 0.0000e+00
      0.300      0.008     7.0454     89.530     35.851  37.785658     4.0719      7.676   154.2865 1.2553e+02     1.7383      0.294      0.426    27.7294   996.3318 0.0000e+00
      0.305      0.007     6.9773     88.622     35.832  37.746830     4.0986      7.673   154.5226 1.2383e+02     1.7940      0.300      0.435    27.7348   996.3303 0.0000e+00
      0.309      0.006     6.8981     87.585     35.852  37.754623     4.1177      7.673   154.6843 1.2268e+02     1.8182      0.304      0.440    27.7346   996.3304 0.0000e+00
      0.309      0.004     6.8192     86.574     35.854  37.752910     4.1210      7.673   154.7783 1.2208e+02     1.8015      0.304      0.441    27.7217   996.3340 0.0000e+00
      0.308      0.002     6.7505     85.706     35.827  37.726106     4.1214      7.672   154.8858 1.2189e+02     1.7556      0.301      0.436    27.6938   996.3418 0.0000e+00
      0.306      0.000     6.6988     85.056     35.786  37.684441     4.1391      7.671   155.1233 1.2209e+02     1.7231      0.299      0.433    27.6616   996.3508 0.0000e+00
      0.306     -0.001     6.6631     84.597     35.736  37.629998     4.1704      7.670   155.3271 1.2272e+02     1.7685      0.300      0.434    27.6413   996.3566 0.0000e+00
      0.307     -0.001     6.6384     84.269     35.690  37.575642     4.1884      7.670   155.3704 1.2358e+02     1.8134      0.301      0.437    27.6371   996.3577 0.0000e+00
      0.308     -0.001     6.6177     83.989     35.660  37.535019     4.1914      7.671   155.4742 1.2451e+02     1.8070      0.303      0.439    27.6431   996.3560 0.0000e+00
      0.308     -0.001     6.5935     83.663     35.654  37.519658     4.1893      7.672   155.7223 1.2507e+02     1.8218      0.302      0.438    27.6488   996.3544 0.0000e+00
      0.307     -0.001     6.5635     83.265     35.659  37.516844     4.1890      7.673   156.0474 1.2516e+02     1.8280      0.301      0.436    27.6458   996.3553 0.0000e+00
      0.305     -0.001     6.5281     82.803     35.650  37.500981     4.1967      7.673   156.3075 1.2479e+02     1.7835      0.298      0.432    27.6351   996.3582 0.0000e+00
      0.304      0.000     6.4863     82.261     35.612  37.454797     4.1966      7.673   156.4574 1.2403e+02     1.7427      0.297      0.431    27.6217   996.3620 0.0000e+00
      0.305      0.000     6.4391     81.651     35.568  37.402751     4.1880      7.674   156.4832 1.2331e+02     1.7286      0.299      0.433    27.6091   996.3655 0.0000e+00
      0.307     -0.000     6.3875     80.984     35.551  37.379485     4.1876      7.674   156.4475 1.2301e+02     1.7444      0.301      0.437    27.5977   996.3687 0.0000e+00
      0.308     -0.001     6.3329     80.280     35.542  37.363896     4.1918      7.673   156.5419 1.2341e+02     1.7698      0.303      0.439    27.5884   996.3714 0.0000e+00
      0.307     -0.002     6.2796     79.594     35.526  37.341214     4.1943      7.672   156.6783 1.2451e+02     1.7738      0.302      0.438    27.5807   996.3735 0.0000e+00
      0.305     -0.002     6.2298     78.949     35.550  37.359122     4.2005      7.672   156.8922 1.2633e+02     1.7926      0.299      0.435    27.5728   996.3756 0.0000e+00
      0.303     -0.002     6.1839     78.354     35.585  37.389986     4.2153      7.672   157.2357 1.2865e+02     1.8322      0.297      0.431    27.5650   996.3777 0.0000e+00
      0.302     -0.000     6.1425     77.819     35.597  37.397003     4.2352      7.671   157.5612 1.3075e+02     1.8273      0.296      0.429    27.5569   996.3801 0.0000e+00
      0.302      0.005     6.1070     77.362     35.646  37.443959     4.2496      7.669   157.7314 1.3193e+02     1.7986      0.296      0.429    27.5478   996.3827 0.0000e+00
      0.302      0.013     6.0795     77.015     35.711  37.513402     4.2515      7.666   157.9166 1.3184e+02     1.7808      0.295      0.428    27.5392   996.3851 0.0000e+00
      0.305      0.024     6.0620     76.802     35.730  37.538417     4.2405      7.662   158.3379 1.3146e+02     1.7432      0.299      0.433    27.5294   996.3878 0.0000e+00
      0.311      0.034     6.0585     76.762     35.684  37.492520     4.2295      7.655   158.7817 1.3171e+02     1.7368      0.304      0.441    27.5203   996.3904 0.0000e+00
      0.321      0.043     6.0671     76.857     35.606  37.402795     4.2300      7.649   159.2387 1.3196e+02     1.8013      0.311      0.452    27.5144   996.3921 0.0000e+00
      0.337      0.048     6.0753     76.943     35.557  37.342188     4.2387      7.648   159.7332 1.3191e+02     1.8352      0.329      0.477    27.5126   996.3927 0.0000e+00
      0.356      0.051     6.0715     76.890     35.549  37.330976     4.2650      7.651   160.2010 1.3222e+02     1.7866      0.351      0.510    27.5249   996.3894 0.0000e+00
      0.371      0.051     6.0551     76.683     35.609  37.394174     4.2974      7.654   160.8510 1.3237e+02     1.7379      0.366      0.530    27.5354   996.3865 0.0000e+00
      0.381      0.052     6.0307     76.376     35.742  37.535037     4.3000      7.654   161.7413 1.3160e+02     1.7383      0.374      0.542    27.5166   996.3918 0.0000e+00
      0.390      0.055     6.0044     76.052     35.835  37.637704     4.2968      7.650   162.5330 1.3049e+02     1.7580      0.381      0.553    27.4990   996.3967 0.0000e+00
      0.400      0.062     5.9870     75.839     35.875  37.683400     4.3016      7.642   163.1960 1.2927e+02     1.7800      0.391      0.567    27.5000   996.3964 0.0000e+00
      0.415      0.073     5.9865     75.832     35.897  37.706708     4.2977      7.632   163.9070 1.2760e+02     1.8402      0.405      0.586    27.5027   996.3957 0.0000e+00
      0.436      0.085     6.0079     76.110     35.854  37.665608     4.3014      7.623   164.5047 1.2519e+02     1.9285      0.425      0.617    27.4980   996.3972 0.0000e+00
      0.461      0.095     6.0512     76.690     35.745  37.567326     4.3119      7.622   164.9170 1.2260e+02     1.9960      0.452      0.655    27.5079   996.3946 0.0000e+00
      0.490      0.098     6.1051     77.422     35.629  37.470535     4.3215      7.626   165.1920 1.1945e+02     2.0331      0.478      0.693    27.5197   996.3914 0.0000e+00
      0.522      0.096     6.1581     78.142     35.584  37.447471     4.3391      7.631   165.5066 1.1525e+02     1.9836      0.514      0.746    27.5096   996.3944 0.0000e+00
      0.551      0.089     6.2061     78.780     35.599  37.478924     4.3599      7.638   165.9675 1.1171e+02     1.8564      0.545      0.790    27.5134   996.3935 0.0000e+00
      0.572      0.081     6.2483     79.325     35.647  37.533485     4.3654      7.645   166.3772 1.0858e+02     1.7725      0.562      0.815    27.5359   996.3872 0.0000e+00
      0.587      0.075     6.2853     79.795     35.710  37.599372     4.3616      7.650   166.6745 1.0521e+02     1.7560      0.576      0.836    27.5784   996.3754 0.0000e+00
      0.599      0.072     6.3227     80.269     35.749  37.640806     4.3839      7.654   167.0660 1.0221e+02     1.7560      0.587      0.852    27.6191   996.3641 0.0000e+00
      0.614      0.073     6.3658     80.819     35.760  37.653609     4.4177      7.657   167.4984 9.9513e+01     1.7397      0.601      0.872    27.6381   996.3588 0.0000e+00
      0.632      0.076     6.4163     81.450     35.740  37.627222     4.4241      7.658   167.8582 9.7315e+01     1.7229      0.618      0.896    27.6429   996.3574 0.0000e+00
      0.656      0.079     6.4704     82.110     35.704  37.575655     4.4260      7.658   168.2323 9.5665e+01     1.7174      0.643      0.931    27.6380   996.3589 0.0000e+00
      0.682      0.079     6.5130     82.625     35.680  37.537896     4.4490      7.659   168.4947 9.4340e+01     1.7383      0.670      0.971    27.6372   996.3594 0.0000e+00
      0.706      0.077     6.5286     82.812     35.697  37.551507     4.4766      7.659   168.7082 9.3164e+01     1.7789      0.694      1.007    27.6437   996.3576 0.0000e+00
      0.724      0.074     6.5146     82.636     35.755  37.613264     4.4906      7.659   169.0925 9.1849e+01     1.7820      0.713      1.033    27.6407   996.3585 0.0000e+00
      0.738      0.070     6.4785     82.179     35.789  37.649849     4.4886      7.656   169.5278 9.0321e+01     1.7428      0.725      1.051    27.6142   996.3659 0.0000e+00
      0.752      0.068     6.4272     81.525     35.756  37.613012     4.4796      7.654   169.9278 8.8577e+01     1.6979      0.736      1.067    27.5924   996.3722 0.0000e+00
      0.768      0.067     6.3661     80.742     35.699  37.548716     4.4757      7.652   170.2290 8.6576e+01     1.6985      0.751      1.090    27.5897   996.3730 0.0000e+00
      0.788      0.067     6.3013     79.909     35.664  37.507191     4.4849      7.650   170.4159 8.4546e+01     1.7496      0.773      1.121    27.5925   996.3723 0.0000e+00
      0.808      0.067     6.2363     79.074     35.655  37.491773     4.4960      7.650   170.6387 8.2753e+01     1.7912      0.793      1.150    27.5944   996.3719 0.0000e+00
      0.827      0.067     6.1753     78.289     35.658  37.489237     4.4967      7.650   170.7714 8.1164e+01     1.7758      0.812      1.177    27.5913   996.3728 0.0000e+00
      0.843      0.066     6.1226     77.611     35.651  37.476522     4.4937      7.650   170.8161 7.9729e+01     1.7596      0.827      1.200    27.5848   996.3746 0.0000e+00
      0.857      0.064     6.0789     77.047     35.645  37.464971     4.4942      7.651   171.0076 7.8466e+01     1.7919      0.840      1.218    27.5768   996.3769 0.0000e+00
      0.872      0.062     6.0418     76.568     35.660  37.476522     4.4950      7.651   171.2803 7.7472e+01     1.8068      0.854      1.239    27.5686   996.3793 0.0000e+00
      0.887      0.062     6.0102     76.156     35.677  37.489228     4.4935      7.651   171.5313 7.6806e+01     1.7754      0.869      1.261    27.5609   996.3816 0.0000e+00
      0.905      0.062     5.9842     75.819     35.684  37.491642     4.5111      7.651   171.8057 7.6385e+01     1.7402      0.887      1.288    27.5531   996.3838 0.0000e+00
      0.921      0.063     5.9640     75.556     35.701  37.505701     4.5436      7.652   172.0171 7.6050e+01     1.7422      0.904      1.311    27.5468   996.3857 0.0000e+00
      0.936      0.063     5.9484     75.352     35.730  37.532253     4.5576      7.654   172.1943 7.5664e+01     1.7667      0.918      1.331    27.5406   996.3875 0.0000e+00
      0.952      0.064     5.9363     75.195     35.757  37.558776     4.5587      7.657   172.4852 7.5314e+01     1.7733      0.934      1.354    27.5322   996.3899 0.0000e+00
      0.968      0.066     5.9273     75.083     35.769  37.572486     4.5216      7.660   172.8674 7.5065e+01     1.8218      0.950      1.378    27.5251   996.3920 0.0000e+00
      0.984      0.069     5.9229     75.032     35.765  37.571069     4.4391      7.662   173.2014 7.4789e+01     1.9275      0.964      1.398    27.5203   996.3934 0.0000e+00
      1.002      0.071     5.9224     75.026     35.737  37.541650     4.3849      7.663   173.4274 7.4470e+01     1.9697      0.981      1.423    27.5146   996.3950 0.0000e+00
      1.022      0.071     5.9202     74.985     35.676  37.470683     4.3769      7.663   173.7066 7.4206e+01     1.9717      1.001      1.452    27.5120   996.3958 0.0000e+00
      1.042      0.070     5.9112     74.851     35.630  37.411225     4.4213      7.662   173.9952 7.4066e+01     2.0175      1.023      1.483    27.5134   996.3956 0.0000e+00
      1.062      0.067     5.8947     74.623     35.623  37.393991     4.4964      7.660   174.1637 7.4046e+01     2.0645      1.042      1.511    27.5201   996.3938 0.0000e+00
      1.078      0.064     5.8695     74.294     35.624  37.389241     4.5302      7.660   174.2813 7.4011e+01     2.0483      1.057      1.534    27.5227   996.3931 0.0000e+00
      1.092      0.061     5.8360     73.862     35.655  37.417261     4.5443      7.659   174.3852 7.3965e+01     1.9855      1.071      1.553    27.5099   996.3967 0.0000e+00
      1.105      0.060     5.7988     73.385     35.716  37.478871     4.6238      7.658   174.4729 7.4023e+01     1.9609      1.083      1.571    27.4911   996.4020 0.0000e+00
      1.119      0.061     5.7625     72.925     35.736  37.499419     4.7546      7.657   174.5674 7.4168e+01     1.9801      1.096      1.590    27.4774   996.4059 0.0000e+00
      1.134      0.064     5.7292     72.508     35.711  37.475282     4.8256      7.657   174.7542 7.4382e+01     1.9886      1.112      1.612    27.4706   996.4080 0.0000e+00
      1.151      0.066     5.7014     72.157     35.678  37.440937     4.8314      7.659   175.0099 7.4612e+01     1.9649      1.128      1.636    27.4654   996.4095 0.0000e+00
      1.171      0.066     5.6782     71.855     35.645  37.401522     4.8595      7.663   175.1648 7.4801e+01     1.9554      1.148      1.665    27.4589   996.4113 0.0000e+00
      1.190      0.065     5.6545     71.544     35.630  37.379547     4.9223      7.666   175.2506 7.4987e+01     1.9724      1.168      1.694    27.4592   996.4114 0.0000e+00
      1.206      0.063     5.6281     71.197     35.623  37.365653     4.9573      7.669   175.3583 7.5140e+01     1.9743      1.183      1.716    27.4662   996.4095 0.0000e+00
      1.220      0.060     5.5979     70.804     35.624  37.360475     4.9543      7.672   175.4343 7.5288e+01     1.9776      1.198      1.736    27.4662   996.4095 0.0000e+00
      1.234      0.057     5.5633     70.358     35.648  37.380404     4.9462      7.676   175.5669 7.5490e+01     1.9797      1.210      1.754    27.4586   996.4117 0.0000e+00
      1.248      0.056     5.5275     69.896     35.686  37.416185     4.9461      7.678   175.7576 7.5666e+01     1.9675      1.223      1.773    27.4492   996.4144 0.0000e+00
      1.262      0.056     5.4965     69.493     35.809  37.539191     4.9527      7.679   175.8476 7.5794e+01     1.9614      1.238      1.795    27.4382   996.4176 0.0000e+00
      1.275      0.056     5.4920     69.394     36.071  37.788583     4.9566      7.682   175.8802 7.5921e+01     1.9710      1.250      1.813    27.4306   996.4196 0.0000e+00
      1.290      0.057     5.5997     70.601     36.373  38.019481     4.9587      7.685   175.9793 7.6095e+01     1.9853      1.264      1.833    27.4233   996.4218 0.0000e+00
      1.305      0.058     5.9550     74.792     36.604  38.109179     4.9694      7.687   176.1861 7.6291e+01     2.0348      1.281      1.858    27.4171   996.4236 0.0000e+00
      1.320      0.059     6.6167     82.797     36.751  38.111165     4.9989      7.689   176.3147 7.6437e+01     2.1445      1.295      1.878    27.4103   996.4256 0.0000e+00
      1.334      0.061     7.5044     93.678     36.846  38.106731     5.0210      7.691   176.2433 7.6546e+01     2.2304      1.308      1.897    27.4075   996.4266 0.0000e+00
      1.349      0.061     8.4633    105.508     36.914  38.118884     5.0201      7.694   176.1838 7.6746e+01     2.2537      1.322      1.917    27.3037   996.4555 0.0000e+00
      1.366      0.061     9.3500    116.516     36.944  38.131068     5.0401      7.696   176.1981 7.7015e+01     2.2622      1.339      1.941    27.0427   996.5278 0.0000e+00
      1.383      0.061    10.0850    125.688     36.936  38.127067     5.0895      7.696   176.2438 7.7205e+01     2.2682      1.358      1.968    26.8139   996.5908 0.0000e+00
      1.399      0.061    10.6341    132.533     36.942  38.133992     5.1234      7.696   176.3926 7.7348e+01     2.2599      1.373      1.989    26.6879   996.6252 0.0000e+00
      1.413      0.061    10.9778    136.776     36.971  38.151319     5.1466      7.697   176.6206 7.7508e+01     2.2605      1.386      2.010    26.6056   996.6476 0.0000e+00
      1.428      0.060    11.1324    138.629     36.987  38.146119     5.2576      7.700   176.7634 7.7662e+01     2.3085      1.400      2.031    26.5866   996.6529 0.0000e+00
      1.443      0.058    11.1522    138.799     36.998  38.134562     5.4423      7.703   176.6565 7.7799e+01     2.3817      1.415      2.053    26.6119   996.6461 0.0000e+00
      1.459      0.057    11.1038    138.134     37.020  38.138499     5.5324      7.708   176.4468 7.7941e+01     2.4249      1.430      2.076    26.6128   996.6459 0.0000e+00
      1.475      0.055    11.0369    137.236     37.030  38.130220     5.5320      7.714   176.5513 7.8051e+01     2.4701      1.447      2.099    26.5964   996.6505 0.0000e+00
      1.488      0.055    10.9717    136.357     37.019  38.097900     5.4810      7.719   177.0586 7.8103e+01     2.5015      1.460      2.117    26.5612   996.6600 0.0000e+00
      1.500      0.056    10.9126    135.557     37.006  38.065076     5.3753      7.722   177.6774 7.8110e+01     2.4767      1.472      2.134    26.5249   996.6700 0.0000e+00
      1.512      0.057    10.8602    134.846     37.010  38.050699     5.3201      7.725   178.1819 7.8143e+01     2.4659      1.483      2.150    26.5092   996.6743 0.0000e+00
      1.527      0.059    10.8171    134.261     37.025  38.050994     5.3249      7.727   178.4258 7.8265e+01     2.4691      1.496      2.169    26.4783   996.6826 0.0000e+00
      1.544      0.061    10.7876    133.857     37.053  38.068617     5.3209      7.730   178.4754 7.8370e+01     2.4493      1.515      2.197    26.4499   996.6904 0.0000e+00
      1.562      0.061    10.7784    133.717     37.065  38.073329     5.3146      7.733   178.4377 7.8413e+01     2.4231      1.533      2.222    26.4243   996.6974 0.0000e+00
      1.579      0.060    10.7904    133.852     37.042  38.044480     5.3187      7.737   178.3146 7.8433e+01     2.4141      1.548      2.245    26.3969   996.7049 0.0000e+00
      1.594      0.058    10.8176    134.173     37.039  38.037185     5.3103      7.741   178.2771 7.8424e+01     2.4398      1.564      2.268    26.3772   996.7102 0.0000e+00
      1.607      0.055    10.8480    134.523     37.059  38.048598     5.2996      7.744   178.3292 7.8383e+01     2.4718      1.576      2.286    26.3612   996.7146 0.0000e+00
      1.620      0.051    10.8683    134.748     37.074  38.055503     5.3015      7.747   178.4275 7.8322e+01     2.4738      1.588      2.305    26.3517   996.7172 0.0000e+00
      1.634      0.049    10.8738    134.805     37.079  38.057188     5.3076      7.750   178.6051 7.8259e+01     2.4628      1.602      2.324    26.3470   996.7185 0.0000e+00
      1.646      0.048    10.8679    134.713     37.034  38.005483     5.3121      7.751   178.8416 7.8235e+01     2.4374      1.614      2.341    26.3440   996.7194 0.0000e+00
      1.657      0.049    10.8584    134.505     36.933  37.874675     5.3049      7.750   179.2225 7.8180e+01     2.4284      1.625      2.358    26.3282   996.7236 0.0000e+00
      1.667      0.051    10.8502    134.196     36.868  37.745070     5.3153      7.750   179.5969 7.8047e+01     2.4858      1.634      2.369    26.3139   996.7275 0.0000e+00
      1.679      0.054    10.8400    133.778     36.918  37.707863     5.3503      7.749   179.8412 7.7935e+01     2.5410      1.645      2.386    26.3132   996.7278 0.0000e+00
      1.694      0.059    10.8182    133.228     37.036  37.742049     5.3638      7.749   180.1971 7.7818e+01     2.5389      1.661      2.410    26.3144   996.7276 0.0000e+00
      1.710      0.063    10.7738    132.483     37.131  37.777420     5.3662      7.751   180.5450 7.7662e+01     2.5259      1.677      2.433    26.2900   996.7342 0.0000e+00
      1.728      0.066    10.6992    131.457     37.141  37.754581     5.4146      7.754   180.6924 7.7456e+01     2.5479      1.694      2.457    26.1970   996.7592 0.0000e+00
      1.747      0.068    10.5948    130.080     37.011  37.592812     5.4979      7.754   180.9467 7.7261e+01     2.5762      1.714      2.486    26.0610   996.7955 0.0000e+00
      1.765      0.068    10.4752    128.438     36.758  37.281369     5.5409      7.752   181.2960 7.7116e+01     2.6051      1.732      2.512    25.9342   996.8293 0.0000e+00
      1.782      0.068    10.3587    126.744     36.536  36.972169     5.5447      7.748   181.4736 7.6914e+01     2.6341      1.748      2.535    25.8479   996.8522 0.0000e+00
      1.798      0.067    10.2701    125.360     36.434  36.773970     5.5609      7.745   181.6322 7.6699e+01     2.6648      1.764      2.557    25.8153   996.8609 0.0000e+00
      1.815      0.066    10.2596    124.928     36.419  36.662060     5.5889      7.744   181.8363 7.6546e+01     2.7476      1.779      2.580    25.7975   996.8657 0.0000e+00
      1.833      0.065    10.3739    126.009     36.424  36.571011     5.6073      7.745   181.9624 7.6416e+01     2.8161      1.797      2.606    25.7221   996.8855 0.0000e+00
      1.850      0.063    10.6299    128.803     36.383  36.434636     5.6095      7.748   182.0385 7.6247e+01     2.8052      1.815      2.632    25.5923   996.9196 0.0000e+00
      1.866      0.061    11.0172    133.183     36.323  36.282449     5.6065      7.754   182.0691 7.6002e+01     2.7791      1.831      2.656    25.4603   996.9541 0.0000e+00
      1.881      0.058    11.4955    138.674     36.315  36.190637     5.6500      7.761   182.2460 7.5750e+01     2.7959      1.847      2.677    25.3287   996.9883 0.0000e+00
      1.895      0.056    11.9997    144.515     36.340  36.149539     5.7362      7.769   182.6286 7.5535e+01     2.8446      1.858      2.695    25.1948   997.0231 0.0000e+00
      1.908      0.055    12.4641    149.937     36.339  36.102789     5.7812      7.776   183.0808 7.5338e+01     2.8764      1.871      2.713    25.0626   997.0572 0.0000e+00
      1.921      0.054    12.8478    154.437     36.335  36.069623     5.7787      7.784   183.6702 7.5173e+01     2.8849      1.883      2.732    24.9331   997.0904 0.0000e+00
      1.935      0.053    13.1333    157.760     36.359  36.065842     5.7841      7.793   184.2478 7.4933e+01     2.9471      1.897      2.752    24.8156   997.1204 0.0000e+00
      1.950      0.052    13.3211    159.894     36.381  36.057035     5.8110      7.801   184.5588 7.4572e+01     3.0386      1.914      2.776    24.7210   997.1445 0.0000e+00
      1.965      0.050    13.4215    160.992     36.377  36.026561     5.8354      7.810   184.5898 7.4279e+01     3.0738      1.928      2.797    24.6594   997.1602 0.0000e+00
      1.977      0.047    13.4483    161.224     36.322  35.951228     5.8542      7.818   184.6232 7.4084e+01     3.1108      1.939      2.811    24.6287   997.1680 0.0000e+00
      1.988      0.044    13.4232    160.799     36.244  35.844323     5.9419      7.823   184.7909 7.3807e+01     3.1913      1.949      2.826    24.5952   997.1765 0.0000e+00
      1.999      0.043    13.3695    159.952     36.199  35.749468     6.0985      7.828   184.9829 7.3499e+01     3.2599      1.960      2.843    24.5468   997.1888 0.0000e+00
      2.009      0.044    13.3068    158.949     36.205  35.692852     6.1872      7.832   185.2232 7.3247e+01     3.2851      1.970      2.858    24.5089   997.1984 0.0000e+00
      2.018      0.047    13.2547    158.078     36.241  35.667444     6.1992      7.834   185.2879 7.3021e+01     3.2989      1.980      2.871    24.4871   997.2038 0.0000e+00
      2.028      0.052    13.2392    157.647     36.267  35.632582     6.1827      7.837   184.6461 7.2805e+01     3.2957      1.988      2.884    24.4557   997.2118 0.0000e+00
      2.041      0.058    13.2797    157.861     36.289  35.588595     6.1270      7.841   183.4007 7.2455e+01     3.2800      2.000      2.902    24.3798   997.2309 0.0000e+00
      2.058      0.065    13.3811    158.781     36.351  35.579787     6.0808      7.845   182.5339 7.1972e+01     3.2721      2.018      2.926    24.2834   997.2550 0.0000e+00
      2.077      0.071    13.5412    160.388     36.433  35.589452     6.0743      7.850   182.4254 7.1520e+01     3.2664      2.036      2.952    24.2033   997.2750 0.0000e+00
      2.097      0.073    13.7434    162.503     36.491  35.578421     6.0830      7.855   182.5186 7.1099e+01     3.2765      2.056      2.981    24.1235   997.2949 0.0000e+00
      2.119      0.070    13.9661    164.896     36.543  35.573246     6.0906      7.861   182.4556 7.0622e+01     3.2960      2.078      3.013    24.0309   997.3179 0.0000e+00
      2.140      0.063    14.1943    167.421     36.601  35.590271     6.0884      7.866   182.1797 7.0187e+01     3.3053      2.100      3.046    23.9337   997.3420 0.0000e+00
      2.157      0.053    14.4153    169.945     36.625  35.593811     6.0826      7.873   181.6785 6.9933e+01     3.2908      2.118      3.071    23.8364   997.3660 0.0000e+00
      2.168      0.044    14.6191    172.300     36.593  35.552545     6.0718      7.883   181.1270 6.9780e+01     3.2835      2.127      3.085    23.7391   997.3899 0.0000e+00
      2.173      0.038    14.7939    174.253     36.535  35.472122     5.9678      7.896   180.8467 6.9700e+01     3.4137      2.131      3.092    23.6595   997.4092 0.0000e+00
      2.178      0.036    14.9261    175.606     36.490  35.383022     5.7784      7.907   180.9572 6.9623e+01     3.6852      2.134      3.096    23.6018   997.4233 0.0000e+00
      2.184      0.038    15.0064    176.288     36.464  35.300273     5.6716      7.915   181.2586 6.9427e+01     3.8467      2.140      3.104    23.5796   997.4288 0.0000e+00
      2.195      0.041    15.0263    176.263     36.453  35.233145     5.6477      7.922   181.4795 6.9132e+01     3.8261      2.151      3.120    23.5813   997.4284 0.0000e+00
      2.209      0.044    14.9890    175.638     36.468  35.205985     5.5589      7.931   181.5629 6.8717e+01     3.8947      2.165      3.140    23.5521   997.4356 0.0000e+00
      2.224      0.044    14.9143    174.683     36.507  35.225697     5.4124      7.944   181.5780 6.8288e+01     4.0871      2.181      3.163    23.4838   997.4521 0.0000e+00
      2.237      0.044    14.8243    173.626     36.499  35.217578     5.3327      7.956   181.6625 6.8003e+01     4.1521      2.196      3.185    23.3987   997.4726 0.0000e+00
      2.247      0.044    14.7431    172.623     36.397  35.107825     5.3066      7.968   181.8960 6.7779e+01     4.1567      2.205      3.199    23.3131   997.4932 0.0000e+00
      2.253      0.046    14.6955    171.810     36.321  34.977624     5.2352      7.979   182.1642 6.7466e+01     4.2738      2.210      3.203    23.2507   997.5083 0.0000e+00
      2.261      0.049    14.6821    171.245     36.349  34.912599     5.1282      7.989   182.4104 6.7060e+01     4.4215      2.216      3.214    23.2308   997.5131 0.0000e+00
      2.274      0.054    14.6810    170.898     36.406  34.892689     5.0716      7.997   182.3776 6.6585e+01     4.4666      2.229      3.234    23.2407   997.5108 0.0000e+00
      2.291      0.059    14.6790    170.732     36.409  34.863706     5.0623      8.005   181.8536 6.6066e+01     4.4268      2.247      3.258    23.2522   997.5081 0.0000e+00
      2.311      0.061    14.6781    170.681     36.369  34.815992     5.0244      8.013   181.4096 6.5557e+01     4.4645      2.266      3.288    23.1692   997.5279 0.0000e+00
      2.330      0.061    14.6863    170.676     36.267  34.696581     4.9514      8.021   181.5699 6.5159e+01     4.5955      2.285      3.315    23.0048   997.5671 0.0000e+00
      2.346      0.059    14.7155    170.698     36.067  34.435355     4.8984      8.029   181.9834 6.4873e+01     4.6670      2.302      3.339    22.8886   997.5947 0.0000e+00
      2.360      0.055    14.7700    170.730     35.888  34.132600     4.8864      8.037   182.2796 6.4587e+01     4.6730      2.314      3.358    22.8607   997.6013 0.0000e+00
      2.371      0.053    14.8373    170.746     35.811  33.891756     4.8418      8.043   182.4848 6.4324e+01     4.6026      2.325      3.372    22.8674   997.5997 0.0000e+00
      2.382      0.051    14.8986    170.706     35.828  33.744344     4.7399      8.047   182.6573 6.4087e+01     4.4716      2.335      3.387    22.8511   997.6036 0.0000e+00
      2.395      0.051    14.9014    170.089     35.913  33.682773     4.6780      8.048   182.8162 6.3826e+01     4.4316      2.348      3.406    22.7708   997.6225 0.0000e+00
      2.410      0.052    14.7981    168.383     36.008  33.654813     4.6659      8.048   182.9437 6.3514e+01     4.4468      2.363      3.427    22.5657   997.6704 0.0000e+00
      2.424      0.054    14.6274    166.051     36.039  33.596515     4.6536      8.047   183.0802 6.3151e+01     4.4268      2.377      3.448    22.3077   997.7301 0.0000e+00
      2.437      0.054    14.4460    163.679     35.996  33.485485     4.6080      8.046   183.2624 6.2719e+01     4.3528      2.389      3.465    22.0775   997.7828 0.0000e+00
      2.451      0.053    14.2669    161.328     35.974  33.391142     4.5310      8.045   183.5109 6.2222e+01     4.2413      2.403      3.485    21.8784   997.8281 0.0000e+00
      2.466      0.051    14.0893    158.992     36.006  33.344192     4.4936      8.045   183.7622 6.1731e+01     4.1931      2.418      3.507    21.7093   997.8661 0.0000e+00
      2.480      0.048    13.9230    156.810     36.034  33.298487     4.4856      8.045   183.8922 6.1264e+01     4.1960      2.433      3.529    21.5967   997.8913 0.0000e+00
      2.493      0.046    13.7786    154.922     36.015  33.219217     4.4074      8.042   184.0505 6.0877e+01     4.1455      2.446      3.547    21.5144   997.9096 0.0000e+00
      2.503      0.046    13.6604    153.374     35.925  33.083747     4.2772      8.038   184.3845 6.0573e+01     4.0734      2.455      3.560    21.4048   997.9339 0.0000e+00
      2.511      0.047    13.5699    152.134     35.816  32.929691     4.2115      8.036   184.7478 6.0174e+01     4.0449      2.461      3.570    21.2968   997.9578 0.0000e+00
      2.521      0.049    13.4952    151.052     35.757  32.816081     4.1935      8.031   185.0873 5.9627e+01     4.0314      2.471      3.583    21.1959   997.9799 0.0000e+00
      2.534      0.053    13.4272    150.085     35.713  32.725404     4.1208      8.026   185.4779 5.9020e+01     3.9428      2.484      3.603    21.1052   997.9999 0.0000e+00
      2.550      0.055    13.3706    149.285     35.684  32.658240     4.0079      8.021   185.8574 5.8350e+01     3.7926      2.500      3.627    21.0430   998.0134 0.0000e+00
      2.567      0.056    13.3349    148.687     35.715  32.638568     3.9472      8.018   186.2343 5.7724e+01     3.7222      2.519      3.653    20.9727   998.0287 0.0000e+00
      2.583      0.056    13.3289    148.381     35.753  32.614409     3.9425      8.013   186.7653 5.7241e+01     3.7472      2.535      3.676    20.8739   998.0501 0.0000e+00
      2.597      0.055    13.3494    148.384     35.750  32.556428     3.9340      8.008   187.6314 5.6867e+01     3.8329      2.547      3.695    20.8048   998.0649 0.0000e+00
      2.608      0.053    13.3859    148.586     35.752  32.508596     3.9050      8.004   188.8773 5.6522e+01     3.9394      2.558      3.709    20.7631   998.0738 0.0000e+00
      2.620      0.052    13.4273    148.826     35.779  32.480232     3.8856      8.000   190.3001 5.6124e+01     3.9860      2.568      3.726    20.6954   998.0884 0.0000e+00
      2.633      0.052    13.4682    149.014     35.836  32.467248     3.8822      7.996   191.8418 5.5656e+01     4.0027      2.582      3.745    20.6019   998.1083 0.0000e+00
      2.648      0.053    13.5084    149.151     35.931  32.478443     3.8892      7.992   193.4942 5.5153e+01     4.0437      2.597      3.766    20.5245   998.1248 0.0000e+00
      2.662      0.053    13.5399    149.187     36.026  32.488568     3.9018      7.988   195.0502 5.4699e+01     4.0549      2.612      3.788    20.4622   998.1382 0.0000e+00
      2.676      0.052    13.5494    149.030     36.068  32.462644     3.8962      7.986   196.3722 5.4238e+01     4.0065      2.624      3.806    20.3908   998.1532 0.0000e+00
      2.690      0.049    13.5244    148.581     36.066  32.418755     3.8816      7.985   197.5197 5.3729e+01     3.9836      2.637      3.825    20.3006   998.1722 0.0000e+00
      2.703      0.047    13.4610    147.766     36.010  32.338618     3.8732      7.984   198.4267 5.3292e+01     3.9742      2.652      3.846    20.1913   998.1952 0.0000e+00
      2.713      0.046    13.3724    146.627     35.892  32.191737     3.8293      7.981   198.9075 5.2907e+01     3.7626      2.662      3.861    20.0797   998.2184 0.0000e+00
      2.723      0.046    13.2701    145.262     35.788  32.038879     3.7495      7.978   199.2024 5.2478e+01     3.4231      2.669      3.871    19.9840   998.2383 0.0000e+00
      2.733      0.047    13.1605    143.791     35.693  31.886439     3.7056      7.976   199.5831 5.1973e+01     3.2781      2.679      3.886    19.9289   998.2497 0.0000e+00
      2.746      0.050    13.0526    142.347     35.609  31.744594     3.6973      7.974   199.9831 5.1390e+01     3.2555      2.693      3.905    19.9055   998.2545 0.0000e+00
      2.760      0.053    12.9479    140.952     35.582  31.656383     3.6577      7.971   200.3391 5.0791e+01     3.0845      2.705      3.925    19.8543   998.2649 0.0000e+00
      2.774      0.056    12.8485    139.635     35.564  31.581300     3.5827      7.967   200.7911 5.0180e+01     2.7825      2.719      3.944    19.7570   998.2848 0.0000e+00
      2.789      0.058    12.7661    138.520     35.503  31.471272     3.5351      7.962   201.3181 4.9525e+01     2.5865      2.735      3.966    19.6608   998.3045 0.0000e+00
      2.804      0.061    12.7081    137.665     35.422  31.341284     3.5251      7.957   201.6336 4.8892e+01     2.5509      2.751      3.990    19.5686   998.3231 0.0000e+00
      2.819      0.064    12.6717    137.029     35.349  31.215234     3.5576      7.952   201.8537 4.8305e+01     2.4822      2.764      4.010    19.4762   998.3418 0.0000e+00
      2.835      0.066    12.6524    136.568     35.280  31.089341     3.6246      7.947   202.3452 4.7662e+01     2.3128      2.778      4.030    19.3940   998.3583 0.0000e+00
      2.852      0.067    12.6419    136.202     35.280  31.024702     3.6579      7.943   203.0150 4.6949e+01     2.2076      2.797      4.057    19.3176   998.3736 0.0000e+00
      2.872      0.067    12.6293    135.826     35.400  31.068171     3.6655      7.940   203.6712 4.6252e+01     2.1928      2.817      4.085    19.2386   998.3893 0.0000e+00
      2.892      0.066    12.6105    135.406     35.654  31.234097     3.8387      7.938   204.5137 4.5615e+01     2.0355      2.837      4.114    19.1490   998.4072 0.0000e+00
      2.909      0.064    12.5823    134.914     36.096  31.571332     4.1740      7.937   205.4584 4.5111e+01     1.7476      2.855      4.139    19.0559   998.4256 0.0000e+00
      2.923      0.062    12.5435    134.317     36.756  32.099641     4.3554      7.936   206.0597 4.4725e+01     1.5957      2.867      4.158    18.9638   998.4436 0.0000e+00
      2.936      0.060    12.4927    133.584     37.471  32.671994     4.3587      7.935   206.2775 4.4330e+01     1.5425      2.879      4.176    18.8739   998.4612 0.0000e+00
      2.950      0.060    12.4168    132.579     37.949  33.033968     4.2654      7.932   206.5438 4.3870e+01     1.5314      2.892      4.195    18.7936   998.4769 0.0000e+00
      2.966      0.061    12.2832    130.960     38.176  33.176190     4.1039      7.930   207.0419 4.3375e+01     1.5920      2.907      4.217    18.7278   998.4898 0.0000e+00
      2.983      0.063    12.0461    128.237     38.326  33.249196     4.0274      7.927   207.4822 4.2852e+01     1.6198      2.925      4.243    18.6643   998.5022 0.0000e+00
      3.000      0.065    11.6644    123.980     38.506  33.345445     4.0242      7.923   207.8234 4.2329e+01     1.6049      2.942      4.267    18.5928   998.5164 0.0000e+00
      3.016      0.066    11.1338    118.154     38.697  33.451369     4.0046      7.918   208.2418 4.1857e+01     1.5764      2.958      4.290    18.5199   998.5305 0.0000e+00
      3.033      0.065    10.5000    111.261     38.837  33.514418     3.9729      7.913   208.6698 4.1367e+01     1.5378      2.974      4.314    18.4487   998.5441 0.0000e+00
      3.051      0.063     9.8175    103.887     38.996  33.599976     3.9529      7.909   209.0399 4.0806e+01     1.5307      2.991      4.337    18.3740   998.5584 0.0000e+00
      3.068      0.059     9.1332     96.537     39.116  33.660751     3.9539      7.906   209.3606 4.0287e+01     1.5559      3.009      4.364    18.2959   998.5733 0.0000e+00
      3.084      0.056     8.4933     89.704     39.021  33.551080     3.9587      7.901   209.6224 3.9896e+01     1.5480      3.025      4.387    18.2161   998.5883 0.0000e+00
      3.097      0.053     7.9254     83.692     38.796  33.352800     3.9680      7.896   209.9684 3.9571e+01     1.5009      3.037      4.405    18.1415   998.6024 0.0000e+00
      3.107      0.051     7.4520     78.728     38.413  33.040335     3.9883      7.893   210.4469 3.9232e+01     1.4778      3.047      4.419    18.0729   998.6152 0.0000e+00
      3.118      0.051     7.0970     74.997     37.629  32.375076     3.9959      7.890   210.8475 3.8860e+01     1.4980      3.057      4.433    18.0192   998.6253 0.0000e+00
      3.131      0.052     6.8621     72.446     36.758  31.591835     3.9989      7.887   211.1129 3.8515e+01     1.5164      3.071      4.454    17.9748   998.6335 0.0000e+00
      3.145      0.053     6.7436     71.024     36.385  31.185308     4.0161      7.884   211.3324 3.8180e+01     1.4053      3.084      4.473    17.9652   998.6353 0.0000e+00
      3.160      0.053     6.7502     70.887     36.452  31.140251     4.0311      7.880   211.5227 3.7789e+01     1.2026      3.098      4.493    18.0071   998.6275 0.0000e+00
      3.175      0.052     6.9009     72.300     36.512  31.110371     4.0328      7.876   211.6932 3.7404e+01     1.0971      3.114      4.516    18.0363   998.6220 0.0000e+00
      3.189      0.051     7.2142     75.447     36.248  30.823933     4.0453      7.871   211.9306 3.7114e+01     1.0805      3.127      4.536    17.9992   998.6285 0.0000e+00
      3.200      0.051     7.6722     80.094     35.753  30.342008     4.3546      7.867   212.1561 3.6882e+01     1.1988      3.138      4.553    17.8592   998.6541 0.0000e+00
      3.211      0.051     8.2072     85.515     35.402  29.979017     4.9469      7.864   212.2693 3.6622e+01     1.4131      3.148      4.567    17.6926   998.6847 0.0000e+00
      3.223      0.050     8.7422     90.925     35.262  29.798016     5.2762      7.863   212.3525 3.6318e+01     1.5084      3.160      4.583    17.5890   998.7035 0.0000e+00
      3.238      0.049     9.2369     95.918     35.182  29.676319     5.3195      7.861   212.4739 3.6008e+01     1.5329      3.175      4.605    17.5157   998.7166 0.0000e+00
      3.252      0.048     9.6897    100.479     35.132  29.586212     5.3664      7.859   212.8764 3.5754e+01     1.6754      3.190      4.627    17.4313   998.7316 0.0000e+00
      3.265      0.048    10.1052    104.644     35.124  29.533351     5.4435      7.858   213.6916 3.5569e+01     1.8881      3.202      4.645    17.3346   998.7488 0.0000e+00
      3.275      0.049    10.4732    108.304     35.119  29.481287     5.4891      7.855   214.5011 3.5422e+01     1.9744      3.212      4.659    17.2430   998.7650 0.0000e+00
      3.285      0.052    10.7857    111.370     35.082  29.400812     5.4848      7.853   214.9208 3.5235e+01     1.9651      3.221      4.671    17.1661   998.7785 0.0000e+00
      3.297      0.055    11.0442    113.858     35.052  29.321677     5.4606      7.851   215.1518 3.4979e+01     1.9725      3.232      4.687    17.1020   998.7898 0.0000e+00
      3.312      0.058    11.2505    115.800     35.073  29.285828     5.2736      7.849   215.4022 3.4714e+01     2.0960      3.247      4.709    17.0381   998.8010 0.0000e+00
      3.329      0.062    11.3968    117.154     35.123  29.284549     4.9236      7.848   215.6249 3.4417e+01     2.3117      3.264      4.734    16.9709   998.8128 0.0000e+00
      3.348      0.063    11.4705    117.813     35.183  29.306159     4.7226      7.846   215.8657 3.4127e+01     2.4178      3.283      4.762    16.9004   998.8250 0.0000e+00
      3.365      0.061    11.4560    117.673     35.241  29.356721     4.6987      7.845   216.0762 3.3931e+01     2.4281      3.301      4.788    16.8247   998.8381 0.0000e+00
      3.380      0.056    11.3489    116.743     35.220  29.388279     4.6266      7.845   216.2778 3.3745e+01     2.4359      3.315      4.808    16.7392   998.8528 0.0000e+00
      3.394      0.050    11.1799    115.250     35.113  29.370541     4.4752      7.844   216.7539 3.3544e+01     2.4472      3.330      4.829    16.6771   998.8635 0.0000e+00
      3.406      0.044    10.9921    113.488     35.006  29.332701     4.3765      7.843   217.3589 3.3394e+01     2.4660      3.342      4.848    16.6338   998.8709 0.0000e+00
      3.415      0.041    10.8158    111.666     34.983  29.311534     4.3609      7.842   217.8284 3.3249e+01     2.4670      3.349      4.858    16.6134   998.8744 0.0000e+00
      3.423      0.040    10.6664    109.877     35.066  29.304958     4.3821      7.840   218.2136 3.3110e+01     2.4582      3.357      4.869    16.7048   998.8590 0.0000e+00
      3.432      0.041    10.5419    108.181     35.233  29.316552     4.4157      7.838   218.4896 3.2987e+01     2.4580      3.365      4.881    16.8332   998.8369 0.0000e+00
      3.441      0.044    10.4274    106.644     35.379  29.324647     4.4290      7.838   218.7559 3.2831e+01     2.4646      3.373      4.893    16.9157   998.8228 0.0000e+00
      3.452      0.048    10.3138    105.287     35.394  29.275792     4.4295      7.838   219.1100 3.2625e+01     2.4734      3.384      4.909    16.9339   998.8197 0.0000e+00
      3.467      0.051    10.2064    104.077     35.387  29.233372     4.4744      7.837   219.4160 3.2370e+01     2.4327      3.399      4.930    16.8166   998.8399 0.0000e+00
      3.482      0.052    10.1034    102.925     35.455  29.255876     4.5556      7.836   219.6165 3.2127e+01     2.3331      3.416      4.954    16.5891   998.8788 0.0000e+00
      3.497      0.051     9.9995    101.827     35.516  29.294033     4.5957      7.834   219.8995 3.1922e+01     2.2518      3.430      4.975    16.4012   998.9105 0.0000e+00
      3.511      0.047     9.8982    100.836     35.524  29.314005     4.6044      7.831   220.2560 3.1744e+01     2.2368      3.443      4.994    16.3431   998.9203 0.0000e+00
      3.523      0.042     9.8061     99.955     35.492  29.307029     4.6092      7.827   220.5718 3.1614e+01     2.2506      3.456      5.012    16.3090   998.9260 0.0000e+00
      3.533      0.038     9.7276     99.187     35.438  29.273156     4.6021      7.825   221.0507 3.1512e+01     2.2540      3.466      5.027    16.2393   998.9375 0.0000e+00
      3.539      0.037     9.6601     98.513     35.370  29.221707     4.5958      7.825   221.6584 3.1387e+01     2.2451      3.471      5.034    16.2189   998.9410 0.0000e+00
      3.545      0.038     9.6063     97.940     35.268  29.129127     4.5948      7.826   222.0687 3.1245e+01     2.2095      3.476      5.041    16.2558   998.9349 0.0000e+00
      3.553      0.042     9.5738     97.431     35.237  29.042073     4.5983      7.826   222.2249 3.1065e+01     2.1836      3.483      5.052    16.2880   998.9296 0.0000e+00
      3.565      0.047     9.5472     96.796     35.408  29.057388     4.6809      7.825   222.3434 3.0828e+01     2.1621      3.494      5.068    16.3008   998.9276 0.0000e+00
      3.579      0.052     9.4868     95.787     35.658  29.123785     4.8475      7.823   222.5548 3.0587e+01     2.0799      3.510      5.091    16.3039   998.9272 0.0000e+00
      3.595      0.056     9.3673     94.267     35.823  29.146749     4.9488      7.822   222.8879 3.0351e+01     2.0089      3.526      5.114    16.3206   998.9244 0.0000e+00
      3.611      0.059     9.1851     92.205     35.923  29.144558     4.9603      7.821   223.2737 3.0101e+01     1.9924      3.541      5.136    16.2527   998.9356 0.0000e+00
      3.627      0.059     8.9358     89.585     35.997  29.160640     5.0129      7.820   223.5203 2.9832e+01     1.9789      3.557      5.159    16.0308   998.9721 0.0000e+00
      3.642      0.058     8.6268     86.455     36.078  29.214240     5.1248      7.817   223.7182 2.9561e+01     1.9759      3.572      5.181    15.8099   999.0080 0.0000e+00
      3.656      0.056     8.2695     82.817     36.196  29.285023     5.1858      7.815   224.0315 2.9304e+01     1.9895      3.585      5.200    15.6714   999.0302 0.0000e+00
      3.670      0.053     7.8846     78.847     36.299  29.318486     5.1961      7.813   224.3836 2.9022e+01     2.0120      3.598      5.218    15.5397   999.0511 0.0000e+00
      3.685      0.048     7.5099     74.990     36.339  29.301512     5.2583      7.812   224.7065 2.8741e+01     2.0189      3.614      5.243    15.4756   999.0612 0.0000e+00
      3.698      0.045     7.1614     71.464     36.325  29.270084     5.3740      7.810   225.0100 2.8539e+01     2.0066      3.628      5.263    15.4991   999.0576 0.0000e+00
      3.707      0.044     6.8413     68.304     36.285  29.255720     5.4416      7.808   225.4719 2.8356e+01     1.9944      3.637      5.274    15.4664   999.0628 0.0000e+00
      3.714      0.044     6.5603     65.585     36.228  29.254775     5.4433      7.805   226.0755 2.8153e+01     1.9704      3.643      5.283    15.3798   999.0763 0.0000e+00
      3.723      0.046     6.3331     63.418     36.164  29.258710     5.4464      7.802   226.4565 2.7921e+01     1.9783      3.650      5.293    15.2983   999.0890 0.0000e+00
      3.735      0.050     6.1814     61.968     36.175  29.303375     5.4624      7.798   226.7236 2.7632e+01     1.9923      3.662      5.311    15.2617   999.0947 0.0000e+00
      3.749      0.054     6.1289     61.392     36.345  29.414151     5.4721      7.795   227.1544 2.7274e+01     1.9745      3.676      5.332    15.2999   999.0888 0.0000e+00
      3.766      0.057     6.1782     61.725     36.584  29.519387     5.4856      7.793   227.5352 2.6813e+01     1.9924      3.691      5.354    15.3660   999.0786 0.0000e+00
      3.784      0.059     6.3016     62.786     36.751  29.560433     5.5211      7.790   227.8855 2.6392e+01     2.0129      3.712      5.384    15.4523   999.0652 0.0000e+00
      3.800      0.059     6.4502     64.165     36.859  29.593058     5.5714      7.787   228.3787 2.6085e+01     1.9934      3.728      5.407    15.5390   999.0517 0.0000e+00
      3.813      0.058     6.5672     65.268     36.983  29.659989     5.6092      7.783   228.7670 2.5783e+01     1.9860      3.739      5.423    15.4982   999.0583 0.0000e+00
      3.826      0.058     6.5984     65.470     37.148  29.735129     5.6219      7.780   228.8797 2.5501e+01     2.0219      3.751      5.441    15.3417   999.0828 0.0000e+00
      3.840      0.060     6.5140     64.457     37.353  29.803526     5.6217      7.778   228.9677 2.5211e+01     2.0338      3.765      5.459    15.1871   999.1067 0.0000e+00
      3.855      0.064     6.3189     62.323     37.557  29.852328     5.6589      7.775   229.4001 2.4872e+01     2.0636      3.780      5.482    15.1230   999.1166 0.0000e+00
      3.871      0.071     6.0251     59.234     37.736  29.880884     5.7333      7.771   229.9784 2.4507e+01     2.1861      3.796      5.506    15.1179   999.1175 0.0000e+00
      3.890      0.079     5.6503     55.364     37.904  29.894856     5.7758      7.768   230.2805 2.4097e+01     2.2694      3.813      5.530    15.0395   999.1295 0.0000e+00
      3.910      0.085     5.2238     50.986     38.078  29.894217     5.7818      7.766   230.4715 2.3672e+01     2.2843      3.834      5.560    14.9000   999.1506 0.0000e+00
      3.933      0.087     4.7685     46.363     38.223  29.872995     5.7101      7.762   230.6541 2.3201e+01     2.3332      3.856      5.591    14.7347   999.1753 0.0000e+00
      3.960      0.086     4.2930     41.616     38.295  29.828462     5.5682      7.758   230.7675 2.2693e+01     2.4014      3.883      5.631    14.5877   999.1971 0.0000e+00
      3.986      0.082     3.8143     36.902     38.345  29.799832     5.4884      7.756   230.8960 2.2287e+01     2.4212      3.912      5.673    14.4482   999.2175 0.0000e+00
      4.007      0.075     3.3593     32.447     38.393  29.780559     5.4729      7.755   231.0886 2.2006e+01     2.4092      3.932      5.703    14.2496   999.2460 0.0000e+00
      4.023      0.067     2.9400     28.350     38.477  29.785734     5.3809      7.752   231.6338 2.1787e+01     2.3551      3.946      5.723    14.0549   999.2736 0.0000e+00
      4.036      0.058     2.5678     24.718     38.652  29.862327     5.1995      7.748   232.4987 2.1599e+01     2.2584      3.958      5.741    13.9237   999.2918 0.0000e+00
      4.049      0.052     2.2565     21.688     38.829  29.945136     5.0915      7.746   233.2860 2.1423e+01     2.2234      3.971      5.758    13.8506   999.3019 0.0000e+00
      4.061      0.050     2.0095     19.289     38.909  29.962015     5.0636      7.744   234.0114 2.1239e+01     2.2589      3.983      5.776    13.7846   999.3110 0.0000e+00
      4.072      0.051     1.8300     17.553     38.911  29.939451     4.9316      7.741   234.6434 2.1037e+01     2.3602      3.994      5.792    13.7017   999.3223 0.0000e+00
      4.085      0.055     1.7219     16.515     38.892  29.926100     4.7007      7.737   234.9913 2.0832e+01     2.4977      4.006      5.810    13.6238   999.3329 0.0000e+00
      4.098      0.060     1.6662     15.988     38.873  29.927505     4.5785      7.732   235.2933 2.0615e+01     2.5777      4.018      5.828    13.5549   999.3423 0.0000e+00
      4.113      0.064     1.6380     15.723     38.897  29.956454     4.5630      7.728   235.9717 2.0319e+01     2.6395      4.031      5.847    13.4901   999.3510 0.0000e+00
      4.132      0.069     1.6295     15.640     38.985  30.022312     4.4267      7.726   236.7404 1.9944e+01     2.7859      4.050      5.875    13.4544   999.3558 0.0000e+00
      4.152      0.072     1.6370     15.708     39.085  30.089250     4.1704      7.723   237.1029 1.9594e+01     2.9707      4.072      5.907    13.4608   999.3551 0.0000e+00
      4.172      0.073     1.6580     15.901     39.164  30.131246     4.0308      7.720   237.1713 1.9268e+01     3.0393      4.091      5.934    13.4966   999.3504 0.0000e+00
      4.191      0.071     1.6890     16.193     39.203  30.149346     4.0221      7.717   237.3090 1.8894e+01     3.0249      4.109      5.960    13.5122   999.3484 0.0000e+00
      4.211      0.066     1.7169     16.464     39.234  30.181167     4.0215      7.714   237.7352 1.8544e+01     3.0263      4.130      5.990    13.5012   999.3500 0.0000e+00
      4.228      0.061     1.7324     16.621     39.314  30.262186     3.9976      7.712   238.2801 1.8296e+01     3.1220      4.148      6.017    13.4976   999.3506 0.0000e+00
      4.241      0.058     1.7348     16.653     39.345  30.304050     3.9595      7.710   238.7348 1.8112e+01     3.2639      4.160      6.034    13.4593   999.3558 0.0000e+00
      4.252      0.057     1.7221     16.536     39.417  30.370080     3.9420      7.707   239.0175 1.7941e+01     3.3004      4.170      6.048    13.4382   999.3587 0.0000e+00
      4.263      0.059     1.6984     16.302     39.838  30.679825     3.9419      7.704   239.2034 1.7707e+01     3.3019      4.179      6.062    13.4556   999.3564 0.0000e+00
      4.277      0.063     1.6749     16.046     40.682  31.257102     3.8882      7.702   239.3475 1.7388e+01     3.3796      4.193      6.082    13.4849   999.3526 0.0000e+00
      4.295      0.068     1.6592     15.837     41.606  31.829026     3.7780      7.698   239.4690 1.7024e+01     3.5194      4.211      6.108    13.5107   999.3493 0.0000e+00
      4.316      0.073     1.6519     15.690     41.997  31.946948     3.7109      7.694   239.7256 1.6631e+01     3.5822      4.232      6.138    13.5269   999.3471 0.0000e+00
      4.338      0.075     1.6482     15.572     41.806  31.603902     3.7018      7.690   239.9554 1.6235e+01     3.5496      4.255      6.170    13.5331   999.3465 0.0000e+00
      4.358      0.074     1.6346     15.366     41.482  31.171320     3.6929      7.686   240.0968 1.5868e+01     3.6487      4.274      6.198    13.4454   999.3585 0.0000e+00
      4.377      0.072     1.5878     14.862     41.258  30.841212     3.6731      7.681   240.3165 1.5560e+01     3.8628      4.294      6.228    13.2683   999.3823 0.0000e+00
      4.395      0.068     1.4933     13.930     41.183  30.658366     3.6618      7.677   240.7188 1.5292e+01     3.9763      4.310      6.252    13.0388   999.4120 0.0000e+00
      4.411      0.061     1.3614     12.666     41.243  30.610276     3.6519      7.672   241.4330 1.5003e+01     4.0045      4.325      6.273    12.7881   999.4434 0.0000e+00
      4.427      0.054     1.2179     11.311     41.454  30.703844     3.6228      7.667   242.2415 1.4700e+01     4.0075      4.342      6.297    12.5578   999.4715 0.0000e+00
      4.443      0.050     1.0926     10.134     41.866  30.964694     3.5957      7.662   242.8360 1.4490e+01     4.0126      4.359      6.323    12.3571   999.4956 0.0000e+00
      4.453      0.052     1.0136      9.390     42.194  31.162406     3.5924      7.659   243.2868 1.4428e+01     4.0341      4.369      6.338    12.2061   999.5134 0.0000e+00
      4.458      0.057     0.9973      9.226     42.129  31.063692     3.5918      7.656   243.7347 1.4345e+01     4.0370      4.371      6.339    12.0931   999.5265 0.0000e+00
      4.467      0.064     1.0424      9.630     41.821  30.786407     3.5713      7.651   244.0356 1.4052e+01     4.2436      4.377      6.347    12.0215   999.5348 0.0000e+00
      4.487      0.071     1.1320     10.445     41.544  30.538377     3.5353      7.647   244.2573 1.3585e+01     4.6644      4.397      6.378    11.9803   999.5398 0.0000e+00
      4.512      0.077     1.2379     11.410     41.425  30.412606     3.5125      7.644   244.6948 1.3103e+01     4.8975      4.425      6.418    11.9297   999.5458 0.0000e+00
      4.538      0.079     1.3299     12.249     41.288  30.280974     3.5208      7.640   245.1095 1.2678e+01     4.9322      4.451      6.456    11.8639   999.5533 0.0000e+00
      4.562      0.078     1.3971     12.855     40.981  30.025526     3.5671      7.637   245.2278 1.2324e+01     4.9530      4.476      6.492    11.8007   999.5604 0.0000e+00
      4.581      0.074     1.4532     13.355     40.733  29.798698     3.9766      7.633   245.1787 1.2103e+01     5.2790      4.495      6.519    11.7521   999.5657 0.0000e+00
      4.593      0.068     1.5176     13.925     40.669  29.695793     4.7265      7.630   245.2033 1.1919e+01     5.9248      4.504      6.532    11.6999   999.5715 0.0000e+00
      4.607      0.063     1.6029     14.687     40.703  29.669606     5.1433      7.626   245.5250 1.1627e+01     6.2721      4.515      6.548    11.6655   999.5754 0.0000e+00
      4.624      0.058     1.7208     15.751     40.756  29.672380     5.1930      7.622   246.0578 1.1316e+01     6.3001      4.534      6.578    11.6402   999.5780 0.0000e+00
      4.642      0.054     1.8774     17.173     40.779  29.665839     5.1805      7.620   246.3973 1.1057e+01     6.6235      4.552      6.603    11.5809   999.5845 0.0000e+00
      4.658      0.052     2.0723     18.950     40.867  29.717394     5.1470      7.619   246.4458 1.0852e+01     7.2650      4.569      6.626    11.5035   999.5930 0.0000e+00
      4.669      0.050     2.2965     21.003     41.046  29.851534     5.1352      7.618   246.5585 1.0730e+01     7.6339      4.581      6.643    11.4358   999.6003 0.0000e+00
      4.677      0.050     2.5290     23.146     41.241  30.018658     5.1154      7.617   246.8131 1.0613e+01     7.7083      4.585      6.651    11.3946   999.6047 0.0000e+00
      4.686      0.052     2.7469     25.176     41.442  30.215213     4.9083      7.615   246.9441 1.0413e+01     8.0331      4.593      6.662    11.3677   999.6076 0.0000e+00
      4.699      0.057     2.9299     26.905     41.497  30.324478     4.5381      7.612   246.9374 1.0174e+01     8.6116      4.608      6.684    11.3483   999.6097 0.0000e+00
      4.715      0.063     3.0672     28.220     41.229  30.197658     4.3409      7.610   246.9902 9.9276e+00     8.9351      4.624      6.706    11.3511   999.6096 0.0000e+00
      4.734      0.069     3.1582     29.086     40.841  29.951016     4.3362      7.608   247.1523 9.6412e+00     8.9955      4.641      6.732    11.3805   999.6066 0.0000e+00
      4.754      0.072     3.1999     29.458     40.590  29.753658     4.4465      7.607   247.3481 9.3419e+00     9.0132      4.663      6.763    11.4433   999.6002 0.0000e+00
      4.774      0.072     3.1883     29.307     40.438  29.588113     4.6518      7.606   247.4641 9.0572e+00     8.9862      4.682      6.790    11.5329   999.5907 0.0000e+00
      4.794      0.068     3.1348     28.743     40.400  29.472237     4.7647      7.604   247.6093 8.7897e+00     8.9632      4.702      6.820    11.6342   999.5796 0.0000e+00
      4.813      0.063     3.0671     28.037     40.493  29.431204     4.7712      7.603   247.9850 8.5886e+00     8.9645      4.722      6.848    11.6930   999.5731 0.0000e+00
      4.828      0.058     3.0193     27.527     40.589  29.409134     4.6513      7.602   248.4788 8.4340e+00     8.9367      4.735      6.867    11.6631   999.5764 0.0000e+00
      4.840      0.054     3.0233     27.516     40.653  29.395647     4.4080      7.601   248.8468 8.2958e+00     8.8562      4.746      6.885    11.5962   999.5837 0.0000e+00
      4.850      0.052     3.0985     28.171     40.702  29.394977     4.2651      7.600   248.9940 8.1608e+00     8.7781      4.756      6.898    11.4872   999.5955 0.0000e+00
      4.861      0.053     3.2585     29.611     40.735  29.400988     4.2420      7.599   249.1397 7.9899e+00     8.7456      4.766      6.913    11.3264   999.6127 0.0000e+00
      4.874      0.056     3.5047     31.845     40.746  29.404861     4.2070      7.597   249.4039 7.7943e+00     8.7581      4.779      6.931    11.2083   999.6252 0.0000e+00
      4.890      0.059     3.8128     34.642     40.713  29.378351     3.8766      7.594   249.6936 7.5889e+00     9.0939      4.794      6.954    11.1435   999.6320 0.0000e+00
      4.908      0.061     4.1477     37.671     40.668  29.334265     3.2729      7.591   249.8895 7.3886e+00     9.7245      4.812      6.980    11.1003   999.6365 0.0000e+00
      4.925      0.061     4.4724     40.602     40.664  29.315966     2.9409      7.591   249.8791 7.2019e+00    10.0580      4.830      7.006    11.0777   999.6389 0.0000e+00
      4.941      0.059     4.7561     43.164     40.725  29.347442     2.9064      7.590   249.8258 7.0185e+00    10.0781      4.846      7.029    11.0793   999.6389 0.0000e+00
      4.956      0.055     4.9806     45.191     40.805  29.397560     2.8371      7.588   249.9339 6.8334e+00     9.9677      4.860      7.049    11.0836   999.6384 0.0000e+00
      4.970      0.051     5.1409     46.640     40.835  29.414315     2.7015      7.586   250.3258 6.6680e+00     9.7714      4.874      7.070    11.0642   999.6405 0.0000e+00
      4.982      0.050     5.2426     47.559     40.851  29.423115     2.6197      7.584   250.7783 6.5543e+00     9.6719      4.887      7.086    11.0420   999.6428 0.0000e+00
      4.992      0.050     5.2933     48.017     40.878  29.440507     2.6031      7.582   251.0178 6.4625e+00     9.6489      4.895      7.098    11.0264   999.6445 0.0000e+00
      5.003      0.052     5.3041     48.114     40.870  29.434234     2.5173      7.580   251.2416 6.3438e+00     9.4936      4.905      7.113    11.0175   999.6454 0.0000e+00
      5.016      0.057     5.2926     48.009     40.838  29.410729     2.3454      7.579   251.5060 6.1833e+00     9.1703      4.918      7.131    11.0134   999.6459 0.0000e+00
      5.031      0.063     5.2753     47.852     40.837  29.410115     2.2411      7.577   251.7195 6.0055e+00     8.9523      4.933      7.154    11.0100   999.6463 0.0000e+00
      5.047      0.069     5.2578     47.692     40.861  29.426806     2.2366      7.575   251.9300 5.8143e+00     8.9213      4.948      7.177    11.0081   999.6466 0.0000e+00
      5.065      0.073     5.2393     47.524     40.855  29.422182     2.2644      7.573   252.1584 5.5809e+00     8.8618      4.966      7.203    11.0065   999.6469 0.0000e+00
      5.088      0.074     5.2198     47.347     40.849  29.417662     2.3000      7.571   252.3303 5.3408e+00     8.6908      4.989      7.237    11.0062   999.6470 0.0000e+00
      5.110      0.072     5.2010     47.178     40.872  29.435604     2.3121      7.569   252.3733 5.1484e+00     8.5583      5.013      7.270    11.0063   999.6471 0.0000e+00
      5.130      0.067     5.1831     47.020     40.887  29.448767     2.3058      7.568   252.4205 5.0041e+00     8.5055      5.032      7.298    11.0061   999.6472 0.0000e+00
      5.145      0.061     5.1660     46.867     40.885  29.449903     2.2930      7.566   252.6424 4.8801e+00     8.5442      5.047      7.320    11.0057   999.6473 0.0000e+00
      5.157      0.054     5.1501     46.723     40.885  29.449345     2.2704      7.564   252.9053 4.7441e+00     8.6655      5.058      7.335    11.0054   999.6474 0.0000e+00
      5.169      0.049     5.1364     46.596     40.876  29.442022     2.2581      7.562   253.0178 4.5919e+00     8.7271      5.070      7.351    11.0054   999.6474 0.0000e+00
      5.181      0.046     5.1277     46.513     40.856  29.424814     2.2571      7.561   253.0560 4.4569e+00     8.7321      5.081      7.370    11.0098   999.6471 0.0000e+00
      5.191      0.046     5.1216     46.453     40.870  29.431632     2.2495      7.558   253.1948 4.3492e+00     8.7254      5.091      7.384    11.0139   999.6467 0.0000e+00
      5.202      0.047     5.1144     46.385     40.915  29.461003     2.2450      7.556   253.4055 4.2507e+00     8.6789      5.101      7.398    11.0127   999.6468 0.0000e+00
      5.214      0.049     5.1077     46.322     40.920  29.462666     2.2447      7.555   253.6255 4.1455e+00     8.5954      5.113      7.415    11.0116   999.6470 0.0000e+00
      5.227      0.049     5.1029     46.277     40.906  29.451745     2.2382      7.553   253.8751 4.0157e+00     8.5361      5.126      7.434    11.0077   999.6475 0.0000e+00
      5.242      0.048     5.1000     46.249     40.914  29.455858     2.2359      7.551   254.1001 3.8829e+00     8.5186      5.140      7.456    11.0027   999.6480 0.0000e+00
      5.255      0.047     5.0976     46.225     40.905  29.448947     2.2426      7.549   254.2820 3.7850e+00     8.5798      5.155      7.476    11.0000   999.6483 0.0000e+00
      5.266      0.047     5.0939     46.190     40.882  29.431633     2.2493      7.548   254.4391 3.7092e+00     8.7198      5.166      7.492    10.9981   999.6486 0.0000e+00
      5.276      0.047     5.0903     46.158     40.890  29.436872     2.2485      7.545   254.6240 3.6412e+00     8.7696      5.175      7.506    10.9963   999.6488 0.0000e+00
      5.286      0.048     5.0893     46.148     40.908  29.448832     2.2322      7.543   254.8830 3.5521e+00     8.7230      5.182      7.516    10.9944   999.6491 0.0000e+00
      5.297      0.051     5.0885     46.140     40.909  29.449342     2.1651      7.541   255.1608 3.4221e+00     8.6808      5.193      7.532    10.9937   999.6493 0.0000e+00
      5.312      0.056     5.0850     46.108     40.901  29.443034     2.0619      7.540   255.3160 3.2971e+00     8.6192      5.210      7.556    10.9928   999.6494 0.0000e+00
      5.328      0.061     5.0792     46.055     40.892  29.436018     2.0161      7.539   255.3830 3.1887e+00     8.5683      5.225      7.577    10.9917   999.6496 0.0000e+00
      5.345      0.066     5.0745     46.011     40.882  29.427953     2.0188      7.537   255.5395 3.0698e+00     8.5572      5.241      7.601    10.9914   999.6497 0.0000e+00
      5.363      0.067     5.0733     45.999     40.857  29.408979     1.9554      7.535   255.7462 2.9444e+00     8.5838      5.259      7.628    10.9916   999.6498 0.0000e+00
      5.381      0.066     5.0733     45.997     40.842  29.396960     1.8390      7.533   255.9035 2.8154e+00     8.6602      5.276      7.652    10.9912   999.6499 0.0000e+00
      5.399      0.065     5.0708     45.973     40.861  29.409536     1.7817      7.530   255.9783 2.6903e+00     8.7275      5.295      7.680    10.9901   999.6501 0.0000e+00
      5.416      0.064     5.0668     45.936     40.896  29.434121     1.7744      7.528   256.0492 2.5923e+00     8.7419      5.313      7.706    10.9885   999.6503 0.0000e+00
      5.430      0.062     5.0667     45.933     40.907  29.440413     1.7947      7.527   256.2444 2.5156e+00     8.7349      5.325      7.724    10.9870   999.6505 0.0000e+00
      5.444      0.059     5.0713     45.973     40.884  29.422163     1.8445      7.525   256.5313 2.4353e+00     8.7417      5.338      7.743    10.9864   999.6506 0.0000e+00
      5.460      0.056     5.0785     46.035     40.862  29.403810     1.8740      7.522   256.7652 2.3541e+00     8.7592      5.355      7.767    10.9854   999.6508 0.0000e+00
      5.476      0.054     5.0859     46.099     40.872  29.408860     1.8819      7.519   256.9204 2.2883e+00     8.7495      5.371      7.790    10.9841   999.6511 0.0000e+00
      5.489      0.053     5.0888     46.123     40.889  29.419773     1.8798      7.517   257.1177 2.2357e+00     8.7223      5.383      7.807    10.9823   999.6513 0.0000e+00
      5.501      0.051     5.0889     46.124     40.874  29.408850     1.8312      7.514   257.3441 2.1951e+00     8.7248      5.396      7.825    10.9799   999.6516 0.0000e+00
      5.513      0.051     5.0902     46.136     40.867  29.403696     1.7540      7.512   257.5064 2.1555e+00     8.7477      5.407      7.842    10.9768   999.6519 0.0000e+00
      5.525      0.052     5.0936     46.166     40.892  29.420906     1.7179      7.511   257.6184 2.1014e+00     8.7692      5.418      7.858    10.9737   999.6523 0.0000e+00
      5.538      0.052     5.0961     46.186     40.903  29.426579     1.7145      7.509   257.7511 2.0431e+00     8.7559      5.430      7.877    10.9719   999.6526 0.0000e+00
      5.553      0.051     5.0975     46.196     40.882  29.408831     1.6870      7.507   257.9925 1.9889e+00     8.7176      5.445      7.898    10.9722   999.6526 0.0000e+00
      5.568      0.049     5.1009     46.224     40.867  29.396665     1.6458      7.505   258.3004 1.9382e+00     8.7323      5.462      7.922    10.9733   999.6525 0.0000e+00
      5.581      0.048     5.1032     46.243     40.882  29.406390     1.6324      7.503   258.4614 1.8978e+00     8.7701      5.475      7.940    10.9725   999.6527 0.0000e+00
      5.591      0.048     5.1022     46.233     40.874  29.399512     1.6304      7.500   258.4776 1.8698e+00     8.7809      5.483      7.953    10.9686   999.6531 0.0000e+00
      5.601      0.047     5.0987     46.200     40.844  29.376954     1.5951      7.498   258.4966 1.8324e+00     8.8302      5.492      7.965    10.9653   999.6535 0.0000e+00
      5.612      0.046     5.0941     46.157     40.860  29.387451     1.5350      7.498   258.5191 1.7772e+00     8.9082      5.503      7.982    10.9632   999.6538 0.0000e+00
      5.625      0.045     5.0882     46.104     40.876  29.399521     1.5100      7.497   258.5770 1.7293e+00     8.9367      5.516      8.001    10.9618   999.6540 0.0000e+00
      5.639      0.044     5.0790     46.021     40.871  29.395983     1.5189      7.495   258.7668 1.6938e+00     8.9452      5.531      8.022    10.9611   999.6541 0.0000e+00
      5.652      0.042     5.0680     45.922     40.886  29.408128     1.5216      7.493   259.0073 1.6650e+00     8.9133      5.544      8.041    10.9603   999.6543 0.0000e+00
      5.662      0.040     5.0584     45.836     40.901  29.419454     1.5157      7.491   259.1616 1.6526e+00     8.8125      5.554      8.056    10.9590   999.6545 0.0000e+00
      5.669      0.038     5.0508     45.769     40.881  29.406027     1.5080      7.489   259.2559 1.6401e+00     8.7425      5.559      8.063    10.9585   999.6545 0.0000e+00
      5.676      0.038     5.0412     45.682     40.835  29.372690     1.5154      7.487   259.3725 1.6086e+00     8.7227      5.565      8.072    10.9601   999.6544 0.0000e+00
      5.685      0.039     5.0322     45.597     40.784  29.333646     1.6233      7.486   259.4526 1.5779e+00     8.7698      5.576      8.087    10.9610   999.6543 0.0000e+00
      5.696      0.041     5.0298     45.572     40.762  29.314652     1.8156      7.485   259.4501 1.5532e+00     8.8854      5.586      8.102    10.9609   999.6544 0.0000e+00
      5.708      0.043     5.0278     45.551     40.792  29.333391     1.9245      7.483   259.6007 1.5157e+00     8.9404      5.597      8.118    10.9635   999.6543 0.0000e+00
      5.721      0.045     5.0275     45.547     40.844  29.369860     1.9424      7.481   259.8968 1.4758e+00     8.9436      5.610      8.137    10.9641   999.6542 0.0000e+00
      5.733      0.046     5.0356     45.617     40.853  29.374879     1.9366      7.480   260.1045 1.4442e+00     8.9571      5.623      8.155    10.9594   999.6547 0.0000e+00
      5.744      0.047     5.0418     45.670     40.794  29.330619     1.8884      7.479   260.2197 1.4111e+00     8.9721      5.634      8.171    10.9552   999.6551 0.0000e+00
      5.755      0.048     5.0419     45.669     40.725  29.278875     1.8113      7.477   260.2571 1.3842e+00     8.9945      5.643      8.185    10.9527   999.6554 0.0000e+00
      5.767      0.051     5.0427     45.675     40.695  29.256866     1.7683      7.474   260.3838 1.3661e+00     8.9983      5.654      8.201    10.9513   999.6557 0.0000e+00
      5.780      0.055     5.0434     45.680     40.694  29.254870     1.7668      7.472   260.7193 1.3419e+00     8.9860      5.668      8.221    10.9500   999.6559 0.0000e+00
      5.794      0.057     5.0387     45.635     40.696  29.254740     1.7492      7.470   261.0444 1.2992e+00     8.9440      5.681      8.240    10.9466   999.6563 0.0000e+00
      5.810      0.058     5.0281     45.539     40.698  29.255285     1.7112      7.469   261.2169 1.2500e+00     8.8501      5.697      8.263    10.9441   999.6566 0.0000e+00
      5.828      0.057     5.0156     45.427     40.705  29.261462     1.6889      7.467   261.2570 1.2199e+00     8.7691      5.716      8.290    10.9438   999.6567 0.0000e+00
      5.844      0.056     5.0029     45.313     40.709  29.265970     1.6874      7.465   261.4435 1.2022e+00     8.7501      5.733      8.314    10.9421   999.6569 0.0000e+00
      5.857      0.055     4.9923     45.218     40.681  29.246349     1.7107      7.464   261.9228 1.1814e+00     8.8171      5.745      8.332    10.9398   999.6572 0.0000e+00
      5.869      0.056     4.9844     45.146     40.638  29.214576     1.7451      7.462   262.4067 1.1565e+00     8.9246      5.757      8.348    10.9390   999.6574 0.0000e+00
      5.880      0.061     4.9767     45.074     40.618  29.199069     1.7562      7.459   262.6478 1.1319e+00     8.9686      5.767      8.364    10.9404   999.6573 0.0000e+00
      5.891      0.067     4.9710     45.020     40.603  29.185745     1.7505      7.456   262.6007 1.0931e+00     8.9876      5.775      8.376    10.9424   999.6571 0.0000e+00
      5.908      0.072     4.9680     44.990     40.597  29.180382     1.7370      7.454   262.5253 1.0295e+00     8.9584      5.790      8.398    10.9433   999.6571 0.0000e+00
      5.934      0.074     4.9657     44.968     40.622  29.197676     1.7139      7.452   262.5968 9.6758e-01     8.8109      5.818      8.439    10.9431   999.6572 0.0000e+00
      5.961      0.073     4.9639     44.953     40.632  29.204492     1.6966      7.451   262.6911 9.2749e-01     8.7125      5.849      8.483    10.9409   999.6576 0.0000e+00
      5.982      0.069     4.9639     44.954     40.624  29.199334     1.6921      7.450   262.8042 9.0921e-01     8.7521      5.870      8.512    10.9376   999.6580 0.0000e+00
      5.996      0.063     4.9663     44.974     40.624  29.198767     1.6944      7.448   263.0185 8.9855e-01     8.7977      5.881      8.530    10.9353   999.6583 0.0000e+00
      6.006      0.057     4.9686     44.994     40.623  29.197631     1.6986      7.445   263.3027 8.7465e-01     8.7724      5.890      8.542    10.9352   999.6584 0.0000e+00
      6.016      0.053     4.9693     44.999     40.608  29.185605     1.7001      7.443   263.5737 8.4289e-01     8.7414      5.899      8.556    10.9357   999.6583 0.0000e+00
      6.029      0.053     4.9689     44.995     40.601  29.180257     1.6942      7.442   263.7141 8.1535e-01     8.7514      5.911      8.572    10.9358   999.6584 0.0000e+00
      6.044      0.054     4.9656     44.965     40.623  29.196427     1.6872      7.441   263.7086 7.9041e-01     8.7624      5.926      8.594    10.9359   999.6584 0.0000e+00
      6.061      0.054     4.9601     44.916     40.615  29.190753     1.6946      7.439   263.7653 7.6413e-01     8.7759      5.944      8.621    10.9347   999.6586 0.0000e+00
      6.076      0.053     4.9578     44.896     40.593  29.175113     1.7058      7.437   263.9700 7.3326e-01     8.7825      5.958      8.643    10.9327   999.6589 0.0000e+00
      6.090      0.050     4.9578     44.896     40.624  29.197675     1.7010      7.435   264.2044 7.1531e-01     8.7436      5.972      8.661    10.9320   999.6590 0.0000e+00
      6.101      0.048     4.9556     44.876     40.641  29.209741     1.7067      7.433   264.3626 7.0824e-01     8.7316      5.984      8.680    10.9329   999.6590 0.0000e+00
      6.110      0.047     4.9521     44.844     40.620  29.194101     1.8008      7.433   264.4202 6.9843e-01     8.7684      5.993      8.692    10.9334   999.6590 0.0000e+00
      6.120      0.049     4.9494     44.818     40.627  29.198924     1.9624      7.432   264.3846 6.8688e-01     8.7630      6.001      8.703    10.9336   999.6590 0.0000e+00
      6.132      0.054     4.9464     44.791     40.637  29.204606     2.0484      7.429   264.3627 6.6303e-01     8.7320      6.012      8.720    10.9339   999.6591 0.0000e+00
      6.146      0.059     4.9434     44.762     40.630  29.199355     2.0421      7.426   264.5853 6.3820e-01     8.7208      6.026      8.741    10.9337   999.6592 0.0000e+00
      6.164      0.064     4.9400     44.732     40.629  29.198883     1.9211      7.424   264.9252 6.2474e-01     8.7260      6.043      8.764    10.9333   999.6592 0.0000e+00
      6.184      0.066     4.9362     44.699     40.628  29.198892     1.7043      7.423   265.0308 6.1217e-01     8.7293      6.064      8.794    10.9324   999.6594 0.0000e+00
      6.204      0.065     4.9334     44.674     40.628  29.199460     1.5800      7.422   265.0015 5.8576e-01     8.7287      6.086      8.827    10.9314   999.6597 0.0000e+00
      6.221      0.061     4.9310     44.653     40.636  29.205752     1.5620      7.421   265.0870 5.5401e-01     8.7515      6.103      8.853    10.9300   999.6599 0.0000e+00
      6.236      0.057     4.9285     44.630     40.644  29.211520     1.5648      7.420   265.2044 5.3684e-01     8.7752      6.115      8.871    10.9297   999.6600 0.0000e+00
      6.248      0.053     4.9264     44.610     40.637  29.205753     1.5709      7.418   265.3026 5.2441e-01     8.7856      6.127      8.886    10.9314   999.6598 0.0000e+00
      6.258      0.051     4.9241     44.588     40.629  29.199464     1.5745      7.416   265.4140 5.1702e-01     8.7461      6.138      8.903    10.9331   999.6597 0.0000e+00
      6.269      0.050     4.9202     44.552     40.630  29.198935     1.5739      7.415   265.5191 5.1807e-01     8.6908      6.146      8.914    10.9336   999.6597 0.0000e+00
      6.283      0.051     4.9160     44.513     40.631  29.199360     1.5544      7.414   265.6272 5.1632e-01     8.7077      6.159      8.934    10.9337   999.6598 0.0000e+00
      6.298      0.054     4.9154     44.507     40.639  29.204609     1.5215      7.412   265.6874 5.0397e-01     8.7206      6.178      8.961    10.9329   999.6599 0.0000e+00
      6.313      0.059     4.9176     44.525     40.633  29.198935     1.5054      7.411   265.7312 4.7086e-01     8.7151      6.191      8.979    10.9312   999.6602 0.0000e+00
      6.326      0.062     4.9188     44.535     40.628  29.194207     1.5077      7.409   265.8986 4.4104e-01     8.7396      6.202      8.997    10.9298   999.6604 0.0000e+00
      6.341      0.063     4.9196     44.540     40.652  29.210898     1.5051      7.407   266.1634 4.3164e-01     8.7553      6.217      9.017    10.9302   999.6604 0.0000e+00
      6.359      0.063     4.9208     44.552     40.651  29.210388     1.5166      7.405   266.3511 4.1176e-01     8.7742      6.235      9.043    10.9301   999.6605 0.0000e+00
      6.379      0.062     4.9224     44.568     40.619  29.188035     1.5523      7.403   266.4477 3.8741e-01     8.8040      6.257      9.075    10.9284   999.6608 0.0000e+00
      6.396      0.061     4.9243     44.586     40.627  29.194435     1.5732      7.401   266.5567 3.8002e-01     8.8206      6.275      9.101    10.9262   999.6612 0.0000e+00
      6.410      0.059     4.9231     44.574     40.670  29.224326     1.5701      7.399   266.6366 3.7512e-01     8.8107      6.286      9.117    10.9243   999.6614 0.0000e+00
      6.422      0.057     4.9175     44.521     40.684  29.232185     1.5230      7.398   266.6396 3.6410e-01     8.7177      6.297      9.132    10.9250   999.6613 0.0000e+00
      6.435      0.057     4.9120     44.467     40.680  29.225998     1.4375      7.397   266.6788 3.5590e-01     8.5807      6.309      9.152    10.9272   999.6611 0.0000e+00
      6.449      0.056     4.9082     44.429     40.665  29.212968     1.3935      7.396   266.7667 3.5055e-01     8.5309      6.323      9.171    10.9280   999.6611 0.0000e+00
      6.465      0.055     4.9034     44.384     40.650  29.201544     1.3905      7.394   266.8414 3.3838e-01     8.5413      6.339      9.193    10.9266   999.6614 0.0000e+00
      6.482      0.052     4.8965     44.324     40.667  29.214783     1.3747      7.392   266.8935 3.2314e-01     8.5420      6.358      9.222    10.9241   999.6617 0.0000e+00
      6.497      0.047     4.8875     44.244     40.708  29.246134     1.3504      7.391   266.9670 3.1105e-01     8.5716      6.373      9.245    10.9200   999.6622 0.0000e+00
      6.507      0.043     4.8787     44.167     40.730  29.263345     1.3397      7.390   267.1283 3.0291e-01     8.6051      6.381      9.255    10.9151   999.6627 0.0000e+00
      6.514      0.040     4.8720     44.108     40.685  29.232518     1.3402      7.389   267.2947 2.9435e-01     8.5530      6.388      9.264    10.9146   999.6628 0.0000e+00
      6.522      0.039     4.8671     44.065     40.626  29.190675     1.3662      7.387   267.3445 2.8222e-01     8.4669      6.396      9.277    10.9172   999.6626 0.0000e+00
      6.530      0.041     4.8629     44.025     40.642  29.201589     1.4188      7.387   267.3002 2.7809e-01     8.4811      6.403      9.287    10.9193   999.6624 0.0000e+00
      6.541      0.045     4.8611     44.007     40.694  29.237570     1.4477      7.385   267.2757 2.8237e-01     8.5289      6.414      9.301    10.9216   999.6622 0.0000e+00
      6.554      0.050     4.8621     44.013     40.708  29.245001     1.4465      7.383   267.3922 2.7771e-01     8.5204      6.428      9.323    10.9230   999.6621 0.0000e+00
      6.568      0.054     4.8616     44.005     40.687  29.227989     1.4299      7.381   267.5895 2.7109e-01     8.5093      6.441      9.342    10.9234   999.6621 0.0000e+00
      6.583      0.055     4.8584     43.975     40.681  29.222228     1.4037      7.379   267.7685 2.7073e-01     8.4933      6.455      9.363    10.9237   999.6622 0.0000e+00
      6.599      0.055     4.8527     43.923     40.704  29.238801     1.3897      7.377   267.9225 2.5976e-01     8.4908      6.471      9.385    10.9216   999.6625 0.0000e+00
      6.614      0.054     4.8461     43.863     40.704  29.238016     1.3907      7.376   267.9888 2.4125e-01     8.5116      6.486      9.408    10.9185   999.6630 0.0000e+00
      6.627      0.052     4.8403     43.807     40.673  29.212739     1.3896      7.375   268.0535 2.2595e-01     8.5154      6.500      9.429    10.9152   999.6633 0.0000e+00
      6.638      0.051     4.8342     43.744     40.645  29.186982     1.3854      7.374   268.1888 2.1383e-01     8.5044      6.510      9.443    10.9131   999.6635 0.0000e+00
      6.650      0.048     4.8267     43.670     40.642  29.180386     1.3920      7.373   268.2473 2.0738e-01     8.5088      6.521      9.458    10.9133   999.6636 0.0000e+00
      6.663      0.045     4.8196     43.605     40.666  29.196434     1.4002      7.372   268.3310 2.0260e-01     8.5354      6.534      9.477    10.9139   999.6636 0.0000e+00
      6.676      0.040     4.8135     43.551     40.656  29.190666     1.3975      7.370   268.5982 2.0013e-01     8.5310      6.547      9.496    10.9113   999.6639 0.0000e+00
      6.688      0.035     4.8053     43.479     40.631  29.174098     1.3765      7.368   268.7250 1.9696e-01     8.4555      6.560      9.514    10.9022   999.6649 0.0000e+00
      6.697      0.032     4.7963     43.400     40.645  29.186467     1.3455      7.366   268.6593 1.9191e-01     8.3439      6.570      9.528    10.8942   999.6657 0.0000e+00
      6.702      0.031     4.7898     43.345     40.678  29.213312     1.3350      7.365   268.7507 1.8930e-01     8.2961      6.574      9.534    10.8940   999.6658 0.0000e+00
      6.704      0.033     4.7849     43.301     40.722  29.244878     1.3364      7.364   268.9693 1.8655e-01     8.3366      6.574      9.535    10.8968   999.6655 0.0000e+00
      6.709      0.037     4.7789     43.242     40.737  29.250864     1.3276      7.363   269.1517 1.8605e-01     8.4086      6.577      9.538    10.8973   999.6654 0.0000e+00
      6.720      0.043     4.7738     43.190     40.702  29.222231     1.3241      7.362   269.3211 1.8418e-01     8.4784      6.588      9.555    10.8997   999.6652 0.0000e+00
      6.736      0.050     4.7712     43.165     40.696  29.215940     1.3296      7.361   269.3826 1.7943e-01     8.5246      6.606      9.581    10.9065   999.6646 0.0000e+00
      6.752      0.056     4.7688     43.140     40.731  29.238247     1.3328      7.359   269.3796 1.7048e-01     8.5407      6.623      9.605    10.9077   999.6647 0.0000e+00
      6.767      0.060     4.7658     43.109     40.736  29.238134     1.3200      7.356   269.5428 1.5408e-01     8.5422      6.637      9.625    10.8996   999.6656 0.0000e+00
      6.783      0.060     4.7624     43.075     40.706  29.214570     1.2870      7.355   269.6355 1.4048e-01     8.5430      6.651      9.647    10.8936   999.6662 0.0000e+00
      6.799      0.058     4.7574     43.031     40.695  29.207141     1.2715      7.354   269.5536 1.3735e-01     8.5175      6.666      9.669    10.8935   999.6662 0.0000e+00
      6.815      0.056     4.7517     42.982     40.697  29.211766     1.2801      7.353   269.5855 1.3504e-01     8.4969      6.683      9.693    10.8903   999.6667 0.0000e+00
      6.830      0.054     4.7462     42.936     40.686  29.207039     1.2871      7.352   269.6760 1.3318e-01     8.4899      6.700      9.717    10.8852   999.6672 0.0000e+00
      6.841      0.054     4.7410     42.890     40.695  29.213440     1.2862      7.351   269.7876 1.3983e-01     8.4003      6.709      9.731    10.8812   999.6676 0.0000e+00
      6.852      0.055     4.7373     42.852     40.717  29.225705     1.2779      7.351   269.9028 1.4110e-01     8.2981      6.719      9.744    10.8809   999.6678 0.0000e+00
      6.865      0.058     4.7342     42.817     40.729  29.228430     1.2744      7.350   269.9504 1.3341e-01     8.3023      6.733      9.764    10.8861   999.6673 0.0000e+00
      6.879      0.064     4.7318     42.788     40.761  29.246370     1.2786      7.347   270.0184 1.2920e-01     8.3199      6.745      9.783    10.8914   999.6668 0.0000e+00
      6.896      0.069     4.7290     42.759     40.775  29.252255     1.2767      7.345   270.1231 1.2639e-01     8.2823      6.761      9.807    10.8922   999.6668 0.0000e+00
      6.916      0.073     4.7232     42.704     40.755  29.236130     1.2686      7.343   270.2701 1.2390e-01     8.2736      6.781      9.835    10.8867   999.6675 0.0000e+00
      6.938      0.074     4.7149     42.629     40.761  29.241763     1.2670      7.341   270.4195 1.2364e-01     8.3129      6.803      9.867    10.8786   999.6684 0.0000e+00
      6.960      0.075     4.7045     42.538     40.781  29.256917     1.2744      7.339   270.4662 1.2356e-01     8.3306      6.826      9.901    10.8716   999.6692 0.0000e+00
      6.979      0.075     4.6902     42.408     40.831  29.292449     1.2724      7.337   270.4048 1.2359e-01     8.3573      6.846      9.929    10.8668   999.6698 0.0000e+00
      6.995      0.072     4.6734     42.253     40.921  29.354113     1.2591      7.337   270.3655 1.2366e-01     8.4398      6.860      9.949    10.8646   999.6700 0.0000e+00
      7.010      0.065     4.6583     42.113     40.944  29.367969     1.2529      7.336   270.4214 1.2366e-01     8.5077      6.873      9.968    10.8661   999.6700 0.0000e+00
      7.030      0.056     4.6452     41.994     40.896  29.333071     1.2584      7.335   270.5634 1.2368e-01     8.5232      6.894     10.000    10.8697   999.6697 0.0000e+00
      7.050      0.047     4.6328     41.883     40.866  29.312880     1.2553      7.333   270.7059 1.2368e-01     8.5292      6.917     10.032    10.8687   999.6699 0.0000e+00
      7.061      0.041     4.6175     41.746     40.866  29.314203     1.2246      7.331   270.7679 1.2362e-01     8.5477      6.929     10.049    10.8636   999.6706 0.0000e+00
      7.065      0.039     4.5962     41.555     40.913  29.349061     1.1987      7.331   270.7964 1.2359e-01     8.5500      6.930     10.051    10.8601   999.6709 0.0000e+00
      7.065      0.040     4.5722     41.337     41.011  29.417084     1.2032      7.330   270.8797 1.2356e-01     8.5241      6.928     10.048    10.8596   999.6709 0.0000e+00
      7.070      0.048     4.5507     41.137     41.136  29.502141     1.2268      7.328   271.0003 1.2357e-01     8.4966      6.931     10.052    10.8610   999.6708 0.0000e+00
      7.084      0.061     4.5333     40.972     41.303  29.616032     1.2583      7.325   271.0503 1.2358e-01     8.5121      6.945     10.073    10.8642   999.6705 0.0000e+00
      7.105      0.075     4.5182     40.829     41.449  29.715434     1.2722      7.322   270.9680 1.2353e-01     8.5478      6.967     10.105    10.8667   999.6704 0.0000e+00
      7.129      0.084     4.5036     40.692     41.507  29.752196     1.2642      7.319   270.7793 1.2353e-01     8.5680      6.991     10.139    10.8644   999.6708 0.0000e+00
      7.157      0.086     4.4856     40.526     41.498  29.743246     1.2744      7.319   270.5756 1.2359e-01     8.5919      7.018     10.179    10.8574   999.6717 0.0000e+00
      7.186      0.081     4.4623     40.314     41.487  29.734119     1.3094      7.318   270.3984 1.2360e-01     8.5748      7.049     10.225    10.8493   999.6727 0.0000e+00
      7.208      0.075     4.4308     40.029     41.535  29.768759     1.3311      7.317   270.2708 1.2354e-01     8.5245      7.073     10.259    10.8423   999.6735 0.0000e+00
      7.221      0.069     4.3843     39.610     41.641  29.844803     1.3296      7.314   270.2375 1.2351e-01     8.5083      7.083     10.273    10.8365   999.6742 0.0000e+00
      7.231      0.064     4.3238     39.062     41.709  29.892120     1.3260      7.312   270.2544 1.2357e-01     8.5104      7.089     10.281    10.8331   999.6745 0.0000e+00
      7.243      0.059     4.2561     38.449     41.717  29.896679     1.3303      7.310   270.2165 1.2361e-01     8.5496      7.100     10.298    10.8321   999.6747 0.0000e+00
      7.261      0.056     4.1884     37.837     41.722  29.899919     1.3382      7.309   270.2098 1.2358e-01     8.6549      7.120     10.326    10.8330   999.6747 0.0000e+00
      7.281      0.055     4.1259     37.272     41.766  29.931306     1.3436      7.307   270.2585 1.2353e-01     8.7353      7.143     10.359    10.8338   999.6747 0.0000e+00
      7.297      0.053     4.0698     36.765     41.893  30.022358     1.3432      7.306   270.2038 1.2358e-01     8.7674      7.158     10.382    10.8318   999.6750 0.0000e+00
      7.307      0.049     4.0199     36.312     42.022  30.112461     1.3252      7.306   270.0647 1.2365e-01     8.7812      7.166     10.393    10.8292   999.6753 0.0000e+00
      7.316      0.043     3.9789     35.939     42.054  30.132370     1.2903      7.304   269.9523 1.2364e-01     8.7710      7.173     10.404    10.8290   999.6754 0.0000e+00
      7.326      0.036     3.9504     35.679     42.063  30.136158     1.2686      7.301   269.8777 1.2359e-01     8.7748      7.185     10.420    10.8297   999.6754 0.0000e+00
      7.337      0.030     3.9323     35.516     42.094  30.158260     1.2620      7.299   269.8510 1.2360e-01     8.7944      7.197     10.438    10.8300   999.6755 0.0000e+00
      7.345      0.025     3.9167     35.376     42.074  30.145780     1.2195      7.298   269.8877 1.2364e-01     8.7449      7.205     10.451    10.8272   999.6759 0.0000e+00
      7.350      0.020     3.8954     35.185     42.025  30.112176     1.1364      7.297   269.8913 1.2362e-01     8.6036      7.209     10.456    10.8221   999.6764 0.0000e+00
      7.353      0.015     3.8671     34.930     42.053  30.132687     1.0894      7.295   269.8093 1.2361e-01     8.4947      7.210     10.458    10.8197   999.6766 0.0000e+00
      7.355      0.012     3.8372     34.660     42.153  30.203416     1.0845      7.295   269.7553 1.2363e-01     8.4775      7.212     10.460    10.8196   999.6767 0.0000e+00
      7.357      0.010     3.8108     34.420     42.246  30.269352     1.0862      7.293   269.7547 1.2362e-01     8.4934      7.215     10.465    10.8214   999.6765 0.0000e+00
      7.359      0.010     3.7865     34.202     42.281  30.295357     1.0921      7.291   269.7158 1.2359e-01     8.5237      7.217     10.467    10.8238   999.6762 0.0000e+00
      7.362      0.010     3.7629     33.992     42.233  30.264027     1.0866      7.290   269.7158 1.2363e-01     8.5487      7.220     10.471    10.8249   999.6761 0.0000e+00
      7.365      0.010     3.7444     33.828     42.149  30.207823     1.0802      7.289   269.6688 1.2365e-01     8.5337      7.223     10.476    10.8243   999.6763 0.0000e+00
      7.369      0.009     3.7344     33.742     42.114  30.186901     1.1102      7.287   269.4913 1.2363e-01     8.5378      7.227     10.481    10.8227   999.6765 0.0000e+00
      7.371      0.008     3.7295     33.702     42.128  30.201431     1.1714      7.286   269.3770 1.2365e-01     8.5664      7.229     10.484    10.8230   999.6765 0.0000e+00
      7.373      0.006     3.7247     33.662     42.111  30.193142     1.2137      7.284   269.2327 1.2367e-01     8.5524      7.230     10.487    10.8268   999.6761 0.0000e+00
      7.374      0.005     3.7179     33.603     42.047  30.150142     1.2151      7.283   269.0380 1.2366e-01     8.5316      7.231     10.488    10.8312   999.6757 0.0000e+00
      7.374      0.003     3.7119     33.551     42.008  30.125700     1.2051      7.282   269.0018 1.2365e-01     8.5122      7.231     10.488    10.8363   999.6751 0.0000e+00
      7.375      0.003     3.7115     33.551     42.039  30.151440     1.2224      7.281   269.0530 1.2363e-01     8.4816      7.232     10.490    10.8432   999.6744 0.0000e+00
      7.375      0.002     3.7177     33.610     42.113  30.207550     1.2596      7.280   269.0544 1.2366e-01     8.4887      7.233     10.490    10.8474   999.6740 0.0000e+00
      7.376      0.002     3.7296     33.720     42.234  30.296481     1.2737      7.279   269.0188 1.2366e-01     8.5332      7.233     10.491    10.8501   999.6736 0.0000e+00
      7.376      0.002     3.7466     33.876     42.377  30.401782     1.2710      7.278   268.9663 1.2362e-01     8.5601      7.234     10.492    10.8544   999.6733 0.0000e+00
      7.377      0.002     3.7681     34.073     42.463  30.465451     1.2875      7.276   268.8499 1.2368e-01     8.5526      7.234     10.493    10.8594   999.6728 0.0000e+00
      7.378      0.003     3.7918     34.288     42.502  30.495207     1.3172      7.275   268.8163 1.2373e-01     8.5404      7.235     10.494    10.8622   999.6725 0.0000e+00
      7.378      0.003     3.8140     34.491     42.516  30.507741     1.3269      7.273   268.9901 1.2369e-01     8.5108      7.235     10.494    10.8646   999.6723 0.0000e+00
      7.379      0.002     3.8320     34.657     42.487  30.490081     1.3177      7.271   269.1441 1.2365e-01     8.4898      7.236     10.496    10.8684   999.6720 0.0000e+00
      7.380      0.002     3.8435     34.764     42.369  30.408601     1.3182      7.269   269.1304 1.2361e-01     8.5807      7.237     10.497    10.8707   999.6718 0.0000e+00
      7.380      0.002     3.8498     34.821     42.194  30.284036     1.3245      7.268   269.0821 1.2357e-01     8.7252      7.238     10.498    10.8720   999.6717 0.0000e+00
      7.380      0.002     3.8530     34.850     42.064  30.189636     1.3250      7.268   269.1630 1.2352e-01     8.7954      7.238     10.498    10.8743   999.6714 0.0000e+00
      7.381      0.002     3.8540     34.859     42.017  30.155588     1.3243      7.268   269.2480 1.2349e-01     8.8066      7.238     10.498    10.8795   999.6709 0.0000e+00
      7.381 -9.990e-29 -9.990e-29 -9.990e-29 -9.990e-29 -9.990e-29 -9.990e-29 -9.990e-29 -9.990e-29 1.2352e-01 -9.990e-29      7.239     10.499    10.8843   999.6704 0.0000e+00
      7.382 -9.990e-29 -9.990e-29 -9.990e-29 -9.990e-29 -9.990e-29 -9.990e-29 -9.990e-29 -9.990e-29 1.2358e-01 -9.990e-29      7.239     10.500    10.8838   999.6705 0.0000e+00
      7.383 -9.990e-29 -9.990e-29 -9.990e-29 -9.990e-29 -9.990e-29 -9.990e-29 -9.990e-29 -9.990e-29 1.2364e-01 -9.990e-29      7.240     10.501    10.8823   999.6706 0.0000e+00
      7.383 -9.990e-29 -9.990e-29 -9.990e-29 -9.990e-29 -9.990e-29 -9.990e-29 -9.990e-29 -9.990e-29 1.2366e-01 -9.990e-29      7.241     10.502    10.8825   999.6705 0.0000e+00
