* Sea-Bird SBE19plus  Data File:
* FileName = C:\R\Reservoirs\Data\DataNotYetUploadedToEDI\Raw_CTD\RawDownloads\071524_fcr50_S7809_0002.hex
* Software version 2.8.0.119
* Temperature SN = 7809
* Conductivity SN = 7809
* System UpLoad Time = Jul 15 2024 16:22:23
* <ApplicationData>
* <Seaterm232>
* <SoftwareVersion>2.8.0.119</SoftwareVersion>
* <BuildDate>07-Nov-2018</BuildDate>
* </Seaterm232>
* </ApplicationData>
* <InstrumentState>
* <HardwareData DeviceType='SBE19plus' SerialNumber='01907809'>
*
*    <Manufacturer>Sea-Bird Electronics, Inc.</Manufacturer>
*
*    <FirmwareVersion>3.1.8</FirmwareVersion>
*
*    <FirmwareDate>Mar  9 2016 16:22:29</FirmwareDate>
*
*    <CommandSetVersion>1.4</CommandSetVersion>
*
*    <PCBAssembly PCBSerialNum='120721' AssemblyNum='41054J'/>
*
*    <PCBAssembly PCBSerialNum='120715' AssemblyNum='41967A'/>
*
*    <PCBAssembly PCBSerialNum='116699' AssemblyNum='41606'/>
*
*    <PCBAssembly PCBSerialNum='120719' AssemblyNum='41059D'/>
*
*    <MfgDate>28-Apr-2017</MfgDate>
*
*    <InternalSensors>
*
*       <Sensor id='Main Temperature'>
*
*          <type>temperature0</type>
*
*          <SerialNumber>01907809</SerialNumber>
*
*       </Sensor>
*
*       <Sensor id='Main Conductivity'>
*
*          <type>conductivity-0</type>
*
*          <SerialNumber>01907809</SerialNumber>
*
*       </Sensor>
*
*       <Sensor id='Main Pressure'>
*
*          <type>strain-0</type>
*
*          <SerialNumber>10586018</SerialNumber>
*
*       </Sensor>
*
*    </InternalSensors>
*
*    <ExternalSensors>
*
*       <Sensor id='volt 0'>
*
*          <type>pH</type>
*
*          <SerialNumber>27-0363</SerialNumber>
*
*       </Sensor>
*
*       <Sensor id='volt 1'>
*
*          <type>ORP</type>
*
*          <SerialNumber>27-0363</SerialNumber>
*
*       </Sensor>
*
*       <Sensor id='volt 2'>
*
*          <type>OXY</type>
*
*          <SerialNumber>43-0434</SerialNumber>
*
*       </Sensor>
*
*       <Sensor id='volt 3'>
*
*          <type>PAR</type>
*
*          <SerialNumber>1122</SerialNumber>
*
*       </Sensor>
*
*       <Sensor id='volt 4'>
*
*          <type>ECO AFL/FL</type>
*
*          <SerialNumber>FLNTURT-2496</SerialNumber>
*
*       </Sensor>
*
*       <Sensor id='volt 5'>
*
*          <type>ECO-NTU</type>
*
*          <SerialNumber>FLNTURT-2496</SerialNumber>
*
*       </Sensor>
*
*       <Sensor id='serial'>
*
*          <type>not assigned</type>
*
*          <SerialNumber>not assigned</SerialNumber>
*
*       </Sensor>
*
*    </ExternalSensors>
*
* </HardwareData>
* <StatusData DeviceType='SBE19plus' SerialNumber='01907809'>
*
*    <DateTime>2024-07-15T16:20:43</DateTime>
*
*    <LoggingState>not logging</LoggingState>
*
*    <EventSummary numEvents='0'/>
*
*    <Power>
*
*       <vMain>12.4</vMain>
*
*       <vLith>8.4</vLith>
*
*       <iMain>63.2</iMain>
*
*       <iPump>66.6</iPump>
*
*       <iExt01>20.7</iExt01>
*
*       <iExt2345>37.1</iExt2345>
*
*    </Power>
*
*    <MemorySummary>
*
*       <Bytes>140438</Bytes>
*
*       <Samples>6106</Samples>
*
*       <SamplesFree>2854682</SamplesFree>
*
*       <SampleLength>23</SampleLength>
*
*       <Profiles>5</Profiles>
*
*    </MemorySummary>
*
* </StatusData>
* <ConfigurationData DeviceType='SBE19plus' SerialNumber='01907809'>
*
*    <ProfileMode>
*
*       <ScansToAverage>1</ScansToAverage>
*
*       <MinimumCondFreq>0</MinimumCondFreq>
*
*       <PumpDelay>45</PumpDelay>
*
*       <AutoRun>no</AutoRun>
*
*       <IgnoreSwitch>no</IgnoreSwitch>
*
*    </ProfileMode>
*
*    <Battery>
*
*       <Type>alkaline</Type>
*
*       <CutOff>7.5</CutOff>
*
*    </Battery>
*
*    <DataChannels>
*
*       <ExtVolt0>yes</ExtVolt0>
*
*       <ExtVolt1>yes</ExtVolt1>
*
*       <ExtVolt2>yes</ExtVolt2>
*
*       <ExtVolt3>yes</ExtVolt3>
*
*       <ExtVolt4>yes</ExtVolt4>
*
*       <ExtVolt5>yes</ExtVolt5>
*
*       <SBE38>no</SBE38>
*
*       <WETLABS>no</WETLABS>
*
*       <OPTODE>no</OPTODE>
*
*       <SBE63>no</SBE63>
*
*       <SeaFET>no</SeaFET>
*
*       <GTD>no</GTD>
*
*    </DataChannels>
*
*    <EchoCharacters>yes</EchoCharacters>
*
*    <OutputExecutedTag>yes</OutputExecutedTag>
*
*    <OutputFormat>raw HEX</OutputFormat>
*
* </ConfigurationData>
* <CalibrationCoefficients DeviceType='SBE19plus' SerialNumber='01907809'>
*
*    <Calibration format='TEMP1' id='Main Temperature'>
*
*       <SerialNum>01907809</SerialNum>
*
*       <CalDate>31-Jan-23</CalDate>
*
*       <TA0>1.218232e-03</TA0>
*
*       <TA1>2.815090e-04</TA1>
*
*       <TA2>-1.578887e-06</TA2>
*
*       <TA3>1.972343e-07</TA3>
*
*       <TOFFSET>0.000000e+00</TOFFSET>
*
*    </Calibration>
*
*    <Calibration format='WBCOND0' id='Main Conductivity'>
*
*       <SerialNum>01907809</SerialNum>
*
*       <CalDate>31-Jan-23</CalDate>
*
*       <G>-1.005652e+00</G>
*
*       <H>1.267963e-01</H>
*
*       <I>-1.561708e-04</I>
*
*       <J>2.645944e-05</J>
*
*       <CPCOR>-9.570000e-08</CPCOR>
*
*       <CTCOR>3.250000e-06</CTCOR>
*
*       <CSLOPE>1.000000e+00</CSLOPE>
*
*    </Calibration>
*
*    <Calibration format='STRAIN0' id='Main Pressure'>
*
*       <SerialNum>10586018</SerialNum>
*
*       <CalDate>20-Jan-23</CalDate>
*
*       <PA0>4.416439e-02</PA0>
*
*       <PA1>4.850502e-04</PA1>
*
*       <PA2>-3.090426e-12</PA2>
*
*       <PTCA0>5.254757e+05</PTCA0>
*
*       <PTCA1>1.050255e+01</PTCA1>
*
*       <PTCA2>-2.922435e-01</PTCA2>
*
*       <PTCB0>2.516687e+01</PTCB0>
*
*       <PTCB1>3.750000e-04</PTCB1>
*
*       <PTCB2>0.000000e+00</PTCB2>
*
*       <PTEMPA0>-5.470820e+01</PTEMPA0>
*
*       <PTEMPA1>5.485421e+01</PTEMPA1>
*
*       <PTEMPA2>-3.446578e-01</PTEMPA2>
*
*       <POFFSET>8.500000e-01</POFFSET>
*
*       <PRANGE>1.600000e+02</PRANGE>
*
*    </Calibration>
*
*    <Calibration format='VOLT0' id='Volt 0'>
*
*       <OFFSET>-4.920000e-02</OFFSET>
*
*       <SLOPE>1.248122e+00</SLOPE>
*
*    </Calibration>
*
*    <Calibration format='VOLT0' id='Volt 1'>
*
*       <OFFSET>-4.784000e-02</OFFSET>
*
*       <SLOPE>1.248871e+00</SLOPE>
*
*    </Calibration>
*
*    <Calibration format='VOLT0' id='Volt 2'>
*
*       <OFFSET>-4.864632e-02</OFFSET>
*
*       <SLOPE>1.248714e+00</SLOPE>
*
*    </Calibration>
*
*    <Calibration format='VOLT0' id='Volt 3'>
*
*       <OFFSET>-4.743790e-02</OFFSET>
*
*       <SLOPE>1.248571e+00</SLOPE>
*
*    </Calibration>
*
*    <Calibration format='VOLT0' id='Volt 4'>
*
*       <OFFSET>-4.671263e-02</OFFSET>
*
*       <SLOPE>1.248951e+00</SLOPE>
*
*    </Calibration>
*
*    <Calibration format='VOLT0' id='Volt 5'>
*
*       <OFFSET>-4.871053e-02</OFFSET>
*
*       <SLOPE>1.249136e+00</SLOPE>
*
*    </Calibration>
*
*    <Calibration format='FREQ0' id='external frequency channel'>
*
*       <EXTFREQSF>1.000014e+00</EXTFREQSF>
*
*    </Calibration>
*
* </CalibrationCoefficients>
* <EventCounters DeviceType='SBE19plus' SerialNumber='01907809'>
*
*    <EventSummary numEvents='0'/>
*
* </EventCounters></InstrumentState>
* <Headers>
*
* cast   2 15 Jul 2024 11:18:45 samples 2011 to 2704, avg = 1, stop = mag switch
*
# nquan = 15
# nvalues = 694                         
# units = specified
# name 0 = depFM: Depth [fresh water, m]
# name 1 = dz/dtM: Descent Rate [m/s]
# name 2 = sbeox0Mg/L: Oxygen, SBE 43 [mg/l]
# name 3 = sbeox0PS: Oxygen, SBE 43 [% saturation]
# name 4 = specc: Specific Conductance [uS/cm]
# name 5 = c0uS/cm: Conductivity [uS/cm]
# name 6 = flECO-AFL: Fluorescence, WET Labs ECO-AFL/FL [mg/m^3]
# name 7 = ph: pH
# name 8 = orp: Oxidation Reduction Potential [mV]
# name 9 = par/sat/log: PAR/Logarithmic, Satlantic
# name 10 = turbWETntu0: Turbidity, WET Labs ECO [NTU]
# name 11 = prdM: Pressure, Strain Gauge [db]
# name 12 = prdE: Pressure, Strain Gauge [psi]
# name 13 = tv290C: Temperature [ITS-90, deg C]
# name 14 = flag:  0.000e+00
# span 0 =     -0.650,      2.314       
# span 1 =     -0.396,      0.181       
# span 2 =     0.1100,     7.6458       
# span 3 =      1.278,     97.725       
# span 4 =      1.352,    180.034       
# span 5 =   1.500596, 164.404349       
# span 6 =    -0.3062,    13.1379       
# span 7 =      5.637,      6.834       
# span 8 = -1240.7455,   358.3034       
# span 9 = 1.5751e+00, 2.4139e+03       
# span 10 =    -0.3210,    98.5173      
# span 11 =     -0.639,      2.270      
# span 12 =     -0.927,      3.293      
# span 13 =    20.6395,    30.5083      
# span 14 = 0.0000e+00, 0.0000e+00      
# interval = seconds: 0.25
# start_time = Jul 15 2024 11:18:45 [Instrument's time stamp, header]
# bad_flag = -9.990e-29
# <Sensors count="9" >
#   <sensor Channel="1" >
#     <!-- Count, Temperature -->
#     <TemperatureSensor SensorID="58" >
#       <SerialNumber>7809</SerialNumber>
#       <CalibrationDate>31-Jan-23</CalibrationDate>
#       <A0>1.21823180e-003</A0>
#       <A1>2.81508993e-004</A1>
#       <A2>-1.57888696e-006</A2>
#       <A3>1.97234302e-007</A3>
#       <Slope>1.00000000</Slope>
#       <Offset>0.0000</Offset>
#     </TemperatureSensor>
#   </sensor>
#   <sensor Channel="2" >
#     <!-- Frequency 0, Conductivity -->
#     <ConductivitySensor SensorID="3" >
#       <SerialNumber>7809</SerialNumber>
#       <CalibrationDate>31-Jan-23</CalibrationDate>
#       <UseG_J>1</UseG_J>
#       <!-- Cell const and series R are applicable only for wide range sensors. -->
#       <SeriesR>0.0000</SeriesR>
#       <CellConst>2000.0000</CellConst>
#       <ConductivityType>0</ConductivityType>
#       <Coefficients equation="0" >
#         <A>0.00000000e+000</A>
#         <B>0.00000000e+000</B>
#         <C>0.00000000e+000</C>
#         <D>0.00000000e+000</D>
#         <M>0.0</M>
#         <CPcor>-9.57000000e-008</CPcor>
#       </Coefficients>
#       <Coefficients equation="1" >
#         <G>-1.00565232e+000</G>
#         <H>1.26796307e-001</H>
#         <I>-1.56170788e-004</I>
#         <J>2.64594368e-005</J>
#         <CPcor>-9.57000000e-008</CPcor>
#         <CTcor>3.2500e-006</CTcor>
#         <!-- WBOTC not applicable unless ConductivityType = 1. -->
#         <WBOTC>0.00000000e+000</WBOTC>
#       </Coefficients>
#       <Slope>1.00000000</Slope>
#       <Offset>0.00000</Offset>
#     </ConductivitySensor>
#   </sensor>
#   <sensor Channel="3" >
#     <!-- Count, Pressure, Strain Gauge -->
#     <PressureSensor SensorID="46" >
#       <SerialNumber>7809</SerialNumber>
#       <CalibrationDate>20-Jan-23</CalibrationDate>
#       <PA0>4.41643944e-002</PA0>
#       <PA1>4.85050239e-004</PA1>
#       <PA2>-3.09042623e-012</PA2>
#       <PTEMPA0>-5.47081996e+001</PTEMPA0>
#       <PTEMPA1>5.48542136e+001</PTEMPA1>
#       <PTEMPA2>-3.44657813e-001</PTEMPA2>
#       <PTCA0>5.25475731e+005</PTCA0>
#       <PTCA1>1.05025484e+001</PTCA1>
#       <PTCA2>-2.92243463e-001</PTCA2>
#       <PTCB0>2.51668750e+001</PTCB0>
#       <PTCB1>3.75000000e-004</PTCB1>
#       <PTCB2>0.00000000e+000</PTCB2>
#       <Offset>0.000000</Offset>
#     </PressureSensor>
#   </sensor>
#   <sensor Channel="4" >
#     <!-- A/D voltage 0, Oxygen, SBE 43 -->
#     <OxygenSensor SensorID="38" >
#       <SerialNumber>0434</SerialNumber>
#       <CalibrationDate>18-Feb-23</CalibrationDate>
#       <Use2007Equation>1</Use2007Equation>
#       <CalibrationCoefficients equation="0" >
#         <!-- Coefficients for Owens-Millard equation. -->
#         <Boc>0.0000</Boc>
#         <Soc>0.0000e+000</Soc>
#         <offset>0.0000</offset>
#         <Pcor>0.00e+000</Pcor>
#         <Tcor>0.0000</Tcor>
#         <Tau>0.0</Tau>
#       </CalibrationCoefficients>
#       <CalibrationCoefficients equation="1" >
#         <!-- Coefficients for Sea-Bird equation - SBE calibration in 2007 and later. -->
#         <Soc>5.1878e-001</Soc>
#         <offset>-0.5046</offset>
#         <A>-4.2788e-003</A>
#         <B> 1.5372e-004</B>
#         <C>-2.1853e-006</C>
#         <D0> 2.5826e+000</D0>
#         <D1> 1.92634e-004</D1>
#         <D2>-4.64803e-002</D2>
#         <E> 3.6000e-002</E>
#         <Tau20> 0.9900</Tau20>
#         <H1>-3.3000e-002</H1>
#         <H2> 5.0000e+003</H2>
#         <H3> 1.4500e+003</H3>
#       </CalibrationCoefficients>
#     </OxygenSensor>
#   </sensor>
#   <sensor Channel="5" >
#     <!-- A/D voltage 1, PAR/Logarithmic, Satlantic -->
#     <PARLog_SatlanticSensor SensorID="76" >
#       <SerialNumber>1122</SerialNumber>
#       <CalibrationDate>08-Sep-2021</CalibrationDate>
#       <a0>9.6751e-001</a0>
#       <a1>8.0992e-001</a1>
#       <Im>1.3589e+000</Im>
#       <Multiplier>1.0000e+000</Multiplier>
#     </PARLog_SatlanticSensor>
#   </sensor>
#   <sensor Channel="6" >
#     <!-- A/D voltage 2, pH -->
#     <pH_Sensor SensorID="43" >
#       <SerialNumber>0363</SerialNumber>
#       <CalibrationDate>28-Feb-23</CalibrationDate>
#       <Slope>4.7364</Slope>
#       <Offset>2.5433</Offset>
#     </pH_Sensor>
#   </sensor>
#   <sensor Channel="7" >
#     <!-- A/D voltage 3, Oxidation Reduction Potential -->
#     <OxidationReductionPotentialSensor SensorID="41" >
#       <SerialNumber>0363</SerialNumber>
#       <CalibrationDate>28-Feb-23</CalibrationDate>
#       <B>2.499480</B>
#       <M>-0.496195</M>
#       <Offset>0.0</Offset>
#     </OxidationReductionPotentialSensor>
#   </sensor>
#   <sensor Channel="8" >
#     <!-- A/D voltage 4, Fluorometer, WET Labs ECO-AFL/FL -->
#     <FluoroWetlabECO_AFL_FL_Sensor SensorID="20" >
#       <SerialNumber>FLNTURT-2496</SerialNumber>
#       <CalibrationDate>02-Sep-2021</CalibrationDate>
#       <ScaleFactor>4.80000000e+001</ScaleFactor>
#       <!-- Dark output -->
#       <Vblank>0.0550</Vblank>
#     </FluoroWetlabECO_AFL_FL_Sensor>
#   </sensor>
#   <sensor Channel="9" >
#     <!-- A/D voltage 5, Turbidity Meter, WET Labs, ECO-NTU -->
#     <TurbidityMeter SensorID="67" >
#       <SerialNumber>FLNTURT--2496</SerialNumber>
#       <CalibrationDate>02-Sep-2021</CalibrationDate>
#       <ScaleFactor>197.000000</ScaleFactor>
#       <!-- Dark output -->
#       <DarkVoltage>0.070000</DarkVoltage>
#     </TurbidityMeter>
#   </sensor>
# </Sensors>
# datcnv_date = Jul 15 2024 16:34:04, 7.26.7.129 [datcnv_vars = 14]
# datcnv_in = C:\R\Reservoirs\Data\DataNotYetUploadedToEDI\Raw_CTD\RawDownloads\071524_fcr20_S7809002.hex C:\R\Reservoirs\Data\DataNotYetUploadedToEDI\Raw_CTD\RawDownloads\SBE19plusV2_7809_start20230701.xmlcon
# datcnv_skipover = 0
# datcnv_ox_hysteresis_correction = yes
# datcnv_ox_tau_correction = yes
# filter_date = Jul 15 2024 16:35:46, 7.26.7.129
# filter_in = C:\R\Reservoirs\Data\DataNotYetUploadedToEDI\Raw_CTD\RawDownloads\071524_fcr20_S7809002.cnv
# filter_low_pass_tc_A = 0.030
# filter_low_pass_tc_B = 0.150
# filter_low_pass_A_vars = sbeox0Mg/L prdM prdE tv290C
# filter_low_pass_B_vars = depFM dz/dtM sbeox0PS specc c0uS/cm flECO-AFL ph orp par/sat/log turbWETntu0
# alignctd_date = Jul 15 2024 16:36:13, 7.26.7.129
# alignctd_in = C:\R\Reservoirs\Data\DataNotYetUploadedToEDI\Raw_CTD\RawDownloads\071524_fcr20_S7809002.cnv
# alignctd_adv = dz/dtM 1.000, sbeox0PS 1.000, specc 1.000, c0uS/cm 1.000, flECO-AFL 1.000, ph 1.000, orp 1.000, turbWETntu0 1.000                                                                                                   
# file_type = ascii
*END*
     -0.650 1.6029e-23     6.9275     92.470      1.352   1.500596    -0.0485      5.675 -1240.7455 4.7747e+02     4.6936     -0.638     -0.925    30.4869 0.0000e+00
     -0.650 1.7632e-22     6.9267     92.476      1.388   1.541025    -0.0582      5.669 -1240.7455 4.5873e+02     4.6359     -0.638     -0.926    30.4871 0.0000e+00
     -0.650 1.9395e-21     6.9285     92.482      1.436   1.594131    -0.0598      5.664 -1240.7455 4.5977e+02     4.6032     -0.638     -0.925    30.4878 0.0000e+00
     -0.650 2.1335e-20     6.9306     92.486      1.474   1.635982    -0.0593      5.663 -1240.7455 5.6367e+02     3.8192     -0.638     -0.926    30.4883 0.0000e+00
     -0.650 2.3468e-19     6.9305     92.494      1.502   1.667002    -0.0612      5.664 -1240.7455 9.9944e+02     2.3986     -0.638     -0.925    30.4883 0.0000e+00
     -0.650 2.5815e-18     6.9311     92.510      1.546   1.715820    -0.0574      5.665 -1240.7455 1.7491e+03     1.7054     -0.638     -0.925    30.4886 0.0000e+00
     -0.650 2.8396e-17     6.9316     92.523      1.663   1.846195    -0.0470      5.668 -1240.7455 2.2910e+03     1.7236     -0.637     -0.925    30.4888 0.0000e+00
     -0.650 3.1236e-16     6.9318     92.539      1.838   2.039888    -0.0515      5.670 -1240.7455 2.4139e+03     1.4912     -0.638     -0.926    30.4892 0.0000e+00
     -0.650 3.4360e-15     6.9319     92.557      1.944   2.157504    -0.0629      5.671 -1240.7455 2.3532e+03     0.9789     -0.638     -0.925    30.4897 0.0000e+00
     -0.650 3.7796e-14     6.9340     92.559      1.975   2.191484    -0.0505      5.673 -1240.7455 2.2462e+03     0.7223     -0.639     -0.926    30.4897 0.0000e+00
     -0.650 4.1575e-13     6.9342     92.567      1.980   2.197368    -0.0347      5.671 -1240.7455 2.1894e+03     0.7460     -0.638     -0.926    30.4900 0.0000e+00
     -0.650 4.5733e-12     6.9351     92.586      1.950   2.165303    -0.0467      5.671 -1240.7455 2.2278e+03     0.7529     -0.637     -0.925    30.4906 0.0000e+00
     -0.650 5.0306e-11     6.9382     92.594      1.910   2.120500    -0.0709      5.677 -1240.7455 2.2642e+03     0.7024     -0.638     -0.925    30.4913 0.0000e+00
     -0.650 5.5336e-10     6.9364     92.587      1.891   2.099048    -0.0699      5.680 -1240.7455 2.2690e+03     0.7166     -0.637     -0.925    30.4921 0.0000e+00
     -0.650 6.0870e-09     6.9369     92.568      1.888   2.095956    -0.0423      5.676 -1240.7454 2.2493e+03     0.7881     -0.638     -0.926    30.4931 0.0000e+00
     -0.650 6.6957e-08     6.9396     92.556      1.876   2.083114    -0.0292      5.685 -1240.7447 2.1799e+03     0.7467     -0.638     -0.925    30.4933 0.0000e+00
     -0.650 7.3653e-07     6.9394     92.560      1.865   2.070459    -0.0440      5.697 -1240.7366 2.1273e+03     0.6947     -0.637     -0.925    30.4941 0.0000e+00
     -0.650      0.000     6.9393     92.570      1.864   2.069627    -0.0548      5.672 -1240.6476 2.1397e+03     0.7739     -0.638     -0.925    30.4946 0.0000e+00
     -0.650      0.000     6.9369     92.581      1.868   2.073062    -0.0519      5.637 -1239.6681 2.1359e+03     0.8162     -0.637     -0.925    30.4960 0.0000e+00
     -0.650      0.001     6.9356     92.588      1.903   2.111983    -0.0344      5.733 -1228.8942 1.7981e+03     0.9317     -0.637     -0.925    30.4952 0.0000e+00
     -0.650      0.006     6.9366     92.602      2.178   2.413542     0.1651      5.928 -1110.3811 1.0873e+03     2.1028     -0.637     -0.924    30.4982 0.0000e+00
     -0.650      0.019     6.9368     92.624      4.852   5.339136     0.5376      5.976  -461.4100 6.1176e+02     4.0795     -0.639     -0.926    30.4949 0.0000e+00
     -0.650      0.040     6.9384     92.644     15.651  17.084574     0.7580      5.891   324.5047 6.4315e+02     5.1219     -0.637     -0.925    30.5013 0.0000e+00
     -0.647      0.068     6.9381     92.660     31.779  34.498948     0.8406      5.818   358.3034 9.5569e+02     5.3124     -0.638     -0.927    30.4917 0.0000e+00
     -0.631      0.101     6.9389     92.662     41.249  44.547776     1.5029      5.774   128.6179 1.2404e+03     6.5882     -0.627     -0.910    30.5083 0.0000e+00
     -0.596      0.135     6.9451     92.724     43.069  46.290228     2.7489      5.768   107.8394 1.2587e+03     9.0017     -0.586     -0.850    30.4513 0.0000e+00
     -0.550      0.163     7.0053     93.499     43.178  46.235895     3.4457      5.795   103.7167 1.0610e+03    10.3430     -0.541     -0.784    29.9984 0.0000e+00
     -0.497      0.180     7.0728     94.889     43.184  46.112430     3.5276      5.830   103.1196 7.6744e+02    10.4737     -0.490     -0.710    29.3912 0.0000e+00
     -0.440      0.181     7.1377     95.653     43.290  46.130320     3.7386      5.850   104.3193 5.5639e+02    10.7872     -0.429     -0.623    28.9743 0.0000e+00
     -0.387      0.169     7.1452     95.783     43.471  46.261603     4.1246      5.857   105.0579 4.8017e+02    11.4002     -0.375     -0.544    28.7085 0.0000e+00
     -0.343      0.148     7.2105     95.853     43.541  46.303080     4.3494      5.863   105.5115 4.3155e+02    11.7710     -0.333     -0.483    28.5210 0.0000e+00
     -0.309      0.125     7.4208     95.907     43.626  46.377845     4.4006      5.873   106.2760 3.9966e+02    11.8205     -0.301     -0.437    28.3704 0.0000e+00
     -0.283      0.107     7.4683     95.986     43.960  46.721176     4.5354      5.883   107.0742 4.3894e+02    11.6915     -0.273     -0.396    28.2593 0.0000e+00
     -0.268      0.095     7.4643     96.043     44.319  47.089668     4.7566      5.888   107.4196 5.7997e+02    11.4404     -0.261     -0.378    28.1909 0.0000e+00
     -0.255      0.088     7.4868     96.020     44.320  47.087733     4.8691      5.897   107.3546 6.1722e+02    11.3125     -0.255     -0.372    28.1601 0.0000e+00
     -0.232      0.084     7.4818     96.015     43.939  46.697778     4.8802      5.911   107.4927 4.4198e+02    11.3414     -0.231     -0.336    28.1465 0.0000e+00
     -0.201      0.081     7.4968     96.139     43.493  46.247242     4.8410      5.927   108.4012 2.6619e+02    11.4137     -0.195     -0.282    28.1353 0.0000e+00
     -0.174      0.078     7.5037     96.328     43.212  45.957172     4.7361      5.941   109.7356 1.9794e+02    11.5042     -0.167     -0.242    28.1163 0.0000e+00
     -0.155      0.074     7.5025     96.512     43.132  45.856777     4.6607      5.952   110.9785 1.7997e+02    11.5476     -0.151     -0.218    28.1057 0.0000e+00
     -0.142      0.068     7.4902     96.644     43.279  45.985548     4.6373      5.961   113.2752 1.6485e+02    11.5283     -0.141     -0.203    28.1275 0.0000e+00
     -0.131      0.063     7.5030     96.806     43.428  46.117515     4.5859      5.968   115.7368 1.4448e+02    11.5782     -0.128     -0.186    28.1660 0.0000e+00
     -0.117      0.061     7.5137     97.081     43.390  46.055766     4.5049      5.977   115.6188 1.2538e+02    11.6717     -0.117     -0.170    28.1825 0.0000e+00
     -0.100      0.062     7.5353     97.327     43.353  46.000687     4.4650      5.985   114.4301 1.0854e+02    11.6689     -0.100     -0.146    28.1565 0.0000e+00
     -0.080      0.061     7.5490     97.519     43.321  45.959377     4.4534      5.994   113.7534 9.6905e+01    11.6122     -0.077     -0.111    28.1191 0.0000e+00
     -0.063      0.056     7.5562     97.677     43.184  45.810199     4.4318      6.004   113.3749 9.0259e+01    11.5676     -0.062     -0.090    28.0890 0.0000e+00
     -0.047      0.047     7.5944     97.725     43.045  45.657024     4.4196      6.012   113.5530 8.3857e+01    11.6078     -0.046     -0.067    28.0619 0.0000e+00
     -0.034      0.036     7.6126     97.689     42.973  45.567374     4.4146      6.020   114.1860 7.9757e+01    11.7567     -0.028     -0.042    28.0434 0.0000e+00
     -0.028      0.026     7.6260     97.612     42.921  45.487978     4.4041      6.028   114.9194 7.8992e+01    11.8644     -0.025     -0.037    28.0364 0.0000e+00
     -0.027      0.018     7.6454     97.498     42.865  45.395287     4.3933      6.035   115.4510 7.8103e+01    11.8511     -0.027     -0.040    28.0353 0.0000e+00
     -0.026      0.013     7.6458     97.382     42.837  45.335298     4.3421      6.041   116.0537 7.5543e+01    11.7323     -0.026     -0.038    28.0297 0.0000e+00
     -0.024      0.010     7.6443     97.229     42.847  45.333916     4.2597      6.047   116.8719 7.3690e+01    11.6238     -0.024     -0.034    28.0169 0.0000e+00
     -0.021      0.010     7.6429     96.634     42.882  45.378553     4.2123      6.054   117.5139 7.3400e+01    11.6324     -0.020     -0.029    27.9871 0.0000e+00
     -0.018      0.009     7.6381     94.822     42.914  45.430668     4.1937      6.061   117.9656 7.3171e+01    11.6649     -0.018     -0.026    27.9436 0.0000e+00
     -0.014      0.008     7.6340     91.665     42.919  45.456234     4.1338      6.067   118.5478 7.3308e+01    11.6410     -0.014     -0.020    27.9022 0.0000e+00
     -0.011      0.005     7.6312     88.126     42.941  45.497274     4.0291      6.072   118.8743 7.3973e+01    11.5833     -0.010     -0.015    27.8847 0.0000e+00
     -0.011      0.002     7.6143     85.010     42.975  45.546030     3.9773      6.077   118.5583 7.3992e+01    11.5471     -0.010     -0.014    27.9000 0.0000e+00
     -0.012     -0.002     7.4798     82.214     42.958  45.537928     3.9821      6.080   118.2545 7.3790e+01    11.5447     -0.012     -0.016    27.9263 0.0000e+00
     -0.012     -0.004     7.1873     79.391     42.940  45.526291     4.0452      6.081   118.5565 7.4890e+01    11.5204     -0.012     -0.018    27.9509 0.0000e+00
     -0.014     -0.004     6.8803     76.546     42.942  45.532300     4.1572      6.080   119.1985 7.6974e+01    11.4585     -0.013     -0.019    27.9708 0.0000e+00
     -0.018     -0.003     6.6454     73.921     42.903  45.483626     4.2049      6.079   119.8215 7.7666e+01    11.3779     -0.018     -0.026    27.9856 0.0000e+00
     -0.020     -0.001     6.4402     71.896     42.829  45.382113     4.1896      6.079   120.4107 7.6546e+01    11.3311     -0.021     -0.031    27.9971 0.0000e+00
     -0.018      0.000     6.2134     70.764     42.805  45.320543     4.1053      6.080   121.1604 7.5179e+01    11.4732     -0.019     -0.026    28.0065 0.0000e+00
     -0.016      0.001     5.9849     70.478     42.892  45.373916     3.9590      6.080   122.0885 7.3726e+01    11.7640     -0.016     -0.023    28.0134 0.0000e+00
     -0.015      0.001     5.7686     70.761     43.056  45.519553     3.8773      6.078   122.7703 7.2320e+01    11.9093     -0.014     -0.021    28.0073 0.0000e+00
     -0.015      0.001     5.6008     71.238     43.164  45.621366     3.8577      6.078   122.9515 7.1608e+01    11.8628     -0.014     -0.020    27.9798 0.0000e+00
     -0.015     -0.001     5.5219     71.703     43.137  45.589251     3.8560      6.081   122.8160 7.1972e+01    11.7833     -0.014     -0.021    27.9328 0.0000e+00
     -0.016     -0.003     5.5102     72.130     43.066  45.512121     3.9312      6.087   122.6813 7.3380e+01    11.6998     -0.016     -0.023    27.8804 0.0000e+00
     -0.016     -0.004     5.5499     72.401     43.011  45.450534     4.0680      6.095   122.6138 7.4937e+01    11.6392     -0.016     -0.023    27.8467 0.0000e+00
     -0.017     -0.005     5.5943     72.368     42.981  45.415910     4.1539      6.103   122.4299 7.6205e+01    11.6987     -0.017     -0.025    27.8361 0.0000e+00
     -0.019     -0.005     5.6272     72.006     42.976  45.410881     4.1622      6.111   122.1779 7.7421e+01    11.7371     -0.019     -0.027    27.8349 0.0000e+00
     -0.021     -0.002     5.6658     71.357     42.956  45.389731     4.1687      6.120   122.0628 7.8276e+01    11.6243     -0.021     -0.030    27.8348 0.0000e+00
     -0.023      0.003     5.6933     70.565     42.977  45.414098     4.2154      6.126   122.1561 7.8279e+01    11.5313     -0.023     -0.033    27.8305 0.0000e+00
     -0.025      0.008     5.6901     69.782     43.067  45.515069     4.2601      6.130   122.2741 7.7577e+01    11.5692     -0.025     -0.036    27.8254 0.0000e+00
     -0.023      0.009     5.6616     68.974     43.076  45.531436     4.2766      6.132   122.3706 7.5973e+01    11.6378     -0.026     -0.038    27.8250 0.0000e+00
     -0.015      0.006     5.6071     68.137     42.966  45.421566     4.2740      6.134   122.5493 7.3461e+01    11.5408     -0.017     -0.024    27.8256 0.0000e+00
     -0.004      0.000     5.5365     67.527     42.873  45.329265     4.2531      6.134   122.8002 7.1337e+01    11.3518      0.000      0.000    27.8255 0.0000e+00
     -0.002     -0.005     5.4788     67.506     42.838  45.304142     4.2322      6.134   123.3391 7.2167e+01    11.3009      0.004      0.005    27.8351 0.0000e+00
     -0.011     -0.010     5.4161     68.063     42.826  45.308258     4.2369      6.134   124.1604 7.5966e+01    11.3357     -0.010     -0.014    27.8466 0.0000e+00
     -0.024     -0.014     5.3419     68.653     42.814  45.315587     4.2355      6.134   124.7279 7.8622e+01    11.3618     -0.027     -0.039    27.8499 0.0000e+00
     -0.032     -0.016     5.2805     68.823     42.812  45.329308     4.1907      6.135   124.8672 7.9078e+01    11.3442     -0.035     -0.050    27.8562 0.0000e+00
     -0.032     -0.015     5.2734     68.583     42.817  45.347220     4.1524      6.137   124.9841 7.9042e+01    11.2928     -0.033     -0.047    27.8686 0.0000e+00
     -0.029     -0.011     5.3387     68.228     42.804  45.341737     4.1551      6.138   125.4531 7.9195e+01    11.2874     -0.027     -0.039    27.8899 0.0000e+00
     -0.030     -0.006     5.3966     68.127     42.782  45.326506     4.2901      6.138   126.2357 7.9910e+01    11.3122     -0.028     -0.040    27.9163 0.0000e+00
     -0.035     -0.001     5.4044     68.368     42.800  45.353507     4.5367      6.136   126.8750 8.0673e+01    11.3535     -0.035     -0.050    27.9365 0.0000e+00
     -0.040      0.003     5.3774     68.679     42.850  45.414304     4.6643      6.136   127.1606 8.0956e+01    11.4113     -0.041     -0.059    27.9489 0.0000e+00
     -0.039      0.006     5.3344     68.931     42.857  45.426832     4.6679      6.139   127.3660 8.0473e+01    11.3963     -0.042     -0.060    27.9586 0.0000e+00
     -0.033      0.009     5.3220     69.346     42.810  45.378031     4.6558      6.145   127.7226 7.9026e+01    11.3087     -0.033     -0.048    27.9673 0.0000e+00
     -0.025      0.012     5.3526     70.069     42.770  45.332088     4.6348      6.150   128.2029 7.7106e+01    11.3430     -0.023     -0.033    27.9765 0.0000e+00
     -0.021      0.012     5.3826     70.933     42.760  45.315683     4.6130      6.155   128.7000 7.5449e+01    11.5045     -0.020     -0.029    27.9870 0.0000e+00
     -0.020      0.007     5.3890     71.563     42.756  45.306623     4.6081      6.159   129.2586 7.4693e+01    11.6209     -0.020     -0.029    27.9934 0.0000e+00
     -0.019      0.000     5.4176     71.616     42.743  45.286016     4.6185      6.160   130.9989 7.4240e+01    11.6228     -0.019     -0.027    27.9935 0.0000e+00
     -0.018     -0.006     5.4797     71.050     42.727  45.256946     4.6382      6.160   146.7308 7.4192e+01    11.4252     -0.016     -0.024    27.9892 0.0000e+00
     -0.020     -0.010     5.5594     70.137     42.754  45.272519     4.6801      6.160   174.8390 7.5634e+01    11.1787     -0.018     -0.026    27.9825 0.0000e+00
     -0.026     -0.012     5.6217     69.227     42.893  45.410806     4.7174      6.160   188.3863 7.8291e+01    11.1360     -0.025     -0.037    27.9777 0.0000e+00
     -0.033     -0.016     5.6265     68.398     43.072  45.595898     4.7303      6.159   177.6843 8.1211e+01    11.2160     -0.034     -0.049    27.9706 0.0000e+00
     -0.037     -0.023     5.5761     67.503     43.084  45.606083     4.7531      6.153   167.5320 8.3347e+01    11.2239     -0.038     -0.055    27.9545 0.0000e+00
     -0.037     -0.029     5.4924     66.591     42.894  45.406988     4.7931      6.145   177.4007 8.4271e+01    11.1286     -0.037     -0.053    27.9356 0.0000e+00
     -0.039     -0.031     5.4214     66.166     42.711  45.219978     4.8315      6.141   186.5320 8.5812e+01    11.0889     -0.034     -0.049    27.9254 0.0000e+00
     -0.052     -0.028     5.3630     66.545     42.683  45.185851     4.8588      6.140   185.6179 8.9792e+01    11.1536     -0.046     -0.068    27.9239 0.0000e+00
     -0.073     -0.024     5.2968     67.280     42.762  45.248271     4.9154      6.143   184.5888 9.0292e+01    11.3641     -0.076     -0.110    27.9160 0.0000e+00
     -0.085     -0.019     5.2055     67.805     42.812  45.276397     5.0088      6.150   183.2957 8.6737e+01    11.6541     -0.091     -0.133    27.9190 0.0000e+00
     -0.082     -0.012     5.1531     68.055     42.766  45.208488     5.0469      6.157   181.9417 8.6678e+01    11.7552     -0.083     -0.120    27.9378 0.0000e+00
     -0.073     -0.002     5.2052     68.377     42.700  45.125416     5.0269      6.162   180.0910 8.7612e+01    11.7673     -0.068     -0.098    27.9336 0.0000e+00
     -0.070      0.007     5.2850     69.085     42.681  45.097174     4.9173      6.166   170.0397 8.7036e+01    11.7324     -0.066     -0.096    27.9024 0.0000e+00
     -0.074      0.011     5.3292     69.975     42.707  45.120924     4.7207      6.171   152.1305 8.6786e+01    11.5729     -0.075     -0.108    27.8686 0.0000e+00
     -0.074      0.009     5.3395     70.521     42.743  45.158655     4.6137      6.176   141.3950 8.5952e+01    11.4437     -0.076     -0.110    27.8467 0.0000e+00
     -0.068      0.007     5.3520     70.531     42.758  45.172503     4.5967      6.182   139.1830 8.5014e+01    11.3652     -0.067     -0.097    27.8322 0.0000e+00
     -0.063      0.007     5.4159     70.260     42.753  45.161403     4.5656      6.187   139.0659 8.4303e+01    11.3412     -0.060     -0.088    27.8214 0.0000e+00
     -0.060      0.006     5.5070     69.935     42.749  45.151394     4.5210      6.193   149.4435 8.2880e+01    11.3926     -0.059     -0.086    27.8188 0.0000e+00
     -0.060      0.003     5.5560     69.556     42.779  45.178432     4.4984      6.203   168.4660 8.1957e+01    11.4402     -0.059     -0.086    27.8203 0.0000e+00
     -0.061     -0.000     5.5442     69.066     42.832  45.234399     4.5001      6.214   174.8745 8.2427e+01    11.4040     -0.060     -0.087    27.8180 0.0000e+00
     -0.063     -0.001     5.5163     68.416     42.909  45.320259     4.4997      6.222   163.5176 8.3282e+01    11.3305     -0.062     -0.089    27.8110 0.0000e+00
     -0.065     -0.001     5.4949     67.581     42.973  45.391340     4.5770      6.227   147.7335 8.3724e+01    11.4056     -0.064     -0.093    27.8019 0.0000e+00
     -0.065      0.000     5.4661     66.579     42.977  45.395582     4.7271      6.230   139.4171 8.3710e+01    11.5606     -0.065     -0.095    27.7955 0.0000e+00
     -0.063      0.001     5.4301     65.489     42.953  45.371558     4.7998      6.233   137.8189 8.3608e+01    11.6344     -0.063     -0.090    27.7954 0.0000e+00
     -0.062      0.002     5.3782     64.426     42.934  45.354781     4.8065      6.238   137.2719 8.3441e+01    11.6483     -0.060     -0.086    27.8021 0.0000e+00
     -0.062      0.003     5.3122     63.430     42.957  45.383163     4.7337      6.243   136.8477 8.3089e+01    11.5238     -0.060     -0.087    27.8085 0.0000e+00
     -0.062      0.003     5.2318     62.475     43.027  45.460814     4.5848      6.247   136.3033 8.2554e+01    11.3590     -0.062     -0.090    27.8064 0.0000e+00
     -0.061      0.002     5.1413     61.528     43.091  45.531919     4.5055      6.251   135.7660 8.2068e+01    11.3637     -0.061     -0.088    27.8062 0.0000e+00
     -0.060      0.001     5.0570     60.607     43.100  45.544627     4.4987      6.256   135.2551 8.1731e+01    11.4100     -0.059     -0.085    27.8122 0.0000e+00
     -0.058      0.001     4.9790     59.775     43.040  45.487511     4.5444      6.261   134.9443 8.1822e+01    11.3720     -0.057     -0.083    27.8171 0.0000e+00
     -0.058      0.001     4.9055     59.040     42.962  45.412659     4.6165      6.266   134.9337 8.2311e+01    11.3131     -0.057     -0.083    27.8217 0.0000e+00
     -0.059      0.001     4.8303     58.364     42.945  45.401347     4.6376      6.270   135.0413 8.2299e+01    11.3135     -0.058     -0.084    27.8252 0.0000e+00
     -0.061      0.002     4.7546     57.723     43.013  45.477712     4.6334      6.272   135.1260 8.1525e+01    11.3084     -0.060     -0.087    27.8287 0.0000e+00
     -0.061      0.003     4.6889     57.125     43.101  45.574242     4.6160      6.273   135.1833 8.0763e+01    11.2853     -0.061     -0.088    27.8359 0.0000e+00
     -0.059      0.003     4.6322     56.625     43.139  45.616311     4.5765      6.276   135.1317 8.0551e+01    11.3076     -0.059     -0.085    27.8457 0.0000e+00
     -0.056      0.003     4.5787     56.250     43.128  45.605491     4.5472      6.279   134.9321 8.0568e+01    11.3055     -0.055     -0.079    27.8530 0.0000e+00
     -0.055      0.003     4.5288     55.933     43.091  45.570373     4.5286      6.282   134.7491 8.0649e+01    11.3280     -0.053     -0.076    27.8575 0.0000e+00
     -0.055      0.002     4.4789     55.628     43.089  45.572590     4.5091      6.284   134.6400 8.1014e+01    11.4426     -0.053     -0.077    27.8631 0.0000e+00
     -0.056      0.002     4.4378     55.358     43.142  45.632296     4.4943      6.284   134.5600 8.1424e+01    11.5638     -0.055     -0.080    27.8652 0.0000e+00
     -0.057      0.002     4.4119     55.158     43.162  45.657489     4.4909      6.284   134.5554 8.1490e+01    11.5980     -0.057     -0.082    27.8641 0.0000e+00
     -0.056      0.003     4.3881     55.060     43.126  45.623282     4.4772      6.283   134.5851 8.1371e+01    11.5494     -0.056     -0.081    27.8685 0.0000e+00
     -0.055      0.005     4.3619     55.033     43.098  45.599582     4.4530      6.280   134.5748 8.1388e+01    11.5224     -0.053     -0.077    27.8764 0.0000e+00
     -0.053      0.009     4.3402     54.991     43.116  45.624867     4.3891      6.277   134.6033 8.1408e+01    11.5449     -0.052     -0.075    27.8813 0.0000e+00
     -0.052      0.011     4.3225     54.937     43.160  45.675087     4.2794      6.272   134.8438 8.1176e+01    11.5821     -0.052     -0.075    27.8840 0.0000e+00
     -0.049      0.011     4.3151     55.010     43.182  45.698972     4.2254      6.266   135.4167 8.1262e+01    11.6315     -0.050     -0.072    27.8868 0.0000e+00
     -0.043      0.007     4.3165     55.347     43.142  45.659740     4.2194      6.259   136.0246 8.1987e+01    11.6291     -0.044     -0.063    27.8947 0.0000e+00
     -0.036      0.001     4.3127     55.867     43.053  45.581618     4.2567      6.253   136.3433 8.2532e+01    11.5529     -0.035     -0.050    27.9027 0.0000e+00
     -0.034     -0.005     4.3035     56.313     42.970  45.516183     4.3595      6.251   136.5159 8.3714e+01    11.4949     -0.030     -0.043    27.9093 0.0000e+00
     -0.040     -0.010     4.3030     56.513     42.944  45.503391     4.4394      6.251   136.6489 8.5629e+01    11.5434     -0.037     -0.055    27.9092 0.0000e+00
     -0.050     -0.014     4.3325     56.470     42.983  45.553933     4.4734      6.254   136.7476 8.6300e+01    11.6613     -0.051     -0.075    27.9031 0.0000e+00
     -0.057     -0.015     4.3812     56.283     43.038  45.619468     4.5049      6.257   136.8482 8.6436e+01    11.7249     -0.056     -0.083    27.9262 0.0000e+00
     -0.061     -0.012     4.4184     56.043     43.071  45.660985     4.5535      6.260   136.9195 8.7110e+01    11.7316     -0.061     -0.087    27.9625 0.0000e+00
     -0.062     -0.006     4.4321     55.805     43.079  45.675041     4.5865      6.264   136.9213 8.7523e+01    11.7421     -0.062     -0.088    27.9750 0.0000e+00
     -0.061     -0.001     4.4248     55.597     43.060  45.662479     4.5872      6.269   136.8700 8.7222e+01    11.7838     -0.061     -0.087    27.9811 0.0000e+00
     -0.060      0.002     4.4065     55.437     43.029  45.636070     4.5625      6.273   136.8147 8.6731e+01    11.7912     -0.059     -0.086    27.9934 0.0000e+00
     -0.058      0.002     4.3861     55.345     43.000  45.609650     4.5126      6.278   136.6837 8.6553e+01    11.6609     -0.057     -0.083    28.0003 0.0000e+00
     -0.057      0.002     4.3659     55.264     42.986  45.596964     4.4829      6.283   136.5760 8.6398e+01    11.5060     -0.056     -0.081    28.0052 0.0000e+00
     -0.057      0.001     4.3493     55.124     42.997  45.609640     4.4775      6.288   136.7180 8.6523e+01    11.4895     -0.055     -0.080    28.0152 0.0000e+00
     -0.058      0.000     4.3342     54.955     43.021  45.635967     4.4720      6.292   136.9371 8.6824e+01    11.5642     -0.057     -0.082    28.0234 0.0000e+00
     -0.059     -0.001     4.3286     54.816     43.043  45.661357     4.4752      6.296   137.0732 8.6616e+01    11.6243     -0.058     -0.084    28.0283 0.0000e+00
     -0.059     -0.002     4.3261     54.749     43.040  45.662720     4.4752      6.301   137.2456 8.5946e+01    11.6010     -0.059     -0.085    28.0310 0.0000e+00
     -0.059     -0.002     4.3121     54.754     43.024  45.652445     4.4638      6.306   137.4728 8.3910e+01    11.5215     -0.058     -0.084    28.0314 0.0000e+00
     -0.059     -0.001     4.2978     54.772     43.028  45.664101     4.4620      6.311   137.6693 8.0511e+01    11.5171     -0.057     -0.083    28.0319 0.0000e+00
     -0.060     -0.001     4.2855     54.757     43.033  45.676702     4.4951      6.316   137.7294 7.8791e+01    11.5821     -0.059     -0.085    28.0342 0.0000e+00
     -0.061     -0.001     4.2791     54.710     43.028  45.677857     4.5566      6.323   137.7686 7.9738e+01    11.6240     -0.060     -0.086    28.0391 0.0000e+00
     -0.061     -0.001     4.2818     54.623     43.023  45.678074     4.5966      6.328   137.8851 8.1128e+01    11.6478     -0.060     -0.086    28.0476 0.0000e+00
     -0.061     -0.001     4.2840     54.498     43.020  45.679332     4.6133      6.334   137.9346 8.2183e+01    11.6654     -0.060     -0.087    28.0579 0.0000e+00
     -0.061     -0.000     4.2809     54.355     43.028  45.693077     4.7082      6.339   138.0219 8.3220e+01    11.6315     -0.061     -0.088    28.0664 0.0000e+00
     -0.061 -4.081e-08     4.2775     54.215     43.046  45.717324     4.8786      6.344   138.1661 8.3975e+01    11.5793     -0.061     -0.088    28.0730 0.0000e+00
     -0.060 -4.489e-07     4.2707     54.103     43.041  45.718582     4.9760      6.349   138.2161 8.4484e+01    11.6153     -0.059     -0.086    28.0789 0.0000e+00
     -0.060     -0.000     4.2590     53.995     43.026  45.708298     4.9950      6.353   138.2819 8.5015e+01    11.6903     -0.058     -0.084    28.0842 0.0000e+00
     -0.060     -0.000     4.2478     53.864     43.031  45.719943     4.9503      6.357   138.4461 8.5549e+01    11.7011     -0.059     -0.085    28.0900 0.0000e+00
     -0.061     -0.001     4.2345     53.738     43.039  45.732439     4.8428      6.361   138.5661 8.5773e+01    11.6432     -0.060     -0.086    28.0966 0.0000e+00
     -0.061     -0.002     4.2263     53.624     43.036  45.732429     4.7863      6.365   138.5283 8.5618e+01    11.5712     -0.060     -0.087    28.1039 0.0000e+00
     -0.061     -0.003     4.2193     53.529     43.021  45.719828     4.8826      6.369   138.5061 8.5399e+01    11.5818     -0.060     -0.087    28.1113 0.0000e+00
     -0.061     -0.003     4.2061     53.461     43.005  45.707046     5.9732      6.374   138.5551 8.5487e+01    11.7034     -0.060     -0.087    28.1177 0.0000e+00
     -0.062     -0.003     4.1966     53.382     43.000  45.704854     7.9522      6.375   138.6051 8.5967e+01    11.8119     -0.060     -0.087    28.1221 0.0000e+00
     -0.064     -0.003     4.1876     53.272     42.986  45.693320     9.0094      6.376   138.6802 8.6421e+01    11.8001     -0.063     -0.091    28.1256 0.0000e+00
     -0.066     -0.003     4.1782     53.167     42.986  45.694559     8.9846      6.377   138.6888 8.6314e+01    11.7656     -0.065     -0.095    28.1297 0.0000e+00
     -0.066     -0.002     4.1747     53.082     43.006  45.719835     7.8529      6.378   138.7084 8.5765e+01    11.8056     -0.064     -0.094    28.1349 0.0000e+00
     -0.066     -0.001     4.1694     53.002     43.026  45.745013     5.7876      6.380   138.8318 8.5425e+01    11.8735     -0.064     -0.093    28.1393 0.0000e+00
     -0.066     -0.000     4.1583     52.923     43.023  45.745072     4.6635      6.380   138.9761 8.5380e+01    11.9035     -0.065     -0.095    28.1417 0.0000e+00
     -0.066      0.001     4.1495     52.848     42.997  45.720560     4.5655      6.382   139.0759 8.5184e+01    11.8604     -0.065     -0.094    28.1446 0.0000e+00
     -0.065      0.001     4.1442     52.793     42.977  45.702557     4.5602      6.387   139.0921 8.4933e+01    11.7964     -0.064     -0.093    28.1487 0.0000e+00
     -0.065      0.001     4.1362     52.766     42.928  45.654366     4.5751      6.390   139.0865 8.4989e+01    11.7108     -0.064     -0.092    28.1525 0.0000e+00
     -0.065      0.001     4.1315     52.747     42.683  45.391807     4.6209      6.392   139.0944 8.5152e+01    11.6110     -0.063     -0.091    28.1568 0.0000e+00
     -0.065      0.000     4.1230     53.077     42.296  44.940153     4.6647      6.395   139.1877 8.5227e+01    11.6150     -0.064     -0.093    28.1605 0.0000e+00
     -0.065     -0.001     4.1199     55.331     42.137  44.636838     4.6803      6.397   139.3530 8.5180e+01    11.6222     -0.064     -0.093    28.1653 0.0000e+00
     -0.065     -0.002     4.1157     61.077     42.222  44.517247     4.7098      6.398   139.4584 8.5002e+01    11.5609     -0.064     -0.093    28.1684 0.0000e+00
     -0.065     -0.002     4.1185     69.292     42.340  44.445990     4.7703      6.399   139.5163 8.4969e+01    11.5224     -0.064     -0.093    28.1742 0.0000e+00
     -0.066     -0.002     4.0973     77.411     42.437  44.409726     4.8052      6.400   139.6233 8.5318e+01    11.5338     -0.064     -0.093    28.1682 0.0000e+00
     -0.067     -0.002     4.2064     83.955     42.508  44.395936     4.8066      6.402   139.8048 8.5737e+01    11.5959     -0.066     -0.096    28.0024 0.0000e+00
     -0.069     -0.002     4.7278     88.747     42.563  44.406082     4.7458      6.403   139.9904 8.5905e+01    11.5898     -0.067     -0.098    27.6930 0.0000e+00
     -0.069     -0.002     5.4923     91.863     42.583  44.405381     4.6197      6.404   140.1468 8.5872e+01    11.5284     -0.068     -0.098    27.4533 0.0000e+00
     -0.068     -0.002     6.1887     93.393     42.573  44.387431     4.5467      6.405   140.2333 8.5554e+01    11.5366     -0.067     -0.097    27.2986 0.0000e+00
     -0.068     -0.001     6.7115     93.498     42.569  44.379467     4.5378      6.407   140.2621 8.5133e+01    11.5872     -0.066     -0.096    27.1957 0.0000e+00
     -0.069     -0.001     7.0984     92.495     42.569  44.372562     4.5787      6.409   140.2368 8.5164e+01    11.6962     -0.067     -0.098    27.1478 0.0000e+00
     -0.070     -0.001     7.3464     91.032     42.572  44.367403     4.6664      6.411   140.1857 8.5460e+01    11.7942     -0.069     -0.100    27.1298 0.0000e+00
     -0.070     -0.001     7.4624     89.694     42.591  44.380558     4.7156      6.413   140.2459 8.5430e+01    11.7826     -0.068     -0.099    27.1238 0.0000e+00
     -0.069     -0.001     7.4691     88.712     42.615  44.404648     4.7083      6.416   140.3627 8.5315e+01    11.7604     -0.067     -0.097    27.1189 0.0000e+00
     -0.069     -0.000     7.3647     88.048     42.614  44.404773     4.6777      6.420   140.3932 8.5425e+01    11.7987     -0.068     -0.098    27.1138 0.0000e+00
     -0.070      0.001     7.2332     87.553     42.592  44.382066     4.6537      6.423   140.4418 8.5661e+01    11.8693     -0.068     -0.099    27.1020 0.0000e+00
     -0.070      0.001     7.1228     87.125     42.596  44.384001     4.6592      6.425   140.6068 8.5931e+01    11.8974     -0.069     -0.100    27.0916 0.0000e+00
     -0.070      0.000     7.0466     86.767     42.641  44.428173     4.6606      6.426   140.7536 8.5942e+01    11.8307     -0.068     -0.099    27.0911 0.0000e+00
     -0.069     -0.001     6.9989     86.519     42.684  44.471811     4.6288      6.428   140.7538 8.5796e+01    11.7125     -0.067     -0.097    27.0950 0.0000e+00
     -0.068     -0.003     6.9626     86.357     42.678  44.467290     4.5919      6.431   140.6951 8.5733e+01    11.6290     -0.067     -0.097    27.0953 0.0000e+00
     -0.068     -0.003     6.9281     86.224     42.648  44.436985     4.5814      6.434   140.8186 8.5693e+01    11.6418     -0.066     -0.096    27.0931 0.0000e+00
     -0.070     -0.004     6.8981     86.116     42.637  44.422783     4.5927      6.436   141.0429 8.5979e+01    11.6614     -0.069     -0.099    27.0887 0.0000e+00
     -0.074     -0.004     6.8796     86.037     42.638  44.422513     4.5952      6.438   141.0834 8.6650e+01    11.5939     -0.074     -0.105    27.0856 0.0000e+00
     -0.075     -0.004     6.8692     85.943     42.644  44.433725     4.5359      6.439   141.0507 8.7202e+01    11.5087     -0.075     -0.109    27.0891 0.0000e+00
     -0.075     -0.002     6.8574     85.827     42.634  44.431405     4.4338      6.439   141.1634 8.7527e+01    11.4843     -0.073     -0.107    27.0933 0.0000e+00
     -0.075      0.001     6.8486     85.747     42.595  44.394467     4.3846      6.438   141.3277 8.7560e+01    11.5378     -0.073     -0.106    27.0885 0.0000e+00
     -0.075      0.004     6.8454     85.735     42.572  44.367976     4.3901      6.435   141.4019 8.6897e+01    11.6096     -0.074     -0.108    27.0826 0.0000e+00
     -0.075      0.006     6.8374     85.772     42.578  44.365001     4.3930      6.434   141.3730 8.6102e+01    11.6004     -0.075     -0.108    27.0908 0.0000e+00
     -0.073      0.006     6.8239     85.859     42.583  44.358479     4.3861      6.434   141.3228 8.5611e+01    11.5290     -0.071     -0.103    27.1034 0.0000e+00
     -0.068      0.006     6.8157     85.999     42.584  44.352580     4.3813      6.435   141.3107 8.4982e+01    11.4988     -0.065     -0.096    27.1089 0.0000e+00
     -0.065      0.006     6.8167     86.168     42.594  44.357143     4.3765      6.438   141.3127 8.4416e+01    11.5418     -0.063     -0.092    27.1060 0.0000e+00
     -0.064      0.005     6.8210     86.337     42.593  44.350162     4.3027      6.440   141.4328 8.4461e+01    11.6052     -0.063     -0.092    27.0918 0.0000e+00
     -0.065      0.002     6.8291     86.465     42.582  44.331641     4.1555      6.442   141.6439 8.4961e+01    11.6508     -0.064     -0.093    27.0764 0.0000e+00
     -0.065      0.000     6.8428     86.535     42.582  44.323617     4.0703      6.443   141.7142 8.5042e+01    11.6486     -0.065     -0.094    27.0685 0.0000e+00
     -0.065     -0.001     6.8570     86.558     42.581  44.316607     4.0544      6.444   141.6802 8.4953e+01    11.5787     -0.064     -0.093    27.0634 0.0000e+00
     -0.065     -0.001     6.8729     86.521     42.579  44.310355     4.0635      6.445   141.7503 8.5177e+01    11.5575     -0.063     -0.092    27.0567 0.0000e+00
     -0.065     -0.001     6.8852     86.417     42.584  44.311489     4.0972      6.445   141.8737 8.5065e+01    11.6315     -0.064     -0.092    27.0476 0.0000e+00
     -0.066     -0.001     6.8901     86.277     42.605  44.330322     4.1118      6.446   141.9667 8.4951e+01    11.6884     -0.064     -0.094    27.0379 0.0000e+00
     -0.067     -0.001     6.8946     86.168     42.623  44.347630     4.1074      6.448   142.1000 8.5134e+01    11.6301     -0.066     -0.096    27.0296 0.0000e+00
     -0.067     -0.001     6.8920     86.143     42.606  44.330333     4.0857      6.450   142.2811 8.4927e+01    11.5068     -0.066     -0.095    27.0253 0.0000e+00
     -0.066      0.000     6.8836     86.180     42.588  44.311604     4.0568      6.451   142.4352 8.4961e+01    11.4963     -0.065     -0.095    27.0227 0.0000e+00
     -0.066      0.001     6.8707     86.221     42.593  44.311606     4.0573      6.452   142.5872 8.5267e+01    11.5716     -0.065     -0.094    27.0180 0.0000e+00
     -0.066      0.001     6.8601     86.245     42.621  44.330346     4.0674      6.454   142.7418 8.4749e+01    11.5964     -0.064     -0.093    27.0151 0.0000e+00
     -0.066      0.001     6.8590     86.242     42.648  44.347749     4.0628      6.456   142.7568 8.4205e+01    11.5579     -0.065     -0.094    27.0171 0.0000e+00
     -0.066      0.001     6.8641     86.201     42.636  44.331587     4.0753      6.458   142.7685 8.4105e+01    11.5502     -0.065     -0.094    27.0188 0.0000e+00
     -0.065      0.001     6.8683     86.120     42.630  44.325345     4.1192      6.462   142.8830 8.3862e+01    11.6734     -0.064     -0.092    27.0132 0.0000e+00
     -0.065      0.001     6.8718     85.991     42.643  44.335752     4.1531      6.465   142.9360 8.3840e+01    11.8183     -0.063     -0.091    26.9986 0.0000e+00
     -0.065      0.002     6.8747     85.862     42.643  44.330465     4.1601      6.467   142.9791 8.3998e+01    11.8663     -0.064     -0.092    26.9826 0.0000e+00
     -0.064      0.002     6.8706     85.770     42.638  44.324890     4.1455      6.469   143.1460 8.3828e+01    11.8446     -0.063     -0.091    26.9796 0.0000e+00
     -0.064      0.002     6.8657     85.717     42.640  44.331816     4.1101      6.469   143.3199 8.3521e+01    11.7957     -0.063     -0.091    26.9842 0.0000e+00
     -0.063      0.000     6.8530     85.724     42.653  44.350744     4.0815      6.469   143.3602 8.3308e+01    11.7870     -0.062     -0.090    26.9806 0.0000e+00
     -0.062     -0.003     6.8427     85.771     42.660  44.363334     4.0825      6.469   143.3749 8.2948e+01    11.8085     -0.061     -0.088    26.9700 0.0000e+00
     -0.061     -0.005     6.8374     85.842     42.645  44.357089     4.0724      6.468   143.4985 8.2428e+01    11.7820     -0.059     -0.085    26.9673 0.0000e+00
     -0.063     -0.006     6.8290     85.941     42.619  44.338733     4.0261      6.468   143.6506 8.2685e+01    11.6710     -0.060     -0.086    26.9775 0.0000e+00
     -0.069     -0.005     6.8310     86.075     42.611  44.331833     3.9889      6.467   143.8371 8.3614e+01    11.5249     -0.067     -0.096    26.9852 0.0000e+00
     -0.075     -0.004     6.8345     86.264     42.619  44.337132     3.9801      6.466   144.1188 8.3749e+01    11.4847     -0.076     -0.109    26.9878 0.0000e+00
     -0.075     -0.003     6.8379     86.461     42.623  44.339325     4.0287      6.463   144.4755 8.3519e+01    11.5609     -0.075     -0.109    26.9995 0.0000e+00
     -0.071     -0.001     6.8453     86.627     42.639  44.358348     4.1264      6.459   144.8801 8.3286e+01    11.6263     -0.070     -0.102    27.0150 0.0000e+00
     -0.067      0.001     6.8529     86.774     42.650  44.376713     4.1791      6.456   145.0525 8.2406e+01    11.6260     -0.065     -0.095    27.0147 0.0000e+00
     -0.066      0.002     6.8719     86.879     42.637  44.370954     4.1671      6.453   145.0120 8.2061e+01    11.5581     -0.063     -0.091    27.0078 0.0000e+00
     -0.068      0.002     6.8895     86.944     42.615  44.352204     4.0885      6.453   145.0787 8.2926e+01    11.4887     -0.067     -0.097    27.0056 0.0000e+00
     -0.070      0.002     6.9004     86.986     42.604  44.340444     3.9778      6.451   145.2557 8.3707e+01    11.5378     -0.070     -0.101    27.0065 0.0000e+00
     -0.071      0.004     6.9131     86.980     42.624  44.355712     3.9355      6.450   145.5173 8.3684e+01    11.6401     -0.071     -0.102    27.0174 0.0000e+00
     -0.071      0.007     6.9193     86.892     42.624  44.346382     3.9434      6.449   145.8333 8.2999e+01    11.6660     -0.071     -0.103    27.0293 0.0000e+00
     -0.067      0.011     6.9230     86.743     42.586  44.291097     3.9321      6.448   146.1512 8.1471e+01    11.6112     -0.066     -0.095    27.0341 0.0000e+00
     -0.062      0.014     6.9270     86.510     42.579  44.258512     3.8500      6.445   146.3500 7.9488e+01    11.5245     -0.060     -0.086    27.0332 0.0000e+00
     -0.057      0.017     6.9301     86.132     42.615  44.269742     3.7407      6.441   146.0860 7.8314e+01    11.5050     -0.055     -0.080    27.0259 0.0000e+00
     -0.053      0.021     6.9216     85.611     42.656  44.299880     3.7097      6.437   145.5403 7.8375e+01    11.5805     -0.050     -0.073    27.0162 0.0000e+00
     -0.050      0.026     6.9127     84.994     42.660  44.305515     3.7157      6.429   145.4304 7.8478e+01    11.6526     -0.050     -0.072    26.9999 0.0000e+00
     -0.045      0.030     6.9016     84.403     42.628  44.274405     3.7137      6.418   145.6173 7.7788e+01    11.6931     -0.047     -0.067    26.9675 0.0000e+00
     -0.036      0.032     6.8747     84.005     42.603  44.241111     3.7272      6.407   145.5626 7.7131e+01    11.7293     -0.035     -0.052    26.9291 0.0000e+00
     -0.023      0.035     6.8347     83.815     42.596  44.220323     3.7376      6.399   145.4572 7.5966e+01    11.7484     -0.022     -0.033    26.9131 0.0000e+00
     -0.011      0.038     6.7812     83.676     42.607  44.213467     3.7305      6.394   145.5477 7.2594e+01    11.7875     -0.008     -0.012    26.9226 0.0000e+00
     -0.002      0.038     6.7264     83.487     42.636  44.221653     3.6583      6.390   145.8828 6.8928e+01    11.7928     -0.001     -0.001    26.9286 0.0000e+00
      0.004      0.028     6.6947     83.218     42.686  44.255795     3.5056      6.388   146.5834 6.7305e+01    11.6757      0.002      0.003    26.9191 0.0000e+00
      0.014      0.008     6.6892     82.781     42.734  44.308873     3.3986      6.385   147.5654 6.6655e+01    11.5324      0.011      0.016    26.9022 0.0000e+00
      0.026     -0.022     6.6829     82.114     42.748  44.355617     3.3891      6.381   148.4642 6.7748e+01    11.4951      0.029      0.042    26.8811 0.0000e+00
      0.030     -0.056     6.6704     81.445     42.720  44.376701     3.4991      6.377   149.5348 7.3822e+01    11.5662      0.039      0.056    26.8532 0.0000e+00
      0.011     -0.088     6.6552     81.189     42.671  44.373455     3.7039      6.375   155.3483 8.7072e+01    11.6412      0.020      0.029    26.8229 0.0000e+00
     -0.032     -0.113     6.6259     81.540     42.643  44.379911     3.8180      6.375   160.5056 1.0780e+02    11.6160     -0.027     -0.040    26.8210 0.0000e+00
     -0.083     -0.127     6.5597     82.335     42.630  44.391346     3.8215      6.378   155.5354 1.4429e+02    11.5340     -0.087     -0.125    26.8667 0.0000e+00
     -0.126     -0.124     6.4829     83.310     42.607  44.384798     3.9292      6.382   149.8898 2.9395e+02    11.5037     -0.128     -0.185    26.9365 0.0000e+00
     -0.158     -0.107     6.4490     84.299     42.582  44.364238     4.1636      6.387   149.1166 4.5674e+02    11.5577     -0.157     -0.228    26.9953 0.0000e+00
     -0.180     -0.081     6.4799     85.209     42.559  44.333197     4.3082      6.393   149.0255 3.8699e+02    11.6404     -0.182     -0.264    27.0327 0.0000e+00
     -0.193     -0.056     6.5491     85.975     42.564  44.326852     4.3380      6.399   149.0472 2.3965e+02    11.6150     -0.190     -0.275    27.0629 0.0000e+00
     -0.200     -0.038     6.6264     86.511     42.597  44.350975     4.3320      6.404   148.9485 1.9680e+02    11.5245     -0.196     -0.285    27.0866 0.0000e+00
     -0.205     -0.029     6.7082     86.788     42.621  44.370953     4.2864      6.409   148.8643 2.0576e+02    11.5020     -0.203     -0.295    27.0921 0.0000e+00
     -0.206     -0.026     6.7818     86.845     42.626  44.377968     4.2272      6.412   148.9761 3.4856e+02    11.5488     -0.202     -0.292    27.0807 0.0000e+00
     -0.209     -0.028     6.8490     86.746     42.616  44.372314     4.2076      6.414   149.3531 8.2723e+02    11.6109     -0.202     -0.294    27.0639 0.0000e+00
     -0.218     -0.031     6.8941     86.595     42.604  44.366080     4.2153      6.414   149.7228 1.4529e+03    11.6384     -0.212     -0.307    27.0504 0.0000e+00
     -0.229     -0.031     6.9144     86.430     42.597  44.366079     4.1288      6.415   149.8330 1.8127e+03    11.6086     -0.225     -0.326    27.0438 0.0000e+00
     -0.242     -0.026     6.9187     86.235     42.601  44.372311     3.9611      6.417   149.8252 1.9352e+03    11.5575     -0.237     -0.344    27.0481 0.0000e+00
     -0.254     -0.016     6.9048     86.038     42.609  44.377964     3.8682      6.419   149.7997 1.9844e+03    11.5669     -0.251     -0.362    27.0539 0.0000e+00
     -0.260     -0.001     6.8917     85.866     42.608  44.370940     3.8627      6.420   149.7832 1.9905e+03    11.6204     -0.259     -0.374    27.0595 0.0000e+00
     -0.256      0.012     6.8786     85.711     42.599  44.350860     3.9615      6.423   149.7119 1.9852e+03    11.6912     -0.254     -0.368    27.0731 0.0000e+00
     -0.245      0.022     6.8608     85.577     42.589  44.325576     4.1300      6.428   149.5402 1.9746e+03    11.7744     -0.241     -0.349    27.0765 0.0000e+00
     -0.231      0.026     6.8453     85.475     42.599  44.319117     4.2034      6.433   149.5134 1.9450e+03    11.8068     -0.226     -0.327    27.0684 0.0000e+00
     -0.219      0.023     6.8329     85.365     42.626  44.336216     4.1908      6.439   149.5607 1.8055e+03    11.7758     -0.213     -0.309    27.0639 0.0000e+00
     -0.213      0.013     6.8220     85.220     42.636  44.341876     4.1769      6.444   149.5099 1.5457e+03    11.7071     -0.207     -0.301    27.0534 0.0000e+00
     -0.212      0.003     6.8125     85.070     42.619  44.324072     4.1694      6.449   149.5874 1.2752e+03    11.6247     -0.207     -0.300    27.0315 0.0000e+00
     -0.217     -0.004     6.8091     84.944     42.605  44.311367     4.1584      6.452   149.8091 1.1531e+03    11.5643     -0.211     -0.306    27.0100 0.0000e+00
     -0.224     -0.006     6.8033     84.822     42.610  44.315217     4.1437      6.453   149.9536 1.3962e+03    11.5242     -0.220     -0.319    26.9960 0.0000e+00
     -0.230     -0.003     6.7906     84.693     42.609  44.307145     4.1498      6.454   149.9586 1.7864e+03    11.5493     -0.228     -0.331    26.9927 0.0000e+00
     -0.230      0.002     6.7770     84.582     42.591  44.277230     4.1823      6.456   149.8696 1.8799e+03    11.6967     -0.227     -0.330    26.9943 0.0000e+00
     -0.225      0.006     6.7680     84.501     42.594  44.270883     4.2118      6.459   149.8229 1.4322e+03    11.8375     -0.221     -0.320    26.9961 0.0000e+00
     -0.219      0.007     6.7588     84.454     42.620  44.293861     4.2148      6.462   149.9099 6.7570e+02    11.8179     -0.214     -0.310    26.9982 0.0000e+00
     -0.214      0.004     6.7480     84.429     42.625  44.301144     4.2026      6.467   149.9755 2.5391e+02    11.6641     -0.209     -0.302    26.9892 0.0000e+00
     -0.212     -0.001     6.7412     84.363     42.610  44.295474     4.1977      6.471   150.1003 1.9467e+02    11.5149     -0.207     -0.300    26.9727 0.0000e+00
     -0.215     -0.004     6.7361     84.243     42.592  44.288808     4.2057      6.472   150.4716 1.8923e+02    11.5174     -0.210     -0.304    26.9603 0.0000e+00
     -0.221     -0.003     6.7330     84.159     42.581  44.284029     4.2153      6.472   150.8518 1.9451e+02    11.6254     -0.217     -0.314    26.9532 0.0000e+00
     -0.227      0.002     6.7330     84.145     42.600  44.301180     4.2063      6.471   150.9977 2.4358e+02    11.6594     -0.224     -0.325    26.9574 0.0000e+00
     -0.229      0.011     6.7281     84.186     42.612  44.305746     4.1887      6.471   151.0306 5.9037e+02    11.6551     -0.228     -0.330    26.9709 0.0000e+00
     -0.224      0.021     6.7110     84.269     42.596  44.275753     4.1847      6.470   151.1638 1.1147e+03    11.7110     -0.222     -0.322    26.9868 0.0000e+00
     -0.212      0.028     6.7033     84.359     42.595  44.255882     4.1914      6.470   151.3176 1.0537e+03    11.7884     -0.209     -0.303    26.9978 0.0000e+00
     -0.198      0.031     6.7035     84.408     42.610  44.255884     4.2039      6.470   151.3421 5.0497e+02    11.8734     -0.193     -0.282    26.9932 0.0000e+00
     -0.186      0.027     6.7078     84.368     42.634  44.275758     4.2601      6.471   151.3737 2.1117e+02    11.8856     -0.182     -0.264    26.9822 0.0000e+00
     -0.179      0.017     6.7177     84.229     42.656  44.305748     4.3546      6.474   151.4418 1.7791e+02    11.7301     -0.174     -0.252    26.9676 0.0000e+00
     -0.176      0.006     6.7288     84.034     42.641  44.301113     4.3984      6.478   151.4768 1.7031e+02    11.5651     -0.170     -0.246    26.9418 0.0000e+00
     -0.179     -0.003     6.7377     83.874     42.611  44.283213     4.3899      6.481   151.5391 1.6749e+02    11.5645     -0.173     -0.252    26.9192 0.0000e+00
     -0.186     -0.006     6.7348     83.815     42.601  44.279769     4.4013      6.485   151.5918 1.6691e+02    11.6876     -0.182     -0.264    26.9138 0.0000e+00
     -0.192     -0.003     6.7224     83.880     42.583  44.259488     4.4373      6.488   151.6838 1.6708e+02    11.8241     -0.189     -0.274    26.9237 0.0000e+00
     -0.195      0.005     6.7008     84.044     42.566  44.228422     4.4588      6.490   151.8781 1.6667e+02    11.8490     -0.193     -0.280    26.9403 0.0000e+00
     -0.193      0.016     6.6845     84.218     42.579  44.221495     4.4531      6.493   152.0481 1.6454e+02    11.7839     -0.192     -0.279    26.9574 0.0000e+00
     -0.186      0.026     6.6779     84.299     42.614  44.239176     4.4008      6.495   152.1044 1.6012e+02    11.7874     -0.184     -0.267    26.9684 0.0000e+00
     -0.174      0.034     6.6834     84.224     42.638  44.251759     4.3253      6.497   152.1291 1.5350e+02    11.8580     -0.171     -0.247    26.9668 0.0000e+00
     -0.160      0.040     6.7019     83.994     42.642  44.246661     4.2895      6.500   152.1742 1.4630e+02    11.9203     -0.156     -0.226    26.9490 0.0000e+00
     -0.150      0.043     6.7222     83.668     42.647  44.241002     4.2763      6.502   152.3052 1.4078e+02    11.9257     -0.146     -0.211    26.9203 0.0000e+00
     -0.141      0.044     6.7335     83.309     42.662  44.246789     4.1411      6.503   152.5084 1.3220e+02    11.8544     -0.138     -0.200    26.8972 0.0000e+00
     -0.131      0.046     6.7289     82.920     42.675  44.253137     3.8863      6.501   152.6527 1.1952e+02    11.8104     -0.128     -0.186    26.8849 0.0000e+00
     -0.120      0.049     6.7096     82.471     42.679  44.254273     3.7590      6.498   152.8443 1.1102e+02    11.8709     -0.118     -0.171    26.8753 0.0000e+00
     -0.106      0.053     6.6825     81.972     42.685  44.260516     3.7674      6.498   153.0191 1.0501e+02    11.9370     -0.106     -0.153    26.8638 0.0000e+00
     -0.091      0.054     6.6559     81.521     42.691  44.265147     3.7554      6.499   153.1319 9.7376e+01    11.8926     -0.090     -0.131    26.8498 0.0000e+00
     -0.074      0.051     6.6271     81.218     42.676  44.246792     3.6382      6.500   153.2609 8.9235e+01    11.7783     -0.072     -0.106    26.8393 0.0000e+00
     -0.058      0.044     6.5920     81.049     42.658  44.229009     3.4487      6.502   153.2020 8.1706e+01    11.7161     -0.054     -0.079    26.8376 0.0000e+00
     -0.046      0.035     6.5484     80.944     42.667  44.240549     3.3539      6.505   153.1087 7.6739e+01    11.7561     -0.043     -0.062    26.8400 0.0000e+00
     -0.039      0.025     6.5085     80.886     42.682  44.259381     3.3577      6.507   153.1649 7.3916e+01    11.8517     -0.037     -0.054    26.8377 0.0000e+00
     -0.037      0.017     6.4859     80.919     42.683  44.266292     3.3700      6.509   153.1938 7.2399e+01    11.8467     -0.036     -0.052    26.8340 0.0000e+00
     -0.037      0.013     6.4755     81.048     42.671  44.260638     3.3613      6.511   153.0274 7.1909e+01    11.6959     -0.038     -0.054    26.8333 0.0000e+00
     -0.037      0.015     6.4672     81.200     42.659  44.254507     3.3349      6.511   152.7010 7.1614e+01    11.5662     -0.038     -0.055    26.8366 0.0000e+00
     -0.035      0.021     6.4598     81.337     42.656  44.255651     3.3336      6.511   152.5173 7.1450e+01    11.5424     -0.034     -0.050    26.8422 0.0000e+00
     -0.030      0.031     6.4612     81.489     42.673  44.274475     3.3551      6.511   152.5268 7.1450e+01    11.6472     -0.030     -0.043    26.8467 0.0000e+00
     -0.022      0.038     6.4736     81.640     42.692  44.291678     3.3608      6.512   152.5582 7.1258e+01    11.8080     -0.024     -0.035    26.8565 0.0000e+00
     -0.009      0.043     6.4864     81.758     42.680  44.273217     3.3441      6.513   152.5534 6.9167e+01    11.8473     -0.011     -0.015    26.8654 0.0000e+00
      0.010      0.044     6.4940     81.866     42.660  44.241681     3.3283      6.515   152.5541 6.3678e+01    11.7804      0.011      0.016    26.8689 0.0000e+00
      0.025      0.043     6.5071     81.922     42.657  44.227738     3.3782      6.518   152.5669 5.6612e+01    11.7170      0.028      0.041    26.8708 0.0000e+00
      0.034      0.040     6.5220     81.850     42.667  44.231572     3.4809      6.521   152.6214 5.0699e+01    11.6955      0.035      0.050    26.8680 0.0000e+00
      0.039      0.037     6.5291     81.641     42.667  44.224555     3.5307      6.523   152.7829 4.7283e+01    11.6913      0.037      0.053    26.8612 0.0000e+00
      0.044      0.034     6.5413     81.340     42.660  44.206351     3.5226      6.524   152.9715 4.5838e+01    11.6325      0.042      0.061    26.8483 0.0000e+00
      0.052      0.031     6.5509     81.005     42.666  44.201878     3.5317      6.525   153.0954 4.5435e+01    11.5652      0.050      0.072    26.8324 0.0000e+00
      0.064      0.026     6.5454     80.659     42.699  44.233936     3.5744      6.528   153.3338 4.5909e+01    11.5605      0.062      0.090    26.8257 0.0000e+00
      0.076      0.020     6.5280     80.296     42.734  44.276576     3.6067      6.530   154.8220 4.6988e+01    11.5756      0.077      0.112    26.8219 0.0000e+00
      0.082      0.014     6.5036     79.973     42.720  44.273120     3.6217      6.533   167.6472 4.9032e+01    11.5762      0.083      0.121    26.8071 0.0000e+00
      0.082      0.007     6.4782     79.811     42.694  44.255648     3.6314      6.536   179.8597 5.1491e+01    11.5347      0.083      0.120    26.7895 0.0000e+00
      0.078     -0.001     6.4518     79.858     42.689  44.255761     3.6149      6.537   169.6379 5.2548e+01    11.4842      0.076      0.111    26.7863 0.0000e+00
      0.073     -0.010     6.4206     80.055     42.704  44.274500     3.5806      6.535   157.4557 5.2641e+01    11.4779      0.069      0.100    26.7970 0.0000e+00
      0.073     -0.020     6.3877     80.304     42.714  44.291799     3.5582      6.532   156.1184 5.2443e+01    11.5263      0.071      0.102    26.8111 0.0000e+00
      0.074     -0.024     6.3724     80.537     42.684  44.274497     3.5524      6.530   156.1364 5.1516e+01    11.6248      0.076      0.110    26.8232 0.0000e+00
      0.069     -0.021     6.3772     80.753     42.658  44.255757     3.5442      6.528   156.2102 5.1952e+01    11.6440      0.074      0.107    26.8320 0.0000e+00
      0.052     -0.016     6.3962     80.969     42.663  44.255653     3.5248      6.527   156.2357 5.4418e+01    11.5542      0.051      0.075    26.8305 0.0000e+00
      0.034     -0.011     6.4180     81.169     42.696  44.273230     3.5093      6.528   156.1870 5.5876e+01    11.4954      0.023      0.034    26.8356 0.0000e+00
      0.035     -0.011     6.4335     81.301     42.713  44.277835     3.4983      6.530   155.9656 5.4942e+01    11.5135      0.026      0.039    26.8578 0.0000e+00
      0.050     -0.012     6.4478     81.289     42.686  44.247833     3.4921      6.533   155.7100 5.3583e+01    11.5683      0.052      0.078    26.8740 0.0000e+00
      0.060     -0.014     6.4671     81.131     42.658  44.227845     3.4920      6.536   155.5918 5.3762e+01    11.5780      0.066      0.094    26.8665 0.0000e+00
      0.054     -0.017     6.4867     80.927     42.648  44.226604     3.4809      6.538   155.6540 5.4918e+01    11.5278      0.058      0.083    26.8382 0.0000e+00
      0.036     -0.025     6.5034     80.781     42.649  44.232836     3.4588      6.541   155.7744 5.6685e+01    11.5076      0.036      0.052    26.8183 0.0000e+00
      0.017     -0.032     6.5024     80.715     42.657  44.239736     3.4734      6.545   155.7564 5.6907e+01    11.5043      0.010      0.016    26.8187 0.0000e+00
      0.008     -0.032     6.4841     80.663     42.664  44.246549     3.5332      6.548   155.6082 5.4670e+01    11.4536      0.004      0.006    26.8330 0.0000e+00
      0.007     -0.026     6.4634     80.594     42.667  44.251742     3.5733      6.553   155.5320 5.4414e+01    11.3729      0.009      0.014    26.8476 0.0000e+00
      0.005     -0.016     6.4495     80.552     42.650  44.239047     3.5755      6.557   155.6960 5.6345e+01    11.3144      0.006      0.009    26.8522 0.0000e+00
     -0.001     -0.003     6.4485     80.600     42.628  44.220013     3.5933      6.557   156.1276 5.7233e+01    11.3954     -0.001     -0.002    26.8494 0.0000e+00
     -0.006      0.015     6.4451     80.727     42.625  44.212034     3.6393      6.554   156.5350 5.7216e+01    11.6354     -0.007     -0.010    26.8453 0.0000e+00
     -0.007      0.035     6.4382     80.840     42.634  44.206043     3.6736      6.550   156.6645 5.7270e+01    11.8245     -0.008     -0.012    26.8491 0.0000e+00
      0.000      0.057     6.4309     80.874     42.658  44.211031     3.7001      6.546   156.7458 5.7215e+01    11.8718     -0.005     -0.007    26.8576 0.0000e+00
      0.021      0.078     6.4344     80.794     42.669  44.208829     3.7094      6.543   156.9163 5.6015e+01    11.8306      0.014      0.021    26.8638 0.0000e+00
      0.055      0.096     6.4484     80.499     42.651  44.179401     3.7036      6.542   157.0048 5.4018e+01    11.7025      0.057      0.083    26.8612 0.0000e+00
      0.088      0.106     6.4624     79.976     42.660  44.172580     3.7208      6.541   156.9562 5.2316e+01    11.5533      0.090      0.130    26.8388 0.0000e+00
      0.117      0.105     6.4672     79.382     42.693  44.189803     3.7508      6.543   156.9308 5.0200e+01    11.5298      0.112      0.162    26.8094 0.0000e+00
      0.146      0.094     6.4670     78.772     42.710  44.197192     3.7763      6.547   157.0422 4.7831e+01    11.5891      0.144      0.209    26.7964 0.0000e+00
      0.173      0.076     6.4469     78.066     42.714  44.198432     3.7615      6.551   157.0978 4.6211e+01    11.5182      0.174      0.251    26.7892 0.0000e+00
      0.192      0.057     6.3984     77.286     42.716  44.204788     3.6970      6.555   157.0005 4.5415e+01    11.3563      0.190      0.276    26.7672 0.0000e+00
      0.202      0.040     6.3531     76.617     42.713  44.210572     3.6543      6.559   156.8989 4.5235e+01    11.2713      0.200      0.290    26.7426 0.0000e+00
      0.205      0.025     6.3099     76.233     42.700  44.204910     3.6691      6.564   156.9015 4.5225e+01    11.3098      0.204      0.295    26.7310 0.0000e+00
      0.204      0.015     6.2539     76.191     42.693  44.199811     3.7017      6.569   157.0322 4.5131e+01    11.3782      0.200      0.291    26.7282 0.0000e+00
      0.203      0.010     6.1835     76.438     42.704  44.212401     3.6992      6.573   157.1890 4.5543e+01    11.3458      0.197      0.286    26.7333 0.0000e+00
      0.206      0.009     6.1231     76.834     42.721  44.230196     3.6711      6.577   157.3344 4.6683e+01    11.2948      0.201      0.292    26.7477 0.0000e+00
      0.211      0.010     6.0899     77.238     42.717  44.224536     3.6625      6.581   157.4988 4.7612e+01    11.2735      0.207      0.301    26.7589 0.0000e+00
      0.215      0.012     6.0878     77.570     42.703  44.207428     3.6865      6.583   157.5420 4.7867e+01    11.2586      0.212      0.308    26.7590 0.0000e+00
      0.218      0.014     6.1121     77.771     42.711  44.213776     3.7282      6.586   157.7720 4.7809e+01    11.2853      0.214      0.310    26.7592 0.0000e+00
      0.220      0.021     6.1482     77.780     42.733  44.237802     3.7500      6.586   158.6438 4.7805e+01    11.2890      0.215      0.312    26.7607 0.0000e+00
      0.223      0.033     6.1827     77.650     42.740  44.244028     3.7503      6.583   159.7367 4.8147e+01    11.2697      0.218      0.317    26.7585 0.0000e+00
      0.227      0.048     6.2100     77.486     42.730  44.225573     3.8401      6.580   160.4894 4.8836e+01    11.3592      0.222      0.322    26.7543 0.0000e+00
      0.236      0.061     6.2307     77.307     42.722  44.205081     4.0290      6.580   160.8621 4.8808e+01    11.5512      0.225      0.326    26.7514 0.0000e+00
      0.258      0.067     6.2284     77.045     42.714  44.186668     4.1441      6.581   161.0593 4.7426e+01    11.6778      0.247      0.358    26.7560 0.0000e+00
      0.293      0.067     6.2132     76.638     42.725  44.193349     4.1669      6.583   161.3253 4.6895e+01    11.6603      0.292      0.425    26.7582 0.0000e+00
      0.321      0.064     6.2016     76.148     42.753  44.222378     4.2044      6.585   161.7551 4.8205e+01    11.5118      0.321      0.468    26.7455 0.0000e+00
      0.332      0.059     6.1914     75.698     42.749  44.220287     4.2644      6.587   162.2988 4.9755e+01    11.3504      0.328      0.476    26.7277 0.0000e+00
      0.334      0.055     6.1753     75.347     42.759  44.231544     4.3106      6.589   162.9082 5.0736e+01    11.3140      0.326      0.473    26.7147 0.0000e+00
      0.337      0.055     6.1406     75.117     42.829  44.295010     4.3461      6.591   163.4447 5.0481e+01    11.3448      0.325      0.473    26.7091 0.0000e+00
      0.349      0.061     6.0962     74.962     42.912  44.352879     4.3693      6.592   163.8812 4.9065e+01    11.3130      0.339      0.491    26.7112 0.0000e+00
      0.371      0.069     6.0592     74.673     42.955  44.359912     4.4838      6.593   164.3146 4.7483e+01    11.1340      0.363      0.526    26.7158 0.0000e+00
      0.398      0.074     6.0296     73.823     42.937  44.316513     4.7147      6.595   164.6403 4.6166e+01    10.9228      0.390      0.567    26.7182 0.0000e+00
      0.424      0.073     6.0124     72.034     42.897  44.272424     4.8552      6.597   164.8083 4.4857e+01    10.8775      0.417      0.605    26.7140 0.0000e+00
      0.444      0.066     6.0086     69.542     42.881  44.271166     4.8852      6.599   164.9690 4.3173e+01    10.9284      0.439      0.638    26.6793 0.0000e+00
      0.457      0.056     6.0043     67.140     42.890  44.301329     4.9521      6.602   165.2065 4.1218e+01    10.8889      0.451      0.654    26.6225 0.0000e+00
      0.465      0.046     5.9570     65.581     42.897  44.319777     5.0567      6.606   165.4435 3.9481e+01    10.7418      0.456      0.661    26.5889 0.0000e+00
      0.474      0.038     5.8063     65.208     42.884  44.303812     5.1002      6.608   165.6834 3.8123e+01    10.6187      0.465      0.674    26.5877 0.0000e+00
      0.484      0.035     5.5751     65.839     42.890  44.298725     5.1041      6.611   165.9568 3.7092e+01    10.5955      0.476      0.690    26.6126 0.0000e+00
      0.491      0.037     5.3574     66.899     42.927  44.321715     5.1453      6.614   166.1678 3.6575e+01    10.5644      0.483      0.702    26.6447 0.0000e+00
      0.497      0.038     5.2204     67.799     42.947  44.327855     5.2075      6.616   166.3408 3.6391e+01    10.4812      0.485      0.704    26.6587 0.0000e+00
      0.507      0.038     5.1965     68.202     42.937  44.309473     5.2315      6.619   166.6720 3.6163e+01    10.4444      0.494      0.716    26.6533 0.0000e+00
      0.523      0.035     5.2684     68.000     42.914  44.289865     5.2020      6.622   167.1613 3.5835e+01    10.4259      0.515      0.746    26.6367 0.0000e+00
      0.537      0.033     5.3733     67.281     42.895  44.281217     5.1096      6.624   167.5249 3.5479e+01    10.3946      0.531      0.770    26.6178 0.0000e+00
      0.543      0.032     5.4560     66.420     42.870  44.268408     4.9798      6.625   167.7124 3.5059e+01    10.4075      0.534      0.775    26.5985 0.0000e+00
      0.544      0.030     5.4916     65.900     42.855  44.261953     4.9139      6.626   167.8796 3.4409e+01    10.4457      0.532      0.771    26.5866 0.0000e+00
      0.549      0.027     5.4742     65.915     42.854  44.266668     4.9129      6.629   168.0844 3.3624e+01    10.4122      0.536      0.777    26.5934 0.0000e+00
      0.558      0.026     5.4034     66.360     42.849  44.261940     5.0336      6.633   168.2963 3.2889e+01    10.2761      0.547      0.793    26.6104 0.0000e+00
      0.568      0.025     5.3150     67.076     42.856  44.268269     5.2833      6.635   168.3758 3.2142e+01    10.1658      0.558      0.810    26.6250 0.0000e+00
      0.575      0.021     5.2669     67.877     42.868  44.279706     5.4351      6.638   168.4434 3.1474e+01    10.1727      0.566      0.821    26.6370 0.0000e+00
      0.580      0.011     5.2744     68.606     42.857  44.273272     5.4544      6.640   168.5980 3.0979e+01    10.2222      0.569      0.826    26.6435 0.0000e+00
      0.585      0.000     5.3127     69.190     42.823  44.253959     5.4412      6.641   168.7823 3.0536e+01    10.2179      0.574      0.833    26.6438 0.0000e+00
      0.585     -0.006     5.3761     69.605     42.786  44.236649     5.2677      6.642   169.0371 3.0191e+01    10.2232      0.579      0.839    26.6423 0.0000e+00
      0.577     -0.006     5.4468     70.029     42.788  44.254442     4.9544      6.640   169.1827 3.0059e+01    10.3193      0.569      0.824    26.6373 0.0000e+00
      0.565     -0.003     5.5044     70.719     42.808  44.278687     4.7993      6.639   169.3390 3.0007e+01    10.4236      0.550      0.797    26.6398 0.0000e+00
      0.561      0.002     5.5531     71.694     42.809  44.275898     4.7905      6.639   169.6364 2.9807e+01    10.4599      0.544      0.790    26.6622 0.0000e+00
      0.569      0.009     5.5770     72.659     42.823  44.284183     4.7570      6.642   169.7674 2.9550e+01    10.4853      0.557      0.807    26.6922 0.0000e+00
      0.580      0.019     5.5982     73.219     42.863  44.315378     4.7101      6.645   169.8036 2.9445e+01    10.5589      0.571      0.828    26.7124 0.0000e+00
      0.587      0.027     5.6535     73.209     42.901  44.335683     4.6982      6.647   169.9019 2.9423e+01    10.6327      0.577      0.838    26.7147 0.0000e+00
      0.590      0.032     5.7409     72.680     42.934  44.339236     4.7210      6.648   170.0092 2.9341e+01    10.6942      0.577      0.838    26.7075 0.0000e+00
      0.595      0.034     5.8336     71.587     42.982  44.358294     4.7776      6.650   170.1546 2.9155e+01    10.7226      0.581      0.844    26.7013 0.0000e+00
      0.605      0.035     5.8840     69.780     43.017  44.375638     4.8505      6.654   170.2831 2.8911e+01    10.6682      0.591      0.859    26.6918 0.0000e+00
      0.618      0.037     5.8802     67.380     43.009  44.358476     4.8780      6.657   170.4450 2.8583e+01    10.5833      0.605      0.879    26.6710 0.0000e+00
      0.632      0.040     5.8427     64.837     42.994  44.341203     4.8928      6.658   170.7358 2.8171e+01    10.5846      0.621      0.901    26.6314 0.0000e+00
      0.642      0.043     5.7683     62.590     43.011  44.357218     4.9793      6.658   171.0458 2.7788e+01    10.7185      0.631      0.916    26.5895 0.0000e+00
      0.648      0.045     5.6226     60.921     43.022  44.361690     5.0998      6.657   171.2673 2.7413e+01    10.8697      0.634      0.920    26.5672 0.0000e+00
      0.656      0.047     5.4138     59.917     43.002  44.331780     5.1519      6.657   171.3498 2.6986e+01    10.9091      0.640      0.929    26.5606 0.0000e+00
      0.670      0.048     5.1972     59.443     42.995  44.312948     5.1603      6.657   171.3539 2.6503e+01    10.8533      0.655      0.950    26.5607 0.0000e+00
      0.687      0.048     5.0092     59.299     43.018  44.324394     5.2593      6.658   171.4035 2.6059e+01    10.9132      0.674      0.977    26.5619 0.0000e+00
      0.703      0.046     4.8720     59.378     43.045  44.343202     5.4328      6.661   171.4335 2.5813e+01    11.1201      0.691      1.002    26.5528 0.0000e+00
      0.715      0.042     4.7982     59.592     43.055  44.349912     5.5275      6.664   171.4581 2.5710e+01    11.2029      0.703      1.019    26.5405 0.0000e+00
      0.723      0.036     4.7683     59.803     43.050  44.342046     5.5296      6.666   171.6147 2.5592e+01    11.1294      0.710      1.029    26.5282 0.0000e+00
      0.729      0.030     4.7601     59.876     43.021  44.311567     5.5087      6.668   171.8652 2.5419e+01    11.0509      0.715      1.037    26.5105 0.0000e+00
      0.735      0.028     4.7691     59.789     43.011  44.298768     5.5160      6.672   172.0776 2.5219e+01    11.1083      0.721      1.045    26.5000 0.0000e+00
      0.740      0.028     4.7906     59.641     43.028  44.314245     5.5512      6.674   172.2034 2.5058e+01    11.2765      0.725      1.053    26.4966 0.0000e+00
      0.746      0.033     4.8130     59.533     43.026  44.308270     5.5765      6.674   172.4397 2.4950e+01    11.3768      0.731      1.060    26.4945 0.0000e+00
      0.754      0.040     4.8196     59.493     43.011  44.290000     5.5806      6.674   172.9552 2.4833e+01    11.3988      0.739      1.072    26.4932 0.0000e+00
      0.764      0.048     4.8087     59.508     43.009  44.283757     5.5175      6.672   173.5327 2.4653e+01    11.4053      0.749      1.086    26.4913 0.0000e+00
      0.777      0.054     4.7939     59.603     43.026  44.296243     5.4212      6.670   173.8295 2.4414e+01    11.4889      0.761      1.103    26.4885 0.0000e+00
      0.794      0.055     4.7847     59.798     43.047  44.314017     5.3821      6.669   173.8769 2.4137e+01    11.6239      0.776      1.126    26.4852 0.0000e+00
      0.813      0.052     4.7834     60.088     43.042  44.308232     5.3766      6.671   173.9336 2.3783e+01    11.6716      0.797      1.156    26.4810 0.0000e+00
      0.831      0.047     4.7838     60.493     43.023  44.289770     5.2975      6.673   174.0846 2.3422e+01    11.6898      0.818      1.186    26.4762 0.0000e+00
      0.843      0.041     4.7905     60.979     43.012  44.281218     5.1407      6.674   174.1544 2.3174e+01    11.7419      0.830      1.204    26.4692 0.0000e+00
      0.847      0.036     4.8085     61.437     42.996  44.268313     5.0545      6.675   174.0890 2.2968e+01    11.7893      0.832      1.206    26.4635 0.0000e+00
      0.849      0.032     4.8301     61.787     42.987  44.260697     5.0453      6.676   174.1548 2.2748e+01    11.8187      0.830      1.204    26.4634 0.0000e+00
      0.856      0.030     4.8628     62.013     42.982  44.252605     5.0459      6.677   174.3472 2.2518e+01    11.6539      0.837      1.214    26.4648 0.0000e+00
      0.867      0.031     4.9064     62.180     42.970  44.233945     5.0540      6.679   174.4356 2.2288e+01    11.2985      0.849      1.234    26.4685 0.0000e+00
      0.878      0.032     4.9444     62.411     42.968  44.225499     5.0432      6.681   174.4504 2.2157e+01    11.0740      0.863      1.252    26.4756 0.0000e+00
      0.886      0.034     4.9731     62.789     42.962  44.213949     5.0404      6.682   174.4402 2.2100e+01    11.0916      0.870      1.262    26.4771 0.0000e+00
      0.893      0.034     4.9903     63.353     42.971  44.221232     5.1370      6.684   174.4841 2.2048e+01    11.3068      0.875      1.269    26.4725 0.0000e+00
      0.900      0.035     4.9990     64.040     43.001  44.250079     5.3041      6.686   174.6365 2.1996e+01    11.5588      0.883      1.279    26.4657 0.0000e+00
      0.908      0.036     5.0174     64.729     43.000  44.245364     5.3960      6.687   174.7341 2.1881e+01    11.6438      0.890      1.290    26.4558 0.0000e+00
      0.918      0.038     5.0463     65.332     42.987  44.227686     5.3992      6.689   174.8902 2.1717e+01    11.5836      0.899      1.304    26.4486 0.0000e+00
      0.929      0.039     5.0936     65.787     42.989  44.226751     5.3508      6.691   175.1480 2.1508e+01    11.4799      0.910      1.321    26.4482 0.0000e+00
      0.942      0.039     5.1542     66.098     42.998  44.234054     5.2766      6.693   175.3559 2.1227e+01    11.4149      0.924      1.341    26.4481 0.0000e+00
      0.953      0.038     5.2107     66.323     43.016  44.252506     5.2430      6.696   175.5973 2.0967e+01    11.4131      0.936      1.357    26.4429 0.0000e+00
      0.961      0.036     5.2631     66.462     43.021  44.259434     5.2446      6.698   175.8295 2.0754e+01    11.3896      0.943      1.367    26.4369 0.0000e+00
      0.968      0.036     5.2998     66.471     43.015  44.254346     5.2379      6.699   175.9256 2.0551e+01    11.3347      0.949      1.377    26.4325 0.0000e+00
      0.975      0.037     5.3221     66.335     43.015  44.254460     5.2287      6.699   175.9846 2.0376e+01    11.3977      0.956      1.387    26.4301 0.0000e+00
      0.984      0.038     5.3404     66.102     43.023  44.260820     5.2246      6.700   176.0276 2.0199e+01    11.5717      0.964      1.399    26.4304 0.0000e+00
      0.996      0.040     5.3534     65.853     43.033  44.267756     5.2221      6.701   176.0153 1.9969e+01    11.6614      0.976      1.416    26.4326 0.0000e+00
      1.009      0.041     5.3545     65.641     43.045  44.274848     5.2556      6.703   176.0939 1.9741e+01    11.6290      0.990      1.436    26.4353 0.0000e+00
      1.021      0.041     5.3418     65.449     43.057  44.283093     5.5306      6.705   176.2896 1.9615e+01    11.5565      1.002      1.454    26.4367 0.0000e+00
      1.030      0.040     5.3207     65.249     43.082  44.303960     6.0079      6.706   176.4876 1.9548e+01    11.5020      1.011      1.465    26.4342 0.0000e+00
      1.039      0.038     5.2991     65.047     43.121  44.336710     6.2664      6.707   176.5096 1.9408e+01    11.4811      1.017      1.475    26.4275 0.0000e+00
      1.050      0.037     5.2840     64.839     43.155  44.361682     6.3091      6.709   176.4697 1.9201e+01    11.5101      1.029      1.493    26.4212 0.0000e+00
      1.060      0.037     5.2699     64.607     43.216  44.415456     6.3994      6.709   176.6927 1.9033e+01    11.5102      1.040      1.509    26.4170 0.0000e+00
      1.068      0.038     5.2540     64.332     43.286  44.479067     6.5250      6.709   177.0560 1.8923e+01    11.3797      1.047      1.518    26.4127 0.0000e+00
      1.075      0.039     5.2378     63.925     43.309  44.496023     6.5796      6.709   177.2480 1.8828e+01    11.2647      1.053      1.528    26.4046 0.0000e+00
      1.085      0.038     5.2240     63.256     43.309  44.493503     6.5682      6.710   177.2085 1.8705e+01    11.2473      1.062      1.541    26.3922 0.0000e+00
      1.097      0.037     5.2051     62.276     43.327  44.512073     6.4374      6.713   177.1796 1.8560e+01    11.1683      1.076      1.561    26.3807 0.0000e+00
      1.110      0.035     5.1869     61.078     43.344  44.530114     6.1964      6.716   177.2428 1.8414e+01    10.9930      1.090      1.581    26.3713 0.0000e+00
      1.120      0.033     5.1600     59.930     43.334  44.521218     6.0520      6.717   177.2846 1.8266e+01    10.8358      1.100      1.595    26.3630 0.0000e+00
      1.125      0.031     5.1071     59.046     43.340  44.531466     6.0310      6.717   177.4269 1.8144e+01    10.7712      1.104      1.601    26.3586 0.0000e+00
      1.130      0.029     5.0278     58.471     43.395  44.590548     6.1668      6.718   177.6732 1.8034e+01    10.8603      1.107      1.606    26.3603 0.0000e+00
      1.136      0.029     4.9198     58.175     43.469  44.664295     6.4380      6.719   177.8526 1.7892e+01    11.0253      1.113      1.614    26.3634 0.0000e+00
      1.144      0.029     4.8208     58.100     43.531  44.724881     6.5964      6.720   177.9606 1.7706e+01    11.1269      1.121      1.626    26.3630 0.0000e+00
      1.154      0.029     4.7492     58.095     43.559  44.751797     6.6094      6.721   178.0331 1.7513e+01    11.1325      1.132      1.642    26.3682 0.0000e+00
      1.164      0.027     4.7033     57.890     43.546  44.735832     6.5777      6.722   178.0414 1.7385e+01    11.0593      1.142      1.657    26.3736 0.0000e+00
      1.172      0.023     4.6814     57.363     43.538  44.722267     6.4711      6.724   177.9746 1.7313e+01    10.9242      1.149      1.667    26.3689 0.0000e+00
      1.177      0.019     4.6782     56.602     43.598  44.778214     6.3278      6.726   177.9997 1.7229e+01    10.7631      1.154      1.674    26.3647 0.0000e+00
      1.180      0.018     4.6891     55.759     43.787  44.967934     6.2759      6.727   178.3454 1.7125e+01    10.6826      1.158      1.679    26.3643 0.0000e+00
      1.181      0.020     4.6766     55.034     44.063  45.238770     6.2772      6.726   178.7986 1.7018e+01    10.6341      1.159      1.680    26.3619 0.0000e+00
      1.182      0.024     4.6293     54.472     44.294  45.450257     6.2857      6.724   179.0055 1.6889e+01    10.5527      1.157      1.678    26.3537 0.0000e+00
      1.188      0.030     4.5665     53.729     44.430  45.557136     6.3282      6.722   179.1263 1.6722e+01    10.5184      1.163      1.686    26.3452 0.0000e+00
      1.200      0.035     4.4911     52.267     44.479  45.578792     6.3667      6.722   179.3125 1.6560e+01    10.5609      1.177      1.706    26.3453 0.0000e+00
      1.214      0.040     4.4288     49.784     44.504  45.585097     6.4093      6.723   179.4501 1.6459e+01    10.6560      1.191      1.727    26.3360 0.0000e+00
      1.226      0.042     4.3983     46.409     44.564  45.633337     6.6769      6.723   179.5859 1.6409e+01    10.6780      1.203      1.745    26.3031 0.0000e+00
      1.237      0.041     4.3598     42.585     44.596  45.654198     7.1478      6.723   179.8350 1.6347e+01    10.5876      1.213      1.760    26.2604 0.0000e+00
      1.246      0.038     4.2551     38.939     44.533  45.583397     7.4006      6.722   180.2258 1.6260e+01    10.5196      1.222      1.772    26.2245 0.0000e+00
      1.256      0.036     4.0498     35.879     44.484  45.539025     7.4030      6.721   180.6106 1.6169e+01    10.5387      1.232      1.786    26.2044 0.0000e+00
      1.264      0.034     3.7660     33.383     44.560  45.625549     7.1009      6.720   180.8741 1.6083e+01    10.5462      1.240      1.798    26.1950 0.0000e+00
      1.271      0.034     3.4377     31.588     44.677  45.740859     6.5194      6.717   181.0895 1.5977e+01    10.4733      1.247      1.808    26.1795 0.0000e+00
      1.279      0.035     3.1265     30.786     44.744  45.790579     6.1819      6.716   181.2351 1.5824e+01    10.4091      1.255      1.819    26.1652 0.0000e+00
      1.289      0.036     2.8887     30.673     44.821  45.845797     6.1079      6.716   181.3437 1.5624e+01    10.3510      1.263      1.832    26.1783 0.0000e+00
      1.299      0.036     2.6823     30.414     44.962  45.964100     5.7999      6.716   181.4562 1.5410e+01    10.3855      1.273      1.847    26.1985 0.0000e+00
      1.309      0.036     2.5192     29.466     45.102  46.078273     5.2459      6.716   181.4768 1.5243e+01    10.5525      1.284      1.863    26.1907 0.0000e+00
      1.318      0.035     2.4656     27.821     45.197  46.147048     4.9450      6.717   181.5073 1.5118e+01    10.6616      1.294      1.876    26.1625 0.0000e+00
      1.327      0.034     2.4899     25.608     45.237  46.160800     4.9161      6.718   181.6531 1.4990e+01    10.6801      1.302      1.888    26.1369 0.0000e+00
      1.335      0.031     2.4869     22.937     45.218  46.117541     4.9046      6.719   181.7766 1.4874e+01    10.6400      1.309      1.899    26.1096 0.0000e+00
      1.344      0.029     2.4060     19.997     45.249  46.131811     4.9651      6.719   181.8825 1.4789e+01    10.5526      1.318      1.912    26.0759 0.0000e+00
      1.351      0.029     2.2705     17.089     45.457  46.333310     5.0984      6.720   181.9869 1.4743e+01    10.4767      1.326      1.923    26.0459 0.0000e+00
      1.357      0.029     2.0902     14.591     45.844  46.712851     5.1676      6.721   182.0066 1.4719e+01    10.4747      1.331      1.930    26.0155 0.0000e+00
      1.363      0.030     1.8700     12.849     46.311  47.165769     5.1361      6.722   182.0346 1.4674e+01    10.4602      1.336      1.937    25.9855 0.0000e+00
      1.370      0.032     1.6223     11.842     46.838  47.683023     4.7337      6.722   182.1527 1.4593e+01    10.1990      1.343      1.947    25.9653 0.0000e+00
      1.379      0.035     1.3766     11.060     47.429  48.268959     4.0061      6.723   182.4022 1.4484e+01     9.8439      1.351      1.960    25.9584 0.0000e+00
      1.389      0.037     1.1610     10.032     48.029  48.853852     3.6213      6.725   182.7289 1.4356e+01     9.7532      1.362      1.975    25.9468 0.0000e+00
      1.400      0.038     1.0178      8.765     48.503  49.294825     3.5856      6.727   182.9198 1.4205e+01     9.7856      1.373      1.991    25.9156 0.0000e+00
      1.411      0.037     0.9571      7.539     48.530  49.283313     3.5160      6.728   182.9031 1.4037e+01     9.5189      1.384      2.008    25.8921 0.0000e+00
      1.421      0.034     0.9103      6.467     48.172  48.905077     3.3961      6.730   182.8708 1.3903e+01     8.9872      1.395      2.023    25.8852 0.0000e+00
      1.429      0.030     0.8254      5.472     47.910  48.657996     3.3427      6.731   182.9589 1.3808e+01     8.7194      1.401      2.033    25.8592 0.0000e+00
      1.435      0.026     0.7097      4.541     47.814  48.581558     3.3530      6.732   183.1087 1.3724e+01     8.7747      1.407      2.041    25.8117 0.0000e+00
      1.440      0.021     0.6087      3.900     47.659  48.425333     3.3780      6.734   183.2197 1.3647e+01     8.7678      1.413      2.050    25.7605 0.0000e+00
      1.446      0.017     0.5254      3.793     47.534  48.292816     3.4211      6.737   183.3546 1.3567e+01     8.6021      1.418      2.057    25.7370 0.0000e+00
      1.451      0.016     0.4461      4.118     47.622  48.376046     3.4409      6.739   183.6202 1.3495e+01     8.4447      1.424      2.065    25.7742 0.0000e+00
      1.454      0.016     0.3629      4.644     47.689  48.415835     3.4589      6.739   183.6779 1.3460e+01     8.4361      1.427      2.070    25.8112 0.0000e+00
      1.455      0.017     0.2977      5.305     47.344  48.011991     3.5560      6.739   183.4502 1.3441e+01     8.4639      1.427      2.070    25.7967 0.0000e+00
      1.458      0.019     0.2965      6.055     46.832  47.429322     3.6995      6.740   183.4489 1.3365e+01     8.4059      1.428      2.071    25.7873 0.0000e+00
      1.463      0.020     0.3318      6.670     46.612  47.148017     3.7625      6.741   183.7478 1.3228e+01     8.3146      1.434      2.080    25.7976 0.0000e+00
      1.472      0.022     0.3746      6.857     46.584  47.086617     3.7433      6.744   183.9672 1.3115e+01     8.2484      1.444      2.094    25.7683 0.0000e+00
      1.481      0.024     0.4282      6.496     46.505  47.004312     3.7257      6.745   184.0365 1.3065e+01     8.3230      1.454      2.107    25.7011 0.0000e+00
      1.486      0.024     0.4976      5.781     46.415  46.914692     3.7247      6.745   184.1546 1.3047e+01     8.5668      1.458      2.114    25.6299 0.0000e+00
      1.490      0.023     0.5591      5.068     46.415  46.891811     3.7310      6.745   184.1906 1.3035e+01     8.7715      1.460      2.118    25.5585 0.0000e+00
      1.495      0.022     0.5788      4.508     46.425  46.854581     3.7434      6.745   184.1285 1.3008e+01     8.7828      1.465      2.125    25.5179 0.0000e+00
      1.501      0.021     0.5438      4.039     46.401  46.781897     3.7501      6.746   184.0917 1.2935e+01     8.6694      1.472      2.135    25.5276 0.0000e+00
      1.508      0.021     0.4699      3.600     46.437  46.774720     3.7620      6.747   184.0032 1.2853e+01     8.4934      1.479      2.145    25.5463 0.0000e+00
      1.513      0.022     0.4089      3.230     46.603  46.894711     3.7870      6.748   184.0056 1.2795e+01     8.3291      1.485      2.154    25.5188 0.0000e+00
      1.518      0.023     0.3672      3.003     46.853  47.089920     3.8025      6.749   184.0343 1.2728e+01     8.3221      1.489      2.159    25.4543 0.0000e+00
      1.523      0.023     0.3312      2.905     47.114  47.293855     3.8165      6.749   184.0060 1.2640e+01     8.3744      1.492      2.164    25.4024 0.0000e+00
      1.528      0.023     0.2942      2.829     47.390  47.519318     3.9061      6.750   184.0941 1.2535e+01     8.4833      1.497      2.172    25.3592 0.0000e+00
      1.535      0.024     0.2601      2.679     47.695  47.784367     4.0619      6.752   184.1528 1.2417e+01     8.7159      1.505      2.183    25.3116 0.0000e+00
      1.543      0.026     0.2428      2.481     48.015  48.085992     4.1441      6.754   184.1129 1.2312e+01     8.8980      1.514      2.195    25.2486 0.0000e+00
      1.549      0.029     0.2384      2.321     48.363  48.436270     4.1430      6.754   184.1288 1.2220e+01     9.0464      1.519      2.204    25.1816 0.0000e+00
      1.555      0.031     0.2366      2.229     48.779  48.845144     4.0897      6.754   184.1726 1.2100e+01     9.6558      1.524      2.210    25.1278 0.0000e+00
      1.562      0.034     0.2229      2.164     49.521  49.537727     4.0067      6.754   184.2130 1.1943e+01    10.6641      1.531      2.220    25.0804 0.0000e+00
      1.572      0.038     0.2031      2.107     50.791  50.714897     3.9720      6.754   184.2721 1.1787e+01    11.2296      1.542      2.235    25.0553 0.0000e+00
      1.583      0.042     0.1888      2.073     51.842  51.649018     3.9704      6.752   184.1131 1.1644e+01    11.5735      1.553      2.252    25.0733 0.0000e+00
      1.594      0.043     0.1832      2.055     52.124  51.815500     3.9615      6.751   183.3240 1.1489e+01    14.5149      1.562      2.266    25.0828 0.0000e+00
      1.607      0.042     0.1792      2.048     52.242  51.838701     3.9480      6.751   182.0439 1.1293e+01    19.8415      1.574      2.284    25.0254 0.0000e+00
      1.621      0.041     0.1727      2.041     52.793  52.310400     3.9409      6.750   180.8525 1.1108e+01    22.7568      1.592      2.308    24.9307 0.0000e+00
      1.632      0.039     0.1719      2.014     53.569  53.010070     3.9339      6.750   179.8460 1.0994e+01    23.2216      1.603      2.323    24.8085 0.0000e+00
      1.638      0.037     0.1704      1.976     53.881  53.249530     3.9719      6.751   178.8226 1.0930e+01    25.5977      1.606      2.330    24.6866 0.0000e+00
      1.645      0.035     0.1699      1.933     53.618  52.919520     4.0757      6.752   177.8565 1.0854e+01    29.9664      1.612      2.338    24.6014 0.0000e+00
      1.654      0.035     0.1714      1.887     53.143  52.385514     4.1477      6.753   177.0270 1.0744e+01    32.3874      1.622      2.353    24.5364 0.0000e+00
      1.664      0.036     0.1680      1.859     52.723  51.936464     4.1605      6.753   176.3645 1.0614e+01    32.6654      1.632      2.367    24.4753 0.0000e+00
      1.673      0.038     0.1651      1.843     52.522  51.744603     4.1645      6.752   175.8689 1.0489e+01    32.8156      1.642      2.380    24.4074 0.0000e+00
      1.682      0.042     0.1623      1.822     52.492  51.716763     4.2955      6.751   175.2505 1.0387e+01    34.2721      1.651      2.394    24.3432 0.0000e+00
      1.692      0.044     0.1569      1.804     52.549  51.726859     4.5457      6.750   174.3080 1.0252e+01    37.0566      1.658      2.405    24.2736 0.0000e+00
      1.704      0.044     0.1551      1.789     52.634  51.739610     4.6843      6.749   173.2503 1.0052e+01    38.6761      1.670      2.422    24.2239 0.0000e+00
      1.718      0.043     0.1553      1.779     52.699  51.743823     4.7223      6.749   172.3562 9.8438e+00    39.0285      1.684      2.442    24.2570 0.0000e+00
      1.732      0.041     0.1518      1.775     52.765  51.777708     4.8728      6.748   171.6721 9.6717e+00    40.0526      1.699      2.464    24.2806 0.0000e+00
      1.743      0.037     0.1515      1.764     52.823  51.831772     5.1302      6.748   171.0012 9.5322e+00    41.7681      1.710      2.480    24.2187 0.0000e+00
      1.751      0.033     0.1500      1.750     52.817  51.826002     5.2711      6.749   170.1806 9.4272e+00    42.6914      1.719      2.492    24.1379 0.0000e+00
      1.756      0.029     0.1487      1.740     52.773  51.771449     5.2686      6.749   169.3214 9.3481e+00    42.8799      1.723      2.499    24.0792 0.0000e+00
      1.761      0.027     0.1501      1.732     52.750  51.743656     5.2425      6.748   168.5280 9.2653e+00    43.4324      1.726      2.503    24.0464 0.0000e+00
      1.767      0.027     0.1483      1.736     52.748  51.743941     5.2224      6.747   167.8159 9.1549e+00    44.2145      1.732      2.511    24.0530 0.0000e+00
      1.774      0.028     0.1469      1.759     52.801  51.774912     5.2244      6.747   166.9926 9.0151e+00    44.5480      1.740      2.522    24.0683 0.0000e+00
      1.784      0.029     0.1464      1.765     52.960  51.864092     5.2255      6.748   165.9730 8.8850e+00    44.4921      1.749      2.537    24.0389 0.0000e+00
      1.793      0.030     0.1456      1.750     53.225  51.996618     5.1444      6.748   165.1235 8.7854e+00    44.0164      1.759      2.551    24.0340 0.0000e+00
      1.800      0.031     0.1447      1.752     53.520  52.107098     5.0094      6.746   164.2929 8.7130e+00    43.2037      1.766      2.561    24.0536 0.0000e+00
      1.805      0.032     0.1487      1.759     53.717  52.120122     4.9492      6.744   163.2440 8.6620e+00    42.7960      1.771      2.569    24.0349 0.0000e+00
      1.811      0.033     0.1503      1.754     53.756  52.026824     4.9580      6.744   162.3360 8.5755e+00    42.8439      1.775      2.576    23.9810 0.0000e+00
      1.821      0.034     0.1459      1.748     53.680  51.867852     4.9821      6.744   161.6598 8.4363e+00    43.4756      1.785      2.588    23.8606 0.0000e+00
      1.833      0.035     0.1486      1.723     53.540  51.658388     5.0162      6.744   161.0043 8.3059e+00    44.5587      1.798      2.608    23.6774 0.0000e+00
      1.843      0.035     0.1504      1.691     53.340  51.399101     5.0369      6.745   160.0891 8.1997e+00    45.1795      1.808      2.622    23.4866 0.0000e+00
      1.851      0.036     0.1486      1.679     53.129  51.145681     5.0580      6.747   158.8543 8.0925e+00    45.2774      1.815      2.633    23.3675 0.0000e+00
      1.859      0.038     0.1504      1.679     53.022  51.007175     5.1304      6.747   157.6893 7.9770e+00    44.7857      1.823      2.644    23.3076 0.0000e+00
      1.867      0.040     0.1473      1.666     52.976  50.930836     5.2295      6.748   156.7585 7.8633e+00    43.7768      1.831      2.656    23.2358 0.0000e+00
      1.876      0.043     0.1437      1.647     52.875  50.794105     5.2742      6.748   155.9466 7.7268e+00    43.1903      1.839      2.667    23.1673 0.0000e+00
      1.889      0.046     0.1430      1.637     52.886  50.750845     5.2716      6.749   155.1864 7.5422e+00    43.0923      1.851      2.684    23.1231 0.0000e+00
      1.904      0.048     0.1446      1.627     53.391  51.169658     5.2646      6.749   154.4496 7.3589e+00    42.8304      1.868      2.710    23.0923 0.0000e+00
      1.917      0.049     0.1430      1.626     54.514  52.174953     5.2064      6.749   153.7491 7.1871e+00    40.4343      1.880      2.727    23.0674 0.0000e+00
      1.930      0.048     0.1404      1.636     55.979  53.507693     5.0838      6.750   153.1692 7.0145e+00    36.0505      1.892      2.744    23.0325 0.0000e+00
      1.942      0.046     0.1410      1.651     58.765  56.107154     5.0059      6.751   152.6872 6.8684e+00    33.5846      1.905      2.763    22.9789 0.0000e+00
      1.953      0.045     0.1392      1.668     63.297  60.358460     4.9881      6.751   152.2225 6.7546e+00    33.1994      1.917      2.779    22.9170 0.0000e+00
      1.963      0.046     0.1395      1.674     66.077  62.921989     4.9109      6.751   152.0248 6.6643e+00    31.5291      1.927      2.794    22.8497 0.0000e+00
      1.972      0.048     0.1409      1.658     65.854  62.645335     4.7884      6.751   152.1902 6.5622e+00    28.4541      1.933      2.804    22.7816 0.0000e+00
      1.984      0.048     0.1422      1.633     66.111  62.858826     4.7381      6.752   152.4155 6.4321e+00    26.7627      1.944      2.820    22.7389 0.0000e+00
      2.000      0.048     0.1441      1.624     67.603  64.232692     4.7438      6.753   152.4247 6.3131e+00    26.5188      1.961      2.845    22.6862 0.0000e+00
      2.016      0.047     0.1457      1.619     68.544  65.024416     4.7243      6.753   152.2158 6.2201e+00    25.1634      1.978      2.869    22.5975 0.0000e+00
      2.028      0.044     0.1440      1.601     68.994  65.315136     4.6776      6.754   151.9538 6.1447e+00    22.6376      1.990      2.885    22.5440 0.0000e+00
      2.038      0.040     0.1403      1.589     69.952  66.095453     4.6533      6.757   151.6665 6.0944e+00    21.2240      2.000      2.899    22.5391 0.0000e+00
      2.047      0.037     0.1404      1.594     71.525  67.469028     4.6709      6.758   151.4102 6.0770e+00    21.0179      2.010      2.914    22.5229 0.0000e+00
      2.053      0.037     0.1412      1.610     73.091  68.832013     4.8494      6.757   151.2636 6.0677e+00    20.3157      2.013      2.920    22.4382 0.0000e+00
      2.059      0.038     0.1388      1.623     74.224  69.801319     5.1715      6.757   151.1855 6.0117e+00    18.9852      2.017      2.925    22.3201 0.0000e+00
      2.069      0.041     0.1376      1.614     75.061  70.545300     5.3526      6.757   151.1536 5.9221e+00    18.1853      2.028      2.942    22.2345 0.0000e+00
      2.084      0.045     0.1386      1.587     76.711  72.107207     5.4501      6.755   151.1351 5.8468e+00    17.9204      2.044      2.964    22.1639 0.0000e+00
      2.098      0.046     0.1403      1.574     78.985  74.256931     6.4752      6.752   151.1350 5.7763e+00    16.8758      2.057      2.984    22.0807 0.0000e+00
      2.110      0.045     0.1428      1.589     80.044  75.242571     8.3745      6.750   151.2385 5.7073e+00    15.1189      2.069      3.001    21.9994 0.0000e+00
      2.121      0.040     0.1419      1.604     80.268  75.443004     9.4209      6.747   151.3540 5.6432e+00    14.2014      2.080      3.017    21.9699 0.0000e+00
      2.132      0.035     0.1383      1.600     81.509  76.616755     9.5636      6.745   151.3258 5.5847e+00    14.1520      2.093      3.035    21.9965 0.0000e+00
      2.141      0.030     0.1359      1.594     84.659  79.579527     9.9672      6.743   151.1562 5.5487e+00    14.0091      2.101      3.048    22.0098 0.0000e+00
      2.145      0.026     0.1390      1.596     88.334  82.970057    10.6726      6.743   150.8524 5.5275e+00    13.6689      2.104      3.052    21.9942 0.0000e+00
      2.148      0.024     0.1414      1.602     90.936  85.243483    11.0509      6.741   150.4054 5.4997e+00    13.4204      2.106      3.054    21.9834 0.0000e+00
      2.153      0.024     0.1396      1.605     92.795  86.715348    11.0875      6.738   149.8822 5.4517e+00    13.3959      2.110      3.060    21.9915 0.0000e+00
      2.160      0.025     0.1389      1.599     93.170  86.772196    11.1401      6.737   149.5160 5.3747e+00    13.7824      2.118      3.072    22.0103 0.0000e+00
      2.169      0.025     0.1396      1.589     91.592  85.103404    11.6703      6.736   149.3335 5.2954e+00    18.1277      2.127      3.086    21.9825 0.0000e+00
      2.176      0.025     0.1403      1.575     91.104  84.601884    12.6368      6.734   149.1379 5.2394e+00    26.1389      2.135      3.097    21.8866 0.0000e+00
      2.183      0.024     0.1417      1.564     93.583  86.941308    13.1379      6.733   148.8722 5.1975e+00    30.5411      2.140      3.105    21.7307 0.0000e+00
      2.188      0.022     0.1411      1.575     96.380  89.599649    12.9929      6.731   148.4433 5.1525e+00    31.0465      2.146      3.113    21.5408 0.0000e+00
      2.192      0.020     0.1404      1.596     97.726  90.917476    10.9091      6.730   147.7386 5.0972e+00    32.3864      2.150      3.119    21.4117 0.0000e+00
      2.196      0.020     0.1398      1.608     99.231  92.314421     7.0608      6.729   146.8911 5.0440e+00    34.7863      2.153      3.124    21.4120 0.0000e+00
      2.201      0.020     0.1368      1.608    101.022  93.827901     4.9493      6.727   146.1114 4.9869e+00    35.9813      2.157      3.130    21.4485 0.0000e+00
      2.206      0.021     0.1388      1.612    101.502  94.009197     4.6563      6.725   145.3663 4.9095e+00    35.2542      2.163      3.137    21.4691 0.0000e+00
      2.212      0.021     0.1411      1.613    101.424  93.679316     3.4593      6.724   144.5077 4.8080e+00    26.2679      2.170      3.146    21.5235 0.0000e+00
      2.219      0.021     0.1425      1.600    101.103  93.211601     1.2882      6.723   143.3016 4.7136e+00     9.7563      2.178      3.158    21.5438 0.0000e+00
      2.225      0.021     0.1415      1.582     99.682  91.789736     0.1033      6.724   141.9676 4.6672e+00     0.7404      2.183      3.165    21.4581 0.0000e+00
      2.229      0.021     0.1428      1.566    100.037  92.075888    -0.0129      6.724   141.1987 4.6212e+00    -0.1109      2.185      3.170    21.3005 0.0000e+00
      2.234      0.021     0.1444      1.567    105.979  97.624574    -0.0421      6.723   141.0598 4.5022e+00    -0.1617      2.191      3.177    21.1547 0.0000e+00
      2.239      0.022     0.1419      1.580    116.074 106.945547    -0.0589      6.722   141.1490 4.2892e+00    -0.0099      2.195      3.184    21.0845 0.0000e+00
      2.244      0.024     0.1417      1.603    126.399 116.224285    -0.0658      6.719   141.2442 3.9983e+00     0.1193      2.200      3.191    21.0320 0.0000e+00
      2.250      0.026     0.1383      1.635    133.551 122.435225    -0.0676      6.717   141.2655 3.6775e+00     0.1368      2.207      3.200    20.9769 0.0000e+00
      2.258      0.026     0.1393      1.645    136.410 124.768690    -0.0639      6.714   140.7177 3.3769e+00     0.0296      2.214      3.212    21.0550 0.0000e+00
      2.266      0.025     0.1406      1.634    140.247 128.126439    -0.0540      6.713   139.6118 3.1098e+00    -0.1515      2.222      3.223    21.1226 0.0000e+00
      2.274      0.024     0.1416      1.629    152.124 138.937720    -0.0484      6.713   138.6487 2.8813e+00    -0.2424      2.230      3.235    20.9938 0.0000e+00
      2.280      0.023     0.1479      1.638    169.969 155.235878    -0.0453      6.712   137.5044 2.7156e+00    -0.2493      2.237      3.244    20.8181 0.0000e+00
      2.284      0.021     0.1482      1.642    180.034 164.404349    -0.0331      6.710   136.1012 2.5896e+00    -0.2012      2.240      3.249    20.7085 0.0000e+00
      2.288      0.020     0.1461      1.616    175.862 160.571229    -0.0346      6.707   134.7607 2.4209e+00    -0.1724      2.243      3.254    20.6592 0.0000e+00
      2.293      0.019     0.1455      1.559    167.130 152.624879    -0.0464      6.704   133.5138 2.1768e+00    -0.2099      2.248      3.260    20.6561 0.0000e+00
      2.299      0.018     0.1472      1.512    161.074 147.162128    -0.0419      6.700   132.4677 1.9381e+00    -0.2103      2.254      3.270    20.6670 0.0000e+00
      2.304      0.016     0.1483      1.495    161.201 147.356372    -0.0312      6.696   130.6307 1.7738e+00    -0.1778      2.260      3.279    20.6552 0.0000e+00
      2.308      0.012     0.1466      1.480    159.412 145.776644    -0.0252      6.693   127.7371 1.6571e+00    -0.1577      2.263      3.282    20.6395 0.0000e+00
      2.311      0.006     0.1393      1.450    144.580 132.240786    -0.0195      6.690   124.7554 1.5751e+00    -0.1380      2.267      3.288    20.6514 0.0000e+00
      2.314     -0.003     0.1340      1.415    129.953 118.883185    -0.0204      6.685   121.7673 1.5821e+00    -0.1447      2.270      3.293    20.6765 0.0000e+00
      2.314     -0.013     0.1342      1.395    122.242 111.852707    -0.0354      6.680   119.2264 1.7318e+00    -0.2043      2.270      3.293    20.7023 0.0000e+00
      2.310     -0.022     0.1333      1.392    114.797 105.073211    -0.0515      6.676   117.6086 2.0583e+00    -0.2783      2.266      3.287    20.7227 0.0000e+00
      2.301     -0.030     0.1301      1.397    109.972 100.717230    -0.0566      6.673   116.6620 2.5626e+00    -0.3210      2.258      3.275    20.7285 0.0000e+00
      2.289     -0.035     0.1259      1.402    109.359 100.252021    -0.0556      6.673   116.2130 3.0987e+00    -0.2767      2.244      3.255    20.7347 0.0000e+00
      2.276     -0.036     0.1245      1.402    111.486 102.313179    -0.0562      6.673   115.4489 3.5074e+00    -0.0169      2.231      3.236    20.7457 0.0000e+00
      2.265     -0.032     0.1242      1.409    114.405 105.076757    -0.0469      6.673   113.9622 3.8326e+00     2.2739      2.220      3.220    20.7551 0.0000e+00
      2.256     -0.025     0.1252      1.418    116.388 106.928257    -0.0265      6.673   112.4337 4.0464e+00     6.4814      2.212      3.208    20.7805 0.0000e+00
      2.251     -0.015     0.1258      1.423    117.737 108.145872    -0.0182      6.674   111.2513 4.0184e+00     8.8059      2.207      3.200    20.8281 0.0000e+00
      2.249     -0.006     0.1245      1.423    118.207 108.528239    -0.0208      6.676   110.2479 3.8610e+00     9.0627      2.205      3.198    20.8846 0.0000e+00
      2.251      0.001     0.1259      1.416    117.887 108.176680    -0.0250      6.678   109.0772 3.7465e+00     9.8944      2.207      3.201    20.9279 0.0000e+00
      2.254      0.006     0.1268      1.422    117.655 107.906836    -0.0359      6.680   107.5940 3.6707e+00    11.4838      2.210      3.205    20.9389 0.0000e+00
      2.257      0.009     0.1269      1.441    117.618 107.812598    -0.0523      6.680   105.9950 3.5984e+00    12.3626      2.213      3.209    20.9261 0.0000e+00
      2.261      0.009     0.1280      1.460    117.674 107.801284    -0.0652      6.680   104.3710 3.5561e+00    12.1840      2.217      3.215    20.9015 0.0000e+00
      2.263      0.009     0.1256      1.488    117.911 107.960987    -0.0597      6.681   102.6707 3.5686e+00     9.1534      2.220      3.219    20.8757 0.0000e+00
      2.264      0.008     0.1265      1.508    118.310 108.278885    -0.0351      6.683   101.0097 3.5843e+00     3.5943      2.221      3.221    20.8529 0.0000e+00
      2.265      0.006     0.1296      1.498    118.479 108.397360    -0.0257      6.684    99.4312 3.5424e+00     0.5806      2.222      3.222    20.8273 0.0000e+00
      2.268      0.003     0.1296      1.480    118.340 108.247250    -0.0371      6.685    97.5234 3.4721e+00     0.2817      2.225      3.226    20.7993 0.0000e+00
      2.269     -0.001     0.1334      1.477    117.728 107.673762    -0.0405      6.685    95.2359 3.4436e+00     0.0830      2.226      3.229    20.7742 0.0000e+00
      2.269     -0.009     0.1368      1.477    115.824 105.920641    -0.0420      6.685    92.9398 3.4525e+00    -0.1476      2.225      3.227    20.7539 0.0000e+00
      2.269     -0.025     0.1343      1.472    111.973 102.394995    -0.0550      6.681    90.7544 3.4699e+00    -0.1498      2.226      3.228    20.7381 0.0000e+00
      2.266     -0.053     0.1316      1.456    106.608  97.513130    -0.0392      6.678    89.2039 3.5023e+00     1.1827      2.224      3.225    20.7293 0.0000e+00
      2.257     -0.097     0.1325      1.420    101.348  92.786366     0.2991      6.678    88.3901 3.5871e+00    16.2037      2.217      3.215    20.7249 0.0000e+00
      2.239     -0.155     0.1327      1.393     96.241  88.263885     0.9309      6.680    87.6254 3.9062e+00    43.7372      2.203      3.194    20.7199 0.0000e+00
      2.200     -0.216     0.1318      1.370     88.593  81.450469     1.2824      6.684    86.5821 4.6024e+00    58.7971      2.167      3.143    20.7137 0.0000e+00
      2.134     -0.265     0.1320      1.316     79.405  73.240150     1.3528      6.690    84.8957 5.5139e+00    60.7996      2.103      3.050    20.7196 0.0000e+00
      2.039     -0.289     0.1264      1.278     73.526  68.089532     1.8398      6.697    82.6371 6.5497e+00    68.3246      2.007      2.912    20.7585 0.0000e+00
      1.929     -0.286     0.1235      1.295     70.847  65.897987     2.7351      6.703    80.8696 7.7603e+00    81.9749      1.888      2.739    20.8419 0.0000e+00
      1.830     -0.263     0.1248      1.330     68.943  64.409190     3.2134      6.711    80.1299 8.8561e+00    89.4114      1.780      2.581    20.9645 0.0000e+00
      1.768     -0.233     0.1166      1.372     67.831  63.623454     3.2374      6.718    79.8881 9.5281e+00    90.2955      1.719      2.493    21.1145 0.0000e+00
      1.743     -0.205     0.1100      1.423     66.872  62.942890     2.9669      6.725    79.5811 1.0007e+01    92.5283      1.705      2.475    21.2945 0.0000e+00
      1.725     -0.189     0.1149      1.464     63.950  60.374255     2.4396      6.731    79.0848 1.0762e+01    96.4244      1.700      2.466    21.5067 0.0000e+00
      1.690     -0.191     0.1165      1.486     60.974  57.721252     2.1461      6.737    78.3620 1.1959e+01    98.4963      1.666      2.417    21.7186 0.0000e+00
      1.631     -0.206     0.1193      1.511     61.246  58.116735     2.1157      6.742    77.7249 1.3371e+01    98.5173      1.602      2.324    21.9010 0.0000e+00
      1.561     -0.226     0.1251      1.557     61.773  58.742908     2.1472      6.744    77.9209 1.4713e+01    97.2937      1.532      2.221    22.0649 0.0000e+00
      1.489     -0.243     0.1279      1.590     60.644  57.798662     2.5849      6.747    78.8389 1.5818e+01    84.1459      1.459      2.115    22.2121 0.0000e+00
      1.424     -0.250     0.1297      1.609     59.254  56.609228     3.3961      6.751    79.7908 1.6561e+01    60.0630      1.391      2.017    22.3359 0.0000e+00
      1.369     -0.246     0.1290      1.639     58.378  55.921780     3.8326      6.754    80.6543 1.7211e+01    46.8312      1.344      1.949    22.4399 0.0000e+00
      1.311     -0.235     0.1359      1.675     57.918  55.648062     3.8668      6.757    81.6214 1.8127e+01    45.1195      1.292      1.874    22.5396 0.0000e+00
      1.244     -0.218     0.1382      1.747     57.343  55.268802     3.8844      6.759    82.6216 1.9147e+01    40.3578      1.220      1.768    22.6504 0.0000e+00
      1.178     -0.202     0.1372      1.900     56.720  54.829547     3.9037      6.761    83.3691 2.0168e+01    31.9226      1.150      1.668    22.7597 0.0000e+00
      1.126     -0.193     0.1416      2.129     55.932  54.211381     3.9254      6.761    84.0351 2.1217e+01    27.3673      1.098      1.594    22.8824 0.0000e+00
      1.090     -0.190     0.1426      2.416     55.074  53.510549     3.9480      6.762    84.8227 2.2225e+01    26.8864      1.065      1.546    23.0355 0.0000e+00
      1.062     -0.195     0.1460      2.726     54.309  52.897187     4.0189      6.764    85.6647 2.3462e+01    25.8691      1.045      1.516    23.1900 0.0000e+00
      1.023     -0.206     0.1600      3.049     53.840  52.574327     4.1333      6.768    86.4721 2.5326e+01    24.0861      1.011      1.467    23.3343 0.0000e+00
      0.963     -0.221     0.1790      3.427     53.403  52.274243     4.1827      6.772    87.0998 2.7801e+01    23.1250      0.950      1.377    23.4625 0.0000e+00
      0.890     -0.232     0.2043      3.967     52.487  51.491597     4.2077      6.776    87.5751 3.0666e+01    22.9926      0.874      1.267    23.5759 0.0000e+00
      0.815     -0.237     0.2313      4.822     51.273  50.413980     4.3615      6.778    88.0895 3.3811e+01    22.2127      0.797      1.156    23.6930 0.0000e+00
      0.749     -0.235     0.2553      5.937     50.241  49.531500     4.6026      6.780    88.7595 3.6826e+01    20.7315      0.728      1.056    23.8215 0.0000e+00
      0.696     -0.227     0.2860      7.110     49.624  49.076069     4.7173      6.784    89.6530 3.9308e+01    19.8405      0.678      0.983    23.9441 0.0000e+00
      0.651     -0.216     0.3215      8.380     49.231  48.844156     4.7070      6.788    90.7191 4.1888e+01    19.6382      0.640      0.929    24.0475 0.0000e+00
      0.602     -0.205     0.3953     10.065     48.810  48.568918     4.7363      6.792    91.6688 4.5223e+01    18.9338      0.595      0.863    24.1507 0.0000e+00
      0.544     -0.194     0.4983     12.393     48.149  48.034022     4.8228      6.794    92.4461 4.9394e+01    17.7120      0.535      0.775    24.2792 0.0000e+00
      0.485     -0.186     0.5930     15.160     47.331  47.328983     4.8778      6.794    92.9765 5.4751e+01    17.0944      0.472      0.685    24.4410 0.0000e+00
      0.435     -0.181     0.6856     17.989     46.666  46.774089     4.8778      6.794    93.0912 6.2255e+01    17.0003      0.422      0.613    24.6081 0.0000e+00
      0.397     -0.180     0.8113     20.629     46.186  46.403791     4.8632      6.794    93.1446 7.3480e+01    16.8475      0.387      0.561    24.7553 0.0000e+00
      0.366     -0.180     1.0135     23.183     45.951  46.279990     4.8349      6.794    93.7072 8.7808e+01    16.5450      0.360      0.523    24.8801 0.0000e+00
      0.329     -0.177     1.2515     26.002     45.862  46.293116     4.7940      6.792    94.9041 1.0360e+02    16.1787      0.330      0.479    24.9925 0.0000e+00
      0.275     -0.167     1.4911     29.192     45.669  46.181764     4.7763      6.788    96.1728 1.1783e+02    16.0733      0.274      0.398    25.1087 0.0000e+00
      0.211     -0.149     1.7036     32.576     45.624  46.203396     4.7790      6.784    97.0868 1.2532e+02    16.0899      0.203      0.294    25.2298 0.0000e+00
      0.160     -0.122     1.8910     35.841     45.850  46.491279     4.8683      6.781    97.7819 1.2525e+02    15.6281      0.147      0.212    25.3538 0.0000e+00
      0.133     -0.087     2.1182     38.734     46.055  46.742441     5.0485      6.778    98.4689 1.2077e+02    14.7944      0.123      0.178    25.4727 0.0000e+00
      0.127     -0.049     2.3803     41.099     46.055  46.764423     5.1516      6.777    99.1991 1.1552e+02    14.4132      0.123      0.178    25.5610 0.0000e+00
      0.132     -0.020     2.6643     42.741     45.916  46.630128     5.1661      6.778    99.9848 1.1187e+02    14.5377      0.130      0.188    25.6301 0.0000e+00
      0.140     -0.012     2.9357     43.465     45.797  46.515318     5.1732      6.779   100.7421 1.1090e+02    15.4793      0.137      0.199    25.7005 0.0000e+00
      0.146     -0.031     3.1695     43.213     45.541  46.265048     5.1794      6.779   101.3860 1.2283e+02    17.1548      0.144      0.209    25.7503 0.0000e+00
      0.146     -0.072     3.3692     42.260     45.155  45.889473     5.1836      6.780   103.0382 2.1388e+02    18.0581      0.148      0.215    25.7688 0.0000e+00
      0.134     -0.130     3.5076     41.131     44.900  45.656218     5.1743      6.782   114.7821 5.3403e+02    18.1341      0.140      0.203    25.7708 0.0000e+00
      0.099     -0.197     3.5710     40.243     44.689  45.476210     4.9999      6.785   124.9906 1.1471e+03    17.9034      0.107      0.156    25.7760 0.0000e+00
      0.037     -0.268     3.5411     39.860     44.354  45.173099     4.6649      6.787   115.0469 1.6845e+03    17.3528      0.045      0.065    25.7865 0.0000e+00
     -0.052     -0.336     3.4444     40.291     43.369  44.213149     4.4781      6.787   102.4474 1.8274e+03    17.0107     -0.047     -0.067    25.8004 0.0000e+00
     -0.155     -0.384     3.3372     41.590     35.678  36.408725     4.4388      6.788    97.0630 1.9101e+03    17.0121     -0.151     -0.219    25.8323 0.0000e+00
     -0.266     -0.396     3.2608     43.504     20.208  20.647779     4.2072      6.792    94.8569 2.0987e+03    17.2334     -0.256     -0.370    25.8746 0.0000e+00
     -0.389     -0.370     3.2127     45.874      8.699   8.907416     3.8078      6.799    96.7675 1.8682e+03    17.6025     -0.376     -0.545    25.9161 0.0000e+00
     -0.516     -0.315     3.2425     48.578      5.094   5.226760     3.5886      6.805   100.1168 1.5090e+03    17.7173     -0.521     -0.754    25.9628 0.0000e+00
     -0.606     -0.245     3.3576     51.465      5.276   5.419184     3.4702      6.809   102.3143 1.7180e+03    17.2892     -0.620     -0.899    26.0315 0.0000e+00
     -0.641     -0.170     3.5078     54.763     11.921  12.247746     2.5094      6.813   102.6882 1.9249e+03    13.4857     -0.636     -0.923    26.1385 0.0000e+00
     -0.647     -0.099     3.6933     59.357     26.407  27.129822     0.7777      6.818   102.9172 1.8071e+03     6.6055     -0.634     -0.918    26.2540 0.0000e+00
     -0.647     -0.043     3.9160     65.971     38.908  39.968184    -0.1640      6.823   103.7057 1.6763e+03     2.8642     -0.635     -0.921    26.3288 0.0000e+00
     -0.647     -0.012     4.1411     74.031     41.037  42.143610    -0.2705      6.828   104.9950 1.5723e+03     2.4773     -0.634     -0.920    26.3607 0.0000e+00
     -0.647     -0.001     4.3821     81.762     35.117  36.050071    -0.3016      6.832   106.4607 1.4839e+03     2.3388     -0.635     -0.921    26.3693 0.0000e+00
     -0.647     -0.000     4.7071     85.277     30.897  31.710230    -0.3062      6.834   107.1441 1.3782e+03     2.2822     -0.635     -0.920    26.3669 0.0000e+00
     -0.647 -9.990e-29     5.2806 -9.990e-29 -9.990e-29 -9.990e-29 -9.990e-29 -9.990e-29 -9.990e-29 1.2824e+03 -9.990e-29     -0.635     -0.921    26.3582 0.0000e+00
     -0.647 -9.990e-29     5.9551 -9.990e-29 -9.990e-29 -9.990e-29 -9.990e-29 -9.990e-29 -9.990e-29 1.2523e+03 -9.990e-29     -0.635     -0.920    26.3451 0.0000e+00
     -0.647 -9.990e-29     6.6992 -9.990e-29 -9.990e-29 -9.990e-29 -9.990e-29 -9.990e-29 -9.990e-29 1.2688e+03 -9.990e-29     -0.635     -0.920    26.3157 0.0000e+00
     -0.647 -9.990e-29     7.1594 -9.990e-29 -9.990e-29 -9.990e-29 -9.990e-29 -9.990e-29 -9.990e-29 1.2808e+03 -9.990e-29     -0.635     -0.921    26.2926 0.0000e+00
