* Sea-Bird SBE19plus  Data File:
* FileName = C:\R\Reservoirs\Data\DataNotYetUploadedToEDI\Raw_CTD\RawDownloads\071524_fcr50_S7809_0003.hex
* Software version 2.8.0.119
* Temperature SN = 7809
* Conductivity SN = 7809
* System UpLoad Time = Jul 15 2024 16:22:51
* <ApplicationData>
* <Seaterm232>
* <SoftwareVersion>2.8.0.119</SoftwareVersion>
* <BuildDate>07-Nov-2018</BuildDate>
* </Seaterm232>
* </ApplicationData>
* <InstrumentState>
* <HardwareData DeviceType='SBE19plus' SerialNumber='01907809'>
*
*    <Manufacturer>Sea-Bird Electronics, Inc.</Manufacturer>
*
*    <FirmwareVersion>3.1.8</FirmwareVersion>
*
*    <FirmwareDate>Mar  9 2016 16:22:29</FirmwareDate>
*
*    <CommandSetVersion>1.4</CommandSetVersion>
*
*    <PCBAssembly PCBSerialNum='120721' AssemblyNum='41054J'/>
*
*    <PCBAssembly PCBSerialNum='120715' AssemblyNum='41967A'/>
*
*    <PCBAssembly PCBSerialNum='116699' AssemblyNum='41606'/>
*
*    <PCBAssembly PCBSerialNum='120719' AssemblyNum='41059D'/>
*
*    <MfgDate>28-Apr-2017</MfgDate>
*
*    <InternalSensors>
*
*       <Sensor id='Main Temperature'>
*
*          <type>temperature0</type>
*
*          <SerialNumber>01907809</SerialNumber>
*
*       </Sensor>
*
*       <Sensor id='Main Conductivity'>
*
*          <type>conductivity-0</type>
*
*          <SerialNumber>01907809</SerialNumber>
*
*       </Sensor>
*
*       <Sensor id='Main Pressure'>
*
*          <type>strain-0</type>
*
*          <SerialNumber>10586018</SerialNumber>
*
*       </Sensor>
*
*    </InternalSensors>
*
*    <ExternalSensors>
*
*       <Sensor id='volt 0'>
*
*          <type>pH</type>
*
*          <SerialNumber>27-0363</SerialNumber>
*
*       </Sensor>
*
*       <Sensor id='volt 1'>
*
*          <type>ORP</type>
*
*          <SerialNumber>27-0363</SerialNumber>
*
*       </Sensor>
*
*       <Sensor id='volt 2'>
*
*          <type>OXY</type>
*
*          <SerialNumber>43-0434</SerialNumber>
*
*       </Sensor>
*
*       <Sensor id='volt 3'>
*
*          <type>PAR</type>
*
*          <SerialNumber>1122</SerialNumber>
*
*       </Sensor>
*
*       <Sensor id='volt 4'>
*
*          <type>ECO AFL/FL</type>
*
*          <SerialNumber>FLNTURT-2496</SerialNumber>
*
*       </Sensor>
*
*       <Sensor id='volt 5'>
*
*          <type>ECO-NTU</type>
*
*          <SerialNumber>FLNTURT-2496</SerialNumber>
*
*       </Sensor>
*
*       <Sensor id='serial'>
*
*          <type>not assigned</type>
*
*          <SerialNumber>not assigned</SerialNumber>
*
*       </Sensor>
*
*    </ExternalSensors>
*
* </HardwareData>
* <StatusData DeviceType='SBE19plus' SerialNumber='01907809'>
*
*    <DateTime>2024-07-15T16:20:43</DateTime>
*
*    <LoggingState>not logging</LoggingState>
*
*    <EventSummary numEvents='0'/>
*
*    <Power>
*
*       <vMain>12.4</vMain>
*
*       <vLith>8.4</vLith>
*
*       <iMain>63.2</iMain>
*
*       <iPump>66.6</iPump>
*
*       <iExt01>20.7</iExt01>
*
*       <iExt2345>37.1</iExt2345>
*
*    </Power>
*
*    <MemorySummary>
*
*       <Bytes>140438</Bytes>
*
*       <Samples>6106</Samples>
*
*       <SamplesFree>2854682</SamplesFree>
*
*       <SampleLength>23</SampleLength>
*
*       <Profiles>5</Profiles>
*
*    </MemorySummary>
*
* </StatusData>
* <ConfigurationData DeviceType='SBE19plus' SerialNumber='01907809'>
*
*    <ProfileMode>
*
*       <ScansToAverage>1</ScansToAverage>
*
*       <MinimumCondFreq>0</MinimumCondFreq>
*
*       <PumpDelay>45</PumpDelay>
*
*       <AutoRun>no</AutoRun>
*
*       <IgnoreSwitch>no</IgnoreSwitch>
*
*    </ProfileMode>
*
*    <Battery>
*
*       <Type>alkaline</Type>
*
*       <CutOff>7.5</CutOff>
*
*    </Battery>
*
*    <DataChannels>
*
*       <ExtVolt0>yes</ExtVolt0>
*
*       <ExtVolt1>yes</ExtVolt1>
*
*       <ExtVolt2>yes</ExtVolt2>
*
*       <ExtVolt3>yes</ExtVolt3>
*
*       <ExtVolt4>yes</ExtVolt4>
*
*       <ExtVolt5>yes</ExtVolt5>
*
*       <SBE38>no</SBE38>
*
*       <WETLABS>no</WETLABS>
*
*       <OPTODE>no</OPTODE>
*
*       <SBE63>no</SBE63>
*
*       <SeaFET>no</SeaFET>
*
*       <GTD>no</GTD>
*
*    </DataChannels>
*
*    <EchoCharacters>yes</EchoCharacters>
*
*    <OutputExecutedTag>yes</OutputExecutedTag>
*
*    <OutputFormat>raw HEX</OutputFormat>
*
* </ConfigurationData>
* <CalibrationCoefficients DeviceType='SBE19plus' SerialNumber='01907809'>
*
*    <Calibration format='TEMP1' id='Main Temperature'>
*
*       <SerialNum>01907809</SerialNum>
*
*       <CalDate>31-Jan-23</CalDate>
*
*       <TA0>1.218232e-03</TA0>
*
*       <TA1>2.815090e-04</TA1>
*
*       <TA2>-1.578887e-06</TA2>
*
*       <TA3>1.972343e-07</TA3>
*
*       <TOFFSET>0.000000e+00</TOFFSET>
*
*    </Calibration>
*
*    <Calibration format='WBCOND0' id='Main Conductivity'>
*
*       <SerialNum>01907809</SerialNum>
*
*       <CalDate>31-Jan-23</CalDate>
*
*       <G>-1.005652e+00</G>
*
*       <H>1.267963e-01</H>
*
*       <I>-1.561708e-04</I>
*
*       <J>2.645944e-05</J>
*
*       <CPCOR>-9.570000e-08</CPCOR>
*
*       <CTCOR>3.250000e-06</CTCOR>
*
*       <CSLOPE>1.000000e+00</CSLOPE>
*
*    </Calibration>
*
*    <Calibration format='STRAIN0' id='Main Pressure'>
*
*       <SerialNum>10586018</SerialNum>
*
*       <CalDate>20-Jan-23</CalDate>
*
*       <PA0>4.416439e-02</PA0>
*
*       <PA1>4.850502e-04</PA1>
*
*       <PA2>-3.090426e-12</PA2>
*
*       <PTCA0>5.254757e+05</PTCA0>
*
*       <PTCA1>1.050255e+01</PTCA1>
*
*       <PTCA2>-2.922435e-01</PTCA2>
*
*       <PTCB0>2.516687e+01</PTCB0>
*
*       <PTCB1>3.750000e-04</PTCB1>
*
*       <PTCB2>0.000000e+00</PTCB2>
*
*       <PTEMPA0>-5.470820e+01</PTEMPA0>
*
*       <PTEMPA1>5.485421e+01</PTEMPA1>
*
*       <PTEMPA2>-3.446578e-01</PTEMPA2>
*
*       <POFFSET>8.500000e-01</POFFSET>
*
*       <PRANGE>1.600000e+02</PRANGE>
*
*    </Calibration>
*
*    <Calibration format='VOLT0' id='Volt 0'>
*
*       <OFFSET>-4.920000e-02</OFFSET>
*
*       <SLOPE>1.248122e+00</SLOPE>
*
*    </Calibration>
*
*    <Calibration format='VOLT0' id='Volt 1'>
*
*       <OFFSET>-4.784000e-02</OFFSET>
*
*       <SLOPE>1.248871e+00</SLOPE>
*
*    </Calibration>
*
*    <Calibration format='VOLT0' id='Volt 2'>
*
*       <OFFSET>-4.864632e-02</OFFSET>
*
*       <SLOPE>1.248714e+00</SLOPE>
*
*    </Calibration>
*
*    <Calibration format='VOLT0' id='Volt 3'>
*
*       <OFFSET>-4.743790e-02</OFFSET>
*
*       <SLOPE>1.248571e+00</SLOPE>
*
*    </Calibration>
*
*    <Calibration format='VOLT0' id='Volt 4'>
*
*       <OFFSET>-4.671263e-02</OFFSET>
*
*       <SLOPE>1.248951e+00</SLOPE>
*
*    </Calibration>
*
*    <Calibration format='VOLT0' id='Volt 5'>
*
*       <OFFSET>-4.871053e-02</OFFSET>
*
*       <SLOPE>1.249136e+00</SLOPE>
*
*    </Calibration>
*
*    <Calibration format='FREQ0' id='external frequency channel'>
*
*       <EXTFREQSF>1.000014e+00</EXTFREQSF>
*
*    </Calibration>
*
* </CalibrationCoefficients>
* <EventCounters DeviceType='SBE19plus' SerialNumber='01907809'>
*
*    <EventSummary numEvents='0'/>
*
* </EventCounters></InstrumentState>
* <Headers>
*
* cast   3 15 Jul 2024 11:25:21 samples 2705 to 3737, avg = 1, stop = mag switch
*
# nquan = 15
# nvalues = 1033                        
# units = specified
# name 0 = depFM: Depth [fresh water, m]
# name 1 = dz/dtM: Descent Rate [m/s]
# name 2 = sbeox0Mg/L: Oxygen, SBE 43 [mg/l]
# name 3 = sbeox0PS: Oxygen, SBE 43 [% saturation]
# name 4 = specc: Specific Conductance [uS/cm]
# name 5 = c0uS/cm: Conductivity [uS/cm]
# name 6 = flECO-AFL: Fluorescence, WET Labs ECO-AFL/FL [mg/m^3]
# name 7 = ph: pH
# name 8 = orp: Oxidation Reduction Potential [mV]
# name 9 = par/sat/log: PAR/Logarithmic, Satlantic
# name 10 = turbWETntu0: Turbidity, WET Labs ECO [NTU]
# name 11 = prdM: Pressure, Strain Gauge [db]
# name 12 = prdE: Pressure, Strain Gauge [psi]
# name 13 = tv290C: Temperature [ITS-90, deg C]
# name 14 = flag:  0.000e+00
# span 0 =     -0.642,      2.658       
# span 1 =     -0.311,      0.109       
# span 2 =     0.0843,     7.8032       
# span 3 =      1.064,     98.763       
# span 4 =      0.997,     89.204       
# span 5 =   1.012780,  78.618052       
# span 6 =    -0.7301,   227.5603       
# span 7 =      6.723,      7.210       
# span 8 =    56.0090,   272.1925       
# span 9 = 3.3262e+00, 2.1227e+03       
# span 10 =   -12.3113,   110.4732      
# span 11 =     -0.632,      2.607      
# span 12 =     -0.916,      3.781      
# span 13 =    18.3809,    27.8785      
# span 14 = 0.0000e+00, 0.0000e+00      
# interval = seconds: 0.25
# start_time = Jul 15 2024 11:25:21 [Instrument's time stamp, header]
# bad_flag = -9.990e-29
# <Sensors count="9" >
#   <sensor Channel="1" >
#     <!-- Count, Temperature -->
#     <TemperatureSensor SensorID="58" >
#       <SerialNumber>7809</SerialNumber>
#       <CalibrationDate>31-Jan-23</CalibrationDate>
#       <A0>1.21823180e-003</A0>
#       <A1>2.81508993e-004</A1>
#       <A2>-1.57888696e-006</A2>
#       <A3>1.97234302e-007</A3>
#       <Slope>1.00000000</Slope>
#       <Offset>0.0000</Offset>
#     </TemperatureSensor>
#   </sensor>
#   <sensor Channel="2" >
#     <!-- Frequency 0, Conductivity -->
#     <ConductivitySensor SensorID="3" >
#       <SerialNumber>7809</SerialNumber>
#       <CalibrationDate>31-Jan-23</CalibrationDate>
#       <UseG_J>1</UseG_J>
#       <!-- Cell const and series R are applicable only for wide range sensors. -->
#       <SeriesR>0.0000</SeriesR>
#       <CellConst>2000.0000</CellConst>
#       <ConductivityType>0</ConductivityType>
#       <Coefficients equation="0" >
#         <A>0.00000000e+000</A>
#         <B>0.00000000e+000</B>
#         <C>0.00000000e+000</C>
#         <D>0.00000000e+000</D>
#         <M>0.0</M>
#         <CPcor>-9.57000000e-008</CPcor>
#       </Coefficients>
#       <Coefficients equation="1" >
#         <G>-1.00565232e+000</G>
#         <H>1.26796307e-001</H>
#         <I>-1.56170788e-004</I>
#         <J>2.64594368e-005</J>
#         <CPcor>-9.57000000e-008</CPcor>
#         <CTcor>3.2500e-006</CTcor>
#         <!-- WBOTC not applicable unless ConductivityType = 1. -->
#         <WBOTC>0.00000000e+000</WBOTC>
#       </Coefficients>
#       <Slope>1.00000000</Slope>
#       <Offset>0.00000</Offset>
#     </ConductivitySensor>
#   </sensor>
#   <sensor Channel="3" >
#     <!-- Count, Pressure, Strain Gauge -->
#     <PressureSensor SensorID="46" >
#       <SerialNumber>7809</SerialNumber>
#       <CalibrationDate>20-Jan-23</CalibrationDate>
#       <PA0>4.41643944e-002</PA0>
#       <PA1>4.85050239e-004</PA1>
#       <PA2>-3.09042623e-012</PA2>
#       <PTEMPA0>-5.47081996e+001</PTEMPA0>
#       <PTEMPA1>5.48542136e+001</PTEMPA1>
#       <PTEMPA2>-3.44657813e-001</PTEMPA2>
#       <PTCA0>5.25475731e+005</PTCA0>
#       <PTCA1>1.05025484e+001</PTCA1>
#       <PTCA2>-2.92243463e-001</PTCA2>
#       <PTCB0>2.51668750e+001</PTCB0>
#       <PTCB1>3.75000000e-004</PTCB1>
#       <PTCB2>0.00000000e+000</PTCB2>
#       <Offset>0.000000</Offset>
#     </PressureSensor>
#   </sensor>
#   <sensor Channel="4" >
#     <!-- A/D voltage 0, Oxygen, SBE 43 -->
#     <OxygenSensor SensorID="38" >
#       <SerialNumber>0434</SerialNumber>
#       <CalibrationDate>18-Feb-23</CalibrationDate>
#       <Use2007Equation>1</Use2007Equation>
#       <CalibrationCoefficients equation="0" >
#         <!-- Coefficients for Owens-Millard equation. -->
#         <Boc>0.0000</Boc>
#         <Soc>0.0000e+000</Soc>
#         <offset>0.0000</offset>
#         <Pcor>0.00e+000</Pcor>
#         <Tcor>0.0000</Tcor>
#         <Tau>0.0</Tau>
#       </CalibrationCoefficients>
#       <CalibrationCoefficients equation="1" >
#         <!-- Coefficients for Sea-Bird equation - SBE calibration in 2007 and later. -->
#         <Soc>5.1878e-001</Soc>
#         <offset>-0.5046</offset>
#         <A>-4.2788e-003</A>
#         <B> 1.5372e-004</B>
#         <C>-2.1853e-006</C>
#         <D0> 2.5826e+000</D0>
#         <D1> 1.92634e-004</D1>
#         <D2>-4.64803e-002</D2>
#         <E> 3.6000e-002</E>
#         <Tau20> 0.9900</Tau20>
#         <H1>-3.3000e-002</H1>
#         <H2> 5.0000e+003</H2>
#         <H3> 1.4500e+003</H3>
#       </CalibrationCoefficients>
#     </OxygenSensor>
#   </sensor>
#   <sensor Channel="5" >
#     <!-- A/D voltage 1, PAR/Logarithmic, Satlantic -->
#     <PARLog_SatlanticSensor SensorID="76" >
#       <SerialNumber>1122</SerialNumber>
#       <CalibrationDate>08-Sep-2021</CalibrationDate>
#       <a0>9.6751e-001</a0>
#       <a1>8.0992e-001</a1>
#       <Im>1.3589e+000</Im>
#       <Multiplier>1.0000e+000</Multiplier>
#     </PARLog_SatlanticSensor>
#   </sensor>
#   <sensor Channel="6" >
#     <!-- A/D voltage 2, pH -->
#     <pH_Sensor SensorID="43" >
#       <SerialNumber>0363</SerialNumber>
#       <CalibrationDate>28-Feb-23</CalibrationDate>
#       <Slope>4.7364</Slope>
#       <Offset>2.5433</Offset>
#     </pH_Sensor>
#   </sensor>
#   <sensor Channel="7" >
#     <!-- A/D voltage 3, Oxidation Reduction Potential -->
#     <OxidationReductionPotentialSensor SensorID="41" >
#       <SerialNumber>0363</SerialNumber>
#       <CalibrationDate>28-Feb-23</CalibrationDate>
#       <B>2.499480</B>
#       <M>-0.496195</M>
#       <Offset>0.0</Offset>
#     </OxidationReductionPotentialSensor>
#   </sensor>
#   <sensor Channel="8" >
#     <!-- A/D voltage 4, Fluorometer, WET Labs ECO-AFL/FL -->
#     <FluoroWetlabECO_AFL_FL_Sensor SensorID="20" >
#       <SerialNumber>FLNTURT-2496</SerialNumber>
#       <CalibrationDate>02-Sep-2021</CalibrationDate>
#       <ScaleFactor>4.80000000e+001</ScaleFactor>
#       <!-- Dark output -->
#       <Vblank>0.0550</Vblank>
#     </FluoroWetlabECO_AFL_FL_Sensor>
#   </sensor>
#   <sensor Channel="9" >
#     <!-- A/D voltage 5, Turbidity Meter, WET Labs, ECO-NTU -->
#     <TurbidityMeter SensorID="67" >
#       <SerialNumber>FLNTURT--2496</SerialNumber>
#       <CalibrationDate>02-Sep-2021</CalibrationDate>
#       <ScaleFactor>197.000000</ScaleFactor>
#       <!-- Dark output -->
#       <DarkVoltage>0.070000</DarkVoltage>
#     </TurbidityMeter>
#   </sensor>
# </Sensors>
# datcnv_date = Jul 15 2024 16:34:05, 7.26.7.129 [datcnv_vars = 14]
# datcnv_in = C:\R\Reservoirs\Data\DataNotYetUploadedToEDI\Raw_CTD\RawDownloads\071524_fcr30_S7809003.hex C:\R\Reservoirs\Data\DataNotYetUploadedToEDI\Raw_CTD\RawDownloads\SBE19plusV2_7809_start20230701.xmlcon
# datcnv_skipover = 0
# datcnv_ox_hysteresis_correction = yes
# datcnv_ox_tau_correction = yes
# filter_date = Jul 15 2024 16:35:46, 7.26.7.129
# filter_in = C:\R\Reservoirs\Data\DataNotYetUploadedToEDI\Raw_CTD\RawDownloads\071524_fcr30_S7809003.cnv
# filter_low_pass_tc_A = 0.030
# filter_low_pass_tc_B = 0.150
# filter_low_pass_A_vars = sbeox0Mg/L prdM prdE tv290C
# filter_low_pass_B_vars = depFM dz/dtM sbeox0PS specc c0uS/cm flECO-AFL ph orp par/sat/log turbWETntu0
# alignctd_date = Jul 15 2024 16:36:13, 7.26.7.129
# alignctd_in = C:\R\Reservoirs\Data\DataNotYetUploadedToEDI\Raw_CTD\RawDownloads\071524_fcr30_S7809003.cnv
# alignctd_adv = dz/dtM 1.000, sbeox0PS 1.000, specc 1.000, c0uS/cm 1.000, flECO-AFL 1.000, ph 1.000, orp 1.000, turbWETntu0 1.000                                                                                                   
# file_type = ascii
*END*
     -0.641 4.3139e-20     7.7311     94.932      1.048   1.064602    -0.0102      6.844   256.0922 1.7682e+02     0.5259     -0.629     -0.912    25.8102 0.0000e+00
     -0.641 3.9217e-21     7.7321     94.919      1.035   1.052049     0.0108      6.838   262.3002 1.8333e+02     0.4437     -0.628     -0.911    25.8109 0.0000e+00
     -0.641 3.5652e-22     7.7278     94.912      1.024   1.040533     0.0098      6.832   269.1040 2.0565e+02     0.4313     -0.628     -0.911    25.8117 0.0000e+00
     -0.641 3.2410e-23     7.7288     94.915      1.036   1.052040    -0.0226      6.826   272.1925 2.4590e+02     0.2739     -0.629     -0.912    25.8126 0.0000e+00
     -0.641 2.9464e-24     7.7284     94.922      1.048   1.064499    -0.0477      6.819   266.4316 4.4644e+02    -0.0252     -0.629     -0.912    25.8134 0.0000e+00
     -0.641 2.6786e-25     7.7265     94.923      1.048   1.064489    -0.0437      6.810   253.3100 9.4178e+02    -0.2472     -0.629     -0.912    25.8140 0.0000e+00
     -0.641 2.4351e-26     7.7259     94.916      1.035   1.051926    -0.0419      6.803   246.2123 1.4683e+03    -0.2926     -0.629     -0.912    25.8146 0.0000e+00
     -0.641 2.2159e-27     7.7261     94.914      1.023   1.039276    -0.0170      6.798   246.4339 1.6564e+03     0.2121     -0.629     -0.912    25.8151 0.0000e+00
     -0.641 2.2507e-28     7.7271     94.927      1.022   1.038221     0.0409      6.792   247.2134 1.6862e+03     1.1408     -0.629     -0.912    25.8155 0.0000e+00
     -0.641 2.8033e-28     7.7271     94.936      1.023   1.039163     0.0584      6.785   247.8938 1.8520e+03     1.5761     -0.629     -0.912    25.8161 0.0000e+00
     -0.641 2.8840e-27     7.7261     94.930      1.034   1.050669     0.0368      6.780   247.1744 1.9870e+03     1.5475     -0.629     -0.912    25.8168 0.0000e+00
     -0.641 3.1706e-26     7.7251     94.938      1.034   1.050658    -0.0119      6.775   246.4319 2.0299e+03     1.4093     -0.628     -0.911    25.8172 0.0000e+00
     -0.641 3.4876e-25     7.7271     94.963      1.023   1.039038    -0.0809      6.770   248.1217 2.0793e+03     1.1697     -0.629     -0.912    25.8178 0.0000e+00
     -0.641 3.8364e-24     7.7285     94.978      1.021   1.036850    -0.1153      6.766   249.7959 2.1138e+03     1.0068     -0.629     -0.913    25.8183 0.0000e+00
     -0.641 4.2200e-23     7.7263     94.971      1.008   1.024201    -0.1198      6.763   250.1544 2.1227e+03     0.9430     -0.629     -0.912    25.8186 0.0000e+00
     -0.641 4.6420e-22     7.7266     94.956      0.997   1.012780    -0.0858      6.761   250.5635 2.1162e+03     1.0476     -0.629     -0.912    25.8193 0.0000e+00
     -0.642 5.1062e-21     7.7302     94.955      1.009   1.025438    -0.0203      6.758   251.3868 2.0557e+03     1.3154     -0.629     -0.913    25.8199 0.0000e+00
     -0.642 5.6169e-20     7.7313     94.953      1.033   1.050565     0.0068      6.756   252.3653 1.8907e+03     1.4474     -0.629     -0.913    25.8203 0.0000e+00
     -0.641 6.1785e-19     7.7303     94.938      1.045   1.063233    -0.0074      6.754   254.5662 1.7442e+03     1.3792     -0.629     -0.912    25.8210 0.0000e+00
     -0.641 6.7964e-18     7.7279     94.933      1.034   1.051925    -0.0589      6.751   256.5731 1.7626e+03     0.9692     -0.629     -0.912    25.8215 0.0000e+00
     -0.642 7.4760e-17     7.7284     94.942      1.023   1.040523    -0.1340      6.747   255.7233 1.8572e+03     0.2142     -0.629     -0.913    25.8221 0.0000e+00
     -0.642 8.2236e-16     7.7293     94.942      1.035   1.052050    -0.1747      6.744   255.3905 1.8629e+03    -0.2688     -0.629     -0.913    25.8227 0.0000e+00
     -0.642 9.0460e-15     7.7262     94.942      1.047   1.064625    -0.1766      6.740   257.3671 1.7896e+03    -0.2934     -0.629     -0.913    25.8233 0.0000e+00
     -0.642 9.9506e-14     7.7259     94.955      1.048   1.065881    -0.1735      6.737   258.9727 1.7208e+03    -0.0485     -0.629     -0.912    25.8239 0.0000e+00
     -0.642 1.0946e-12     7.7279     94.973      1.049   1.067240    -0.2025      6.735   259.8332 1.6382e+03     1.7697     -0.629     -0.913    25.8244 0.0000e+00
     -0.642 1.2040e-11     7.7272     95.003      1.063   1.081060    -0.2615      6.734   261.4037 1.5393e+03     5.0197     -0.629     -0.913    25.8248 0.0000e+00
     -0.642 1.3244e-10     7.7262     95.029      1.088   1.106294    -0.2961      6.732   263.6793 1.4659e+03     6.7963     -0.629     -0.912    25.8253 0.0000e+00
     -0.642 1.4569e-09     7.7283     95.034      1.100   1.118984    -0.2378      6.730   265.2348 1.4098e+03     6.7861     -0.629     -0.913    25.8259 0.0000e+00
     -0.642 1.6026e-08     7.7288     95.032      1.090   1.107812     0.4685      6.728   266.1869 1.3759e+03     4.1786     -0.629     -0.912    25.8264 0.0000e+00
     -0.642 1.7628e-07     7.7314     95.016      1.080   1.097891     1.7431      6.727   267.1039 1.3476e+03    -0.7171     -0.629     -0.913    25.8270 0.0000e+00
     -0.641      0.000     7.7353     94.993      1.107   1.125708     2.4305      6.727   267.9768 1.2896e+03    -3.3200     -0.629     -0.912    25.8276 0.0000e+00
     -0.641      0.000     7.7334     94.985      1.171   1.190788     2.4543      6.726   268.9105 1.2453e+03    -3.1764     -0.629     -0.912    25.8280 0.0000e+00
     -0.641      0.000     7.7348     94.987      1.230   1.251372     1.9218      6.725   269.9618 1.2363e+03     0.3354     -0.629     -0.912    25.8286 0.0000e+00
     -0.641      0.003     7.7330     95.013      1.449   1.478186     0.9284      6.725   271.3953 1.2394e+03     6.7577     -0.629     -0.912    25.8293 0.0000e+00
     -0.641      0.008     7.7295     95.089      3.391   3.489799     0.3980      6.724   271.7892 1.2515e+03    10.2555     -0.629     -0.913    25.8295 0.0000e+00
     -0.641      0.017     7.7300     95.185     11.416  11.826994     0.3861      6.724   267.8411 1.2931e+03    10.5859     -0.628     -0.911    25.8302 0.0000e+00
     -0.640      0.030     7.7295     95.249     25.950  26.990324     0.6676      6.723   222.7122 1.3735e+03    10.8207     -0.630     -0.914    25.8300 0.0000e+00
     -0.632      0.047     7.7296     95.285     38.016  39.670561     1.1803      6.732   134.1380 1.4135e+03    11.2492     -0.625     -0.906    25.8334 0.0000e+00
     -0.616      0.067     7.7060     95.315     42.152  44.124048     1.4583      6.759    75.2733 1.3879e+03    11.5322     -0.604     -0.876    26.0547 0.0000e+00
     -0.596      0.083     7.6518     95.361     42.496  44.606518     1.4891      6.791    59.3116 1.3745e+03    11.6114     -0.588     -0.853    26.5192 0.0000e+00
     -0.571      0.092     7.6031     95.421     42.470  44.679069     1.5030      6.818    56.0090 1.3835e+03    11.5921     -0.564     -0.818    26.9001 0.0000e+00
     -0.539      0.093     7.5705     95.457     42.399  44.684032     1.5940      6.841    75.8657 1.3998e+03    11.5038     -0.530     -0.769    27.1552 0.0000e+00
     -0.507      0.090     7.5468     95.483     42.388  44.730117     1.7647      6.859   115.1015 1.4069e+03    11.4661     -0.493     -0.715    27.3459 0.0000e+00
     -0.483      0.085     7.5307     95.561     42.411  44.792032     1.8444      6.866   137.3780 1.3975e+03    11.4778     -0.468     -0.679    27.4832 0.0000e+00
     -0.471      0.080     7.5232     95.850     42.454  44.861407     1.8504      6.862   139.9195 1.4179e+03    11.5429     -0.464     -0.673    27.6040 0.0000e+00
     -0.460      0.076     7.5098     96.219     42.505  44.934189     1.9039      6.852   140.6684 1.4654e+03    11.6387     -0.455     -0.660    27.6976 0.0000e+00
     -0.442      0.077     7.5057     96.345     42.469  44.910344     1.9665      6.844   141.5289 1.5002e+03    11.7139     -0.434     -0.630    27.7642 0.0000e+00
     -0.419      0.084     7.4968     96.393     42.326  44.763552     1.9746      6.843   142.9242 1.5272e+03    11.7687     -0.410     -0.595    27.8054 0.0000e+00
     -0.398      0.094     7.5167     96.558     42.195  44.619311     1.9690      6.844   143.9450 1.5684e+03    11.7885     -0.391     -0.567    27.8306 0.0000e+00
     -0.373      0.104     7.5664     96.775     42.154  44.562816     2.1235      6.839   143.1159 1.6265e+03    11.8512     -0.368     -0.535    27.8516 0.0000e+00
     -0.343      0.109     7.5571     97.015     42.136  44.524784     2.4105      6.829   141.9340 1.6833e+03    11.9466     -0.336     -0.488    27.8717 0.0000e+00
     -0.312      0.109     7.5545     97.270     42.115  44.476814     2.5600      6.821   141.7003 1.6995e+03    11.9851     -0.305     -0.442    27.8785 0.0000e+00
     -0.282      0.106     7.5752     97.510     42.150  44.490582     2.5823      6.816   141.6671 1.6709e+03    12.0095     -0.276     -0.401    27.8683 0.0000e+00
     -0.252      0.101     7.5926     97.725     42.236  44.564257     2.7302      6.811   141.7037 1.6643e+03    12.0025     -0.245     -0.355    27.8531 0.0000e+00
     -0.227      0.097     7.6154     97.941     42.291  44.605877     3.0163      6.805   141.9714 1.7113e+03    11.9345     -0.221     -0.319    27.8305 0.0000e+00
     -0.208      0.096     7.6405     98.155     42.266  44.549457     3.1956      6.796   142.5807 1.7670e+03    11.8706     -0.203     -0.294    27.7964 0.0000e+00
     -0.189      0.097     7.6650     98.379     42.217  44.453318     3.2492      6.784   143.2202 1.7954e+03    11.8443     -0.188     -0.272    27.7663 0.0000e+00
     -0.166      0.097     7.6812     98.616     42.212  44.395543     3.4651      6.773   143.2511 1.8064e+03    11.8214     -0.166     -0.240    27.7500 0.0000e+00
     -0.137      0.094     7.7020     98.763     42.222  44.358618     3.8414      6.763   142.6099 1.7422e+03    11.7993     -0.136     -0.198    27.7358 0.0000e+00
     -0.105      0.087     7.7227     98.726     42.224  44.324158     4.0539      6.757   141.7484 1.5572e+03    11.8153     -0.103     -0.149    27.7030 0.0000e+00
     -0.076      0.074     7.7466     98.536     42.226  44.296205     4.0870      6.753   140.9223 1.3447e+03    11.8447     -0.071     -0.102    27.6456 0.0000e+00
     -0.058      0.058     7.7787     97.925     42.232  44.274510     4.0920      6.749   140.1067 1.0537e+03    11.8122     -0.053     -0.076    27.5765 0.0000e+00
     -0.050      0.041     7.8032     96.090     42.239  44.252229     4.0887      6.744   139.4577 6.7424e+02    11.6625     -0.048     -0.069    27.5180 0.0000e+00
     -0.049      0.026     7.8021     92.658     42.239  44.217177     4.0807      6.740   139.0125 4.3860e+02    11.5032     -0.049     -0.071    27.4777 0.0000e+00
     -0.049      0.014     7.7918     88.257     42.228  44.168018     4.0786      6.738   138.5098 3.9415e+02    11.4916     -0.050     -0.073    27.4448 0.0000e+00
     -0.046      0.008     7.7821     83.732     42.201  44.102126     4.0877      6.736   138.1114 4.7540e+02    11.5905     -0.045     -0.065    27.4135 0.0000e+00
     -0.041      0.007     7.6581     79.577     42.191  44.055170     4.0824      6.736   137.9824 7.8785e+02    11.6056     -0.038     -0.055    27.3790 0.0000e+00
     -0.040      0.007     7.3639     76.108     42.213  44.044538     4.0483      6.737   137.8103 1.1868e+03    11.4354     -0.038     -0.055    27.3366 0.0000e+00
     -0.041      0.008     6.9950     73.622     42.233  44.037006     4.0166      6.737   137.5790 1.3244e+03    11.2405     -0.042     -0.061    27.2906 0.0000e+00
     -0.040      0.011     6.6302     72.266     42.246  44.027528     4.0234      6.737   137.4221 1.1878e+03    11.2308     -0.040     -0.059    27.2460 0.0000e+00
     -0.037      0.019     6.2998     72.036     42.231  43.993376     4.1306      6.736   137.3757 9.5024e+02    11.3862     -0.035     -0.051    27.2025 0.0000e+00
     -0.035      0.031     6.0165     72.651     42.196  43.941411     4.3062      6.734   137.4491 7.7026e+02    11.5490     -0.035     -0.052    27.1617 0.0000e+00
     -0.029      0.045     5.8213     73.519     42.175  43.906997     4.3825      6.732   137.5347 8.1058e+02    11.5940     -0.032     -0.047    27.1279 0.0000e+00
     -0.015      0.056     5.7144     74.217     42.173  43.894627     4.3533      6.732   137.5513 1.0591e+03    11.5191     -0.018     -0.026    27.1005 0.0000e+00
      0.007      0.061     5.7039     74.661     42.203  43.918788     4.2368      6.733   137.5638 1.1615e+03    11.4978      0.007      0.009    27.0778 0.0000e+00
      0.031      0.060     5.7774     74.788     42.234  43.945216     4.0473      6.736   137.5989 9.7143e+02    11.5751      0.031      0.045    27.0600 0.0000e+00
      0.051      0.050     5.8606     74.473     42.254  43.960261     3.9427      6.737   137.5455 7.6563e+02    11.6337      0.051      0.074    27.0454 0.0000e+00
      0.065      0.033     5.9159     73.752     42.271  43.973739     3.9367      6.738   137.4349 7.5593e+02    11.6254      0.068      0.097    27.0338 0.0000e+00
      0.071      0.013     5.9525     72.727     42.282  43.981220     4.0422      6.739   137.2937 9.3760e+02    11.5772      0.072      0.105    27.0253 0.0000e+00
      0.068     -0.002     5.9716     71.512     42.292  43.987233     4.2524      6.740   137.1289 1.0595e+03    11.5644      0.069      0.100    27.0186 0.0000e+00
      0.059     -0.010     5.9430     70.282     42.293  43.982959     4.3639      6.741   136.9907 1.0240e+03    11.5729      0.059      0.085    27.0126 0.0000e+00
      0.048     -0.010     5.8830     69.154     42.310  43.993016     4.3678      6.742   136.9993 1.0423e+03    11.5767      0.046      0.066    27.0078 0.0000e+00
      0.041     -0.002     5.8007     68.186     42.306  43.981870     4.3575      6.742   137.1476 1.0714e+03    11.5417      0.037      0.053    27.0033 0.0000e+00
      0.041      0.012     5.6970     67.507     42.245  43.911649     4.3225      6.741   137.2346 9.8319e+02    11.4579      0.038      0.057    26.9986 0.0000e+00
      0.048      0.026     5.5971     67.260     42.183  43.842192     4.3028      6.741   137.1908 9.0993e+02    11.4866      0.046      0.067    26.9922 0.0000e+00
      0.060      0.036     5.5076     67.399     42.185  43.840277     4.3108      6.741   136.9624 8.3411e+02    11.5801      0.055      0.079    26.9825 0.0000e+00
      0.077      0.040     5.4281     67.740     42.234  43.888483     4.3021      6.741   136.6234 6.9661e+02    11.5639      0.074      0.108    26.9734 0.0000e+00
      0.093      0.036     5.3675     68.191     42.264  43.917256     4.2467      6.741   136.4474 6.5716e+02    11.4622      0.096      0.138    26.9657 0.0000e+00
      0.103      0.028     5.3510     68.789     42.282  43.934270     4.1663      6.741   136.5558 7.5503e+02    11.3409      0.103      0.149    26.9583 0.0000e+00
      0.106      0.017     5.3698     69.499     42.316  43.967235     4.1289      6.741   136.8149 9.0923e+02    11.2920      0.105      0.152    26.9538 0.0000e+00
      0.106      0.006     5.3996     70.034     42.350  43.998466     4.1282      6.741   137.0855 1.0418e+03    11.2809      0.106      0.153    26.9511 0.0000e+00
      0.104     -0.001     5.4338     70.060     42.351  43.994511     4.1576      6.740   137.3327 1.0091e+03    11.3091      0.103      0.149    26.9490 0.0000e+00
      0.101     -0.003     5.4795     69.530     42.346  43.982876     4.2260      6.740   137.3937 7.8531e+02    11.4290      0.099      0.143    26.9472 0.0000e+00
      0.099     -0.003     5.5471     68.648     42.353  43.984729     4.2649      6.740   137.3075 5.9369e+02    11.5006      0.096      0.139    26.9452 0.0000e+00
      0.098     -0.002     5.6024     67.661     42.328  43.953424     4.2614      6.741   137.4090 5.2875e+02    11.5603      0.096      0.139    26.9415 0.0000e+00
      0.099      0.001     5.6055     66.769     42.302  43.921736     4.2663      6.743   137.6746 5.2795e+02    11.5698      0.097      0.140    26.9335 0.0000e+00
      0.100      0.003     5.5569     66.149     42.303  43.918961     4.2917      6.745   137.9377 5.5495e+02    11.4451      0.098      0.143    26.9247 0.0000e+00
      0.102      0.004     5.4796     65.924     42.308  43.919862     4.3191      6.747   138.1821 5.3404e+02    11.3497      0.100      0.145    26.9179 0.0000e+00
      0.103      0.004     5.3964     66.117     42.324  43.932628     4.3303      6.749   138.2198 4.9173e+02    11.3053      0.101      0.146    26.9126 0.0000e+00
      0.105      0.003     5.3207     66.648     42.340  43.946362     4.3357      6.752   137.9630 4.9726e+02    11.3514      0.103      0.151    26.9084 0.0000e+00
      0.105      0.003     5.2673     67.277     42.356  43.958952     4.3510      6.755   137.7441 5.2627e+02    11.4975      0.104      0.152    26.9039 0.0000e+00
      0.105      0.002     5.2500     67.685     42.359  43.957905     4.3660      6.757   137.7244 5.4833e+02    11.5682      0.102      0.149    26.8991 0.0000e+00
      0.105      0.002     5.2670     67.713     42.339  43.933699     4.3752      6.759   137.8109 5.5157e+02    11.5922      0.102      0.149    26.8944 0.0000e+00
      0.106      0.002     5.3165     67.443     42.329  43.920164     4.3704      6.761   137.9299 5.2202e+02    11.5483      0.104      0.151    26.8901 0.0000e+00
      0.107      0.003     5.3789     67.098     42.333  43.921204     4.3502      6.764   138.0437 4.9911e+02    11.3792      0.104      0.152    26.8856 0.0000e+00
      0.108      0.006     5.4163     66.923     42.361  43.946261     4.3385      6.766   138.1545 5.0356e+02    11.2562      0.105      0.153    26.8809 0.0000e+00
      0.108      0.011     5.4160     67.052     42.386  43.969229     4.3535      6.767   138.2379 5.1481e+02    11.2561      0.106      0.153    26.8765 0.0000e+00
      0.110      0.016     5.3877     67.439     42.366  43.945003     4.3654      6.770   138.3634 5.1647e+02    11.3099      0.107      0.155    26.8724 0.0000e+00
      0.114      0.021     5.3530     67.927     42.332  43.907242     4.2826      6.772   138.5532 5.0315e+02    11.3594      0.111      0.161    26.8683 0.0000e+00
      0.121      0.026     5.3350     68.384     42.321  43.893507     4.1353      6.773   138.7260 5.0711e+02    11.4448      0.118      0.172    26.8647 0.0000e+00
      0.130      0.029     5.3475     68.757     42.334  43.905879     4.0657      6.775   138.8178 5.3419e+02    11.5231      0.128      0.185    26.8612 0.0000e+00
      0.140      0.030     5.3842     69.012     42.359  43.929875     4.0738      6.777   138.9753 5.6061e+02    11.5536      0.138      0.200    26.8577 0.0000e+00
      0.150      0.029     5.4276     69.133     42.361  43.929748     4.0751      6.779   139.2529 5.8543e+02    11.5751      0.148      0.214    26.8547 0.0000e+00
      0.156      0.026     5.4651     69.135     42.338  43.904348     4.0398      6.781   139.5074 6.1833e+02    11.5440      0.154      0.224    26.8521 0.0000e+00
      0.161      0.022     5.4958     68.971     42.313  43.876650     4.0051      6.784   139.7294 6.5621e+02    11.4851      0.157      0.229    26.8499 0.0000e+00
      0.166      0.017     5.5178     68.522     42.288  43.848742     4.0041      6.786   139.8727 6.9473e+02    11.4435      0.162      0.235    26.8479 0.0000e+00
      0.172      0.012     5.5259     67.778     42.262  43.820818     4.0445      6.788   139.9490 7.0483e+02    11.4167      0.169      0.246    26.8458 0.0000e+00
      0.176      0.007     5.5268     66.882     42.236  43.792911     4.1114      6.789   140.0498 6.6770e+02    11.4011      0.174      0.253    26.8437 0.0000e+00
      0.176      0.002     5.5197     65.958     42.211  43.765211     4.1380      6.791   140.2313 6.2192e+02    11.3571      0.172      0.250    26.8414 0.0000e+00
      0.174     -0.003     5.4849     65.091     42.188  43.739801     4.1251      6.794   140.5091 5.9366e+02    11.2946      0.170      0.246    26.8393 0.0000e+00
      0.172     -0.007     5.4190     64.335     42.189  43.739573     4.0719      6.797   140.8267 5.7586e+02    11.3291      0.169      0.245    26.8376 0.0000e+00
      0.170     -0.009     5.3450     63.716     42.212  43.762443     3.9771      6.799   141.1466 5.7075e+02    11.4660      0.167      0.243    26.8358 0.0000e+00
      0.167     -0.009     5.2689     63.295     42.213  43.762432     3.9278      6.801   141.5373 5.8485e+02    11.5838      0.164      0.237    26.8344 0.0000e+00
      0.163     -0.008     5.1976     63.054     42.193  43.739437     3.9093      6.802   142.0224 6.0039e+02    11.5923      0.159      0.230    26.8332 0.0000e+00
      0.160     -0.006     5.1384     62.848     42.193  43.738292     3.7944      6.802   142.3667 6.1578e+02    11.6018      0.156      0.227    26.8319 0.0000e+00
      0.159     -0.003     5.0856     62.553     42.204  43.748593     3.6045      6.803   142.4307 6.1776e+02    11.6993      0.155      0.225    26.8304 0.0000e+00
      0.160     -0.001     5.0520     62.147     42.194  43.737042     3.5107      6.804   142.4522 5.8937e+02    11.7467      0.156      0.227    26.8287 0.0000e+00
      0.161      0.002     5.0388     61.660     42.184  43.725575     3.5173      6.804   142.6257 5.5425e+02    11.7645      0.158      0.229    26.8270 0.0000e+00
      0.161      0.004     5.0264     61.114     42.197  43.736893     3.5182      6.804   142.8946 5.2079e+02    11.7782      0.158      0.229    26.8253 0.0000e+00
      0.162      0.006     5.0029     60.544     42.207  43.746943     3.5294      6.805   143.1224 4.9559e+02    11.7409      0.159      0.230    26.8237 0.0000e+00
      0.163      0.008     4.9692     59.992     42.182  43.720131     3.5704      6.806   143.3149 4.8923e+02    11.6902      0.160      0.232    26.8223 0.0000e+00
      0.164      0.010     4.9300     59.449     42.131  43.666606     3.5973      6.807   143.5879 4.9957e+02    11.7107      0.161      0.233    26.8208 0.0000e+00
      0.168      0.010     4.8859     58.868     42.075  43.607559     3.6129      6.808   143.8416 5.1278e+02    11.8184      0.164      0.238    26.8195 0.0000e+00
      0.173      0.010     4.8383     58.257     42.047  43.577449     3.6089      6.809   143.9734 5.1325e+02    11.8309      0.169      0.245    26.8182 0.0000e+00
      0.177      0.009     4.7945     57.637     42.088  43.619918     3.5827      6.810   144.0627 5.0555e+02    11.7259      0.174      0.252    26.8166 0.0000e+00
      0.179      0.006     4.7540     57.042     42.144  43.676740     3.5716      6.812   144.2324 4.9824e+02    11.6759      0.176      0.255    26.8151 0.0000e+00
      0.179      0.004     4.7066     56.530     42.161  43.693218     3.5740      6.813   144.3912 4.8784e+02    11.7381      0.176      0.255    26.8143 0.0000e+00
      0.178      0.001     4.6568     56.078     42.161  43.692207     3.7368      6.814   144.3481 4.7465e+02    11.8293      0.175      0.253    26.8140 0.0000e+00
      0.178     -0.001     4.6081     55.672     42.135  43.664510     4.0584      6.815   144.3134 4.6518e+02    11.8216      0.174      0.253    26.8137 0.0000e+00
      0.177     -0.001     4.5558     55.323     42.086  43.612222     4.2326      6.818   144.4870 4.6068e+02    11.7477      0.174      0.252    26.8122 0.0000e+00
      0.177     -0.001     4.5180     54.953     42.044  43.567782     4.2449      6.822   144.6413 4.6554e+02    11.7221      0.174      0.252    26.8104 0.0000e+00
      0.177     -0.001     4.4829     54.548     42.048  43.571512     4.2488      6.825   144.6299 4.7964e+02    11.7507      0.174      0.253    26.8091 0.0000e+00
      0.177     -0.001     4.4471     54.166     42.071  43.593842     4.2631      6.828   144.6935 4.9484e+02    11.7858      0.174      0.252    26.8077 0.0000e+00
      0.176     -0.001     4.4251     53.805     42.062  43.583872     4.2767      6.832   144.8939 5.1182e+02    11.7703      0.173      0.251    26.8065 0.0000e+00
      0.176     -0.001     4.3950     53.433     42.057  43.577911     4.2807      6.834   145.0740 5.2662e+02    11.7342      0.172      0.249    26.8057 0.0000e+00
      0.176     -0.001     4.3596     53.033     42.065  43.585239     4.2447      6.835   145.2366 5.3619e+02    11.7257      0.172      0.249    26.8049 0.0000e+00
      0.176     -0.001     4.3303     52.624     42.088  43.609003     4.1733      6.838   145.3109 5.5041e+02    11.7358      0.174      0.252    26.8039 0.0000e+00
      0.176      0.001     4.3022     52.269     42.092  43.611344     4.1425      6.840   145.3695 5.7553e+02    11.7881      0.174      0.252    26.8026 0.0000e+00
      0.175      0.004     4.2731     51.994     42.034  43.550071     4.1552      6.842   145.4285 6.1628e+02    11.8458      0.172      0.248    26.8013 0.0000e+00
      0.174      0.007     4.2413     51.774     41.989  43.502896     4.2185      6.844   145.1645 6.3921e+02    11.8521      0.170      0.246    26.8004 0.0000e+00
      0.176      0.011     4.2054     51.549     41.972  43.485261     4.3247      6.845   144.6721 6.0621e+02    11.7967      0.171      0.247    26.7997 0.0000e+00
      0.181      0.015     4.1772     51.293     41.952  43.463776     4.3751      6.845   144.3795 5.6491e+02    11.7227      0.177      0.257    26.7984 0.0000e+00
      0.187      0.019     4.1556     51.017     41.984  43.497026     4.3776      6.843   144.4667 5.6178e+02    11.7427      0.185      0.268    26.7971 0.0000e+00
      0.192      0.023     4.1407     50.722     42.054  43.569919     4.3890      6.841   144.7797 5.7483e+02    11.8340      0.188      0.274    26.7961 0.0000e+00
      0.198      0.027     4.1234     50.434     42.068  43.583434     4.3875      6.840   145.1532 5.8827e+02    11.9384      0.194      0.281    26.7957 0.0000e+00
      0.204      0.028     4.1015     50.180     42.021  43.533495     4.3515      6.837   145.4546 6.0319e+02    12.0134      0.200      0.290    26.7961 0.0000e+00
      0.212      0.028     4.0807     49.961     41.964  43.473893     4.3107      6.835   145.6705 6.1332e+02    11.9894      0.207      0.300    26.7964 0.0000e+00
      0.222      0.027     4.0555     49.754     41.925  43.434042     4.2937      6.835   145.9569 6.2895e+02    11.9555      0.217      0.315    26.7957 0.0000e+00
      0.232      0.023     4.0320     49.544     41.924  43.432501     4.1797      6.836   146.1647 6.5734e+02    11.9110      0.230      0.333    26.7942 0.0000e+00
      0.238      0.018     4.0114     49.334     41.947  43.455263     3.9474      6.838   146.2896 6.8279e+02    11.8277      0.237      0.343    26.7925 0.0000e+00
      0.240      0.009     3.9953     49.125     41.948  43.455355     3.8069      6.839   146.4348 7.1176e+02    11.7681      0.235      0.341    26.7923 0.0000e+00
      0.241     -0.001     3.9788     48.914     41.928  43.433615     3.7964      6.841   146.4577 7.3538e+02    11.7032      0.236      0.342    26.7930 0.0000e+00
      0.241     -0.010     3.9622     48.696     41.941  43.446297     3.9543      6.842   146.3936 7.3772e+02    11.5894      0.238      0.345    26.7925 0.0000e+00
      0.238     -0.017     3.9448     48.464     41.976  43.481739     4.2595      6.844   146.3491 7.3017e+02    11.4508      0.235      0.342    26.7911 0.0000e+00
      0.230     -0.020     3.9288     48.226     41.977  43.481313     4.4393      6.846   146.2640 7.1930e+02    11.3943      0.226      0.329    26.7897 0.0000e+00
      0.221     -0.021     3.9119     48.011     41.940  43.441143     4.4552      6.847   146.2249 7.3486e+02    11.3490      0.216      0.313    26.7889 0.0000e+00
      0.213     -0.021     3.8950     47.826     41.878  43.376879     4.4355      6.848   146.3064 7.4441e+02    11.3137      0.208      0.301    26.7883 0.0000e+00
      0.208     -0.020     3.8766     47.683     41.842  43.339026     4.4265      6.850   146.3879 6.9144e+02    11.4455      0.203      0.295    26.7869 0.0000e+00
      0.205     -0.017     3.8557     47.555     41.866  43.364301     4.4366      6.852   146.5223 6.3096e+02    11.6110      0.201      0.292    26.7849 0.0000e+00
      0.204     -0.014     3.8397     47.403     41.929  43.428591     4.4413      6.854   146.7268 6.2436e+02    11.6406      0.200      0.290    26.7834 0.0000e+00
      0.201     -0.011     3.8235     47.271     41.981  43.481616     4.3593      6.854   146.7958 6.5050e+02    11.5645      0.199      0.288    26.7826 0.0000e+00
      0.196     -0.008     3.8128     47.186     41.997  43.497647     4.2021      6.855   146.6686 6.8277e+02    11.4760      0.193      0.280    26.7824 0.0000e+00
      0.192     -0.004     3.8057     47.107     41.996  43.495471     4.1304      6.857   146.5651 7.2122e+02    11.4583      0.187      0.271    26.7828 0.0000e+00
      0.190      0.002     3.7905     47.014     41.958  43.455309     4.1495      6.860   146.5767 7.0949e+02    11.4877      0.185      0.269    26.7827 0.0000e+00
      0.191      0.010     3.7786     46.912     41.898  43.392879     4.1504      6.862   146.5510 6.3784e+02    11.4893      0.186      0.271    26.7814 0.0000e+00
      0.196      0.017     3.7748     46.841     41.881  43.375362     4.0996      6.863   146.4267 5.9559e+02    11.5125      0.191      0.277    26.7797 0.0000e+00
      0.203      0.022     3.7683     46.848     41.999  43.497393     4.0354      6.863   146.3641 5.9474e+02    11.5965      0.199      0.289    26.7785 0.0000e+00
      0.212      0.026     3.7611     47.238     42.280  43.789308     4.0149      6.863   146.4821 5.8064e+02    11.6865      0.209      0.303    26.7775 0.0000e+00
      0.219      0.027     3.7523     49.453     42.529  44.048578     4.0262      6.863   146.7356 5.5687e+02    11.7802      0.215      0.312    26.7769 0.0000e+00
      0.225      0.024     3.7435     55.250     42.631  44.156734     4.0474      6.863   147.0199 5.6001e+02    11.8414      0.219      0.318    26.7779 0.0000e+00
      0.232      0.018     3.7458     63.753     42.678  44.208371     4.0795      6.863   147.2523 5.8845e+02    11.8109      0.227      0.330    26.7782 0.0000e+00
      0.240      0.009     3.7404     72.083     42.695  44.228599     4.0897      6.863   147.5664 6.3029e+02    11.7190      0.236      0.342    26.7772 0.0000e+00
      0.244     -0.002     3.8286     78.679     42.674  44.210890     4.0797      6.862   147.8924 6.7937e+02    11.6873      0.241      0.350    26.7800 0.0000e+00
      0.242     -0.012     4.3217     83.395     42.643  44.184685     4.1490      6.861   148.0114 7.2576e+02    11.6670      0.239      0.347    26.7841 0.0000e+00
      0.234     -0.022     5.1264     86.320     42.619  44.165662     4.2954      6.859   148.0579 7.7261e+02    11.5071      0.230      0.333    26.7859 0.0000e+00
      0.223     -0.028     5.8205     87.530     42.622  44.171326     4.3766      6.859   148.1101 8.1949e+02    11.3596      0.219      0.317    26.7889 0.0000e+00
      0.212     -0.029     6.3424     87.127     42.638  44.189691     4.3741      6.860   148.1273 8.2840e+02    11.3183      0.208      0.301    26.7938 0.0000e+00
      0.202     -0.027     6.7187     85.596     42.644  44.197285     4.3393      6.862   148.1797 7.8764e+02    11.3838      0.197      0.286    26.8019 0.0000e+00
      0.196     -0.022     6.9458     83.761     42.646  44.199678     4.2982      6.864   148.2271 7.1443e+02    11.5372      0.191      0.276    26.8097 0.0000e+00
      0.193     -0.018     7.0462     82.252     42.665  44.218625     4.2762      6.865   148.1836 6.2661e+02    11.6018      0.189      0.274    26.8117 0.0000e+00
      0.192     -0.015     6.9991     81.208     42.680  44.235947     4.2731      6.867   148.1707 5.8313e+02    11.5488      0.189      0.274    26.8130 0.0000e+00
      0.190     -0.012     6.8486     80.500     42.662  44.218687     4.3096      6.867   148.2428 6.3359e+02    11.4091      0.187      0.271    26.8150 0.0000e+00
      0.185     -0.008     6.6823     79.998     42.643  44.200364     4.3856      6.868   148.3678 7.0502e+02    11.2795      0.181      0.263    26.8144 0.0000e+00
      0.180     -0.006     6.5603     79.633     42.651  44.204839     4.4338      6.871   148.5623 7.0996e+02    11.2798      0.175      0.254    26.8139 0.0000e+00
      0.178     -0.004     6.4831     79.411     42.662  44.209311     4.4431      6.873   148.7024 6.9581e+02    11.3100      0.173      0.251    26.8154 0.0000e+00
      0.180     -0.004     6.4285     79.321     42.650  44.190941     4.4400      6.874   148.6848 6.7984e+02    11.3035      0.176      0.254    26.8189 0.0000e+00
      0.184     -0.003     6.3913     79.301     42.635  44.173146     4.3797      6.875   148.6073 6.8182e+02    11.2694      0.182      0.263    26.8217 0.0000e+00
      0.185     -0.003     6.3611     79.316     42.647  44.184582     4.2883      6.876   148.5400 7.1478e+02    11.2392      0.183      0.266    26.8170 0.0000e+00
      0.181     -0.003     6.3441     79.329     42.666  44.202261     4.2507      6.878   148.4740 7.2462e+02    11.2449      0.177      0.257    26.8061 0.0000e+00
      0.176     -0.003     6.3420     79.359     42.664  44.196478     4.2585      6.881   148.4969 7.5614e+02    11.2708      0.170      0.247    26.7989 0.0000e+00
      0.174     -0.002     6.3386     79.430     42.650  44.178122     4.3237      6.883   148.6447 8.1760e+02    11.3478      0.169      0.247    26.7974 0.0000e+00
      0.175      0.001     6.3437     79.506     42.647  44.170735     4.4231      6.884   148.7986 8.2345e+02    11.4240      0.172      0.250    26.7962 0.0000e+00
      0.177      0.008     6.3432     79.576     42.650  44.170640     4.4618      6.884   148.9809 8.4541e+02    11.4410      0.174      0.252    26.7935 0.0000e+00
      0.178      0.018     6.3443     79.644     42.657  44.176969     4.4578      6.884   149.3003 9.0391e+02    11.4509      0.175      0.253    26.7899 0.0000e+00
      0.182      0.028     6.3534     79.708     42.664  44.183774     4.4831      6.883   149.6494 8.7425e+02    11.6113      0.177      0.257    26.7850 0.0000e+00
      0.188      0.037     6.3595     79.772     42.669  44.189444     4.5432      6.881   149.9322 8.0502e+02    11.9112      0.182      0.264    26.7798 0.0000e+00
      0.200      0.042     6.3653     79.827     42.662  44.182058     4.5776      6.881   150.0525 7.6122e+02    12.0368      0.193      0.281    26.7757 0.0000e+00
      0.217      0.041     6.3715     79.857     42.637  44.157936     4.5490      6.882   150.0708 7.3293e+02    12.0038      0.212      0.308    26.7740 0.0000e+00
      0.236      0.033     6.3759     79.848     42.630  44.151695     4.2973      6.885   150.1532 7.1767e+02    11.8878      0.233      0.338    26.7751 0.0000e+00
      0.249      0.020     6.3816     79.799     42.647  44.170070     3.8651      6.887   150.1888 7.0883e+02    11.6924      0.249      0.361    26.7756 0.0000e+00
      0.252      0.005     6.3863     79.741     42.664  44.189684     3.6508      6.889   150.2432 7.2547e+02    11.6225      0.251      0.364    26.7758 0.0000e+00
      0.244     -0.008     6.3885     79.676     42.672  44.198424     3.6540      6.890   150.3817 7.5866e+02    11.5899      0.240      0.348    26.7769 0.0000e+00
      0.232     -0.018     6.3892     79.618     42.687  44.212273     3.8206      6.892   150.4866 7.8795e+02    11.4687      0.226      0.328    26.7778 0.0000e+00
      0.222     -0.021     6.3821     79.601     42.705  44.230180     4.1497      6.893   150.5646 8.0915e+02    11.3517      0.215      0.313    26.7791 0.0000e+00
      0.217     -0.018     6.3786     79.606     42.699  44.224510     4.3547      6.893   150.6365 8.0832e+02    11.3033      0.212      0.308    26.7815 0.0000e+00
      0.217     -0.013     6.3729     79.605     42.681  44.207195     4.4015      6.894   150.6679 7.5899e+02    11.3281      0.213      0.309    26.7827 0.0000e+00
      0.215     -0.007     6.3663     79.598     42.684  44.211253     4.3991      6.896   150.6854 6.8798e+02    11.3435      0.212      0.306    26.7808 0.0000e+00
      0.213     -0.004     6.3666     79.602     42.683  44.210100     4.3673      6.897   150.6771 6.5940e+02    11.3532      0.208      0.301    26.7794 0.0000e+00
      0.212     -0.003     6.3676     79.602     42.667  44.193252     4.3507      6.898   150.6533 6.6851e+02    11.4114      0.208      0.300    26.7807 0.0000e+00
      0.213     -0.003     6.3676     79.597     42.670  44.197969     4.3645      6.900   150.7416 6.8697e+02    11.4660      0.210      0.304    26.7823 0.0000e+00
      0.214     -0.002     6.3654     79.589     42.675  44.203658     4.4002      6.903   150.8842 7.2220e+02    11.5359      0.210      0.305    26.7832 0.0000e+00
      0.213      0.000     6.3672     79.581     42.670  44.198558     4.4987      6.904   151.0013 7.6466e+02    11.6068      0.209      0.303    26.7830 0.0000e+00
      0.211      0.002     6.3671     79.584     42.672  44.199788     4.6485      6.907   151.0388 7.7926e+02    11.6398      0.207      0.299    26.7821 0.0000e+00
      0.210      0.006     6.3662     79.603     42.692  44.218526     4.7303      6.909   151.0796 7.6613e+02    11.6619      0.205      0.297    26.7831 0.0000e+00
      0.211      0.011     6.3658     79.640     42.710  44.234689     4.7388      6.911   151.2365 7.4808e+02    11.7042      0.206      0.299    26.7852 0.0000e+00
      0.215      0.016     6.3640     79.683     42.683  44.204793     4.6850      6.914   151.3005 7.3348e+02    11.7752      0.211      0.306    26.7855 0.0000e+00
      0.221      0.020     6.3651     79.719     42.655  44.174419     4.5622      6.916   151.2507 7.1520e+02    11.7689      0.216      0.314    26.7843 0.0000e+00
      0.228      0.022     6.3659     79.750     42.665  44.184814     4.4690      6.919   151.3237 6.9250e+02    11.6962      0.223      0.324    26.7820 0.0000e+00
      0.237      0.022     6.3704     79.780     42.682  44.203534     4.4324      6.921   151.4945 6.5796e+02    11.6822      0.233      0.337    26.7787 0.0000e+00
      0.244      0.021     6.3742     79.803     42.687  44.210330     4.2526      6.922   151.6805 6.2543e+02    11.7356      0.240      0.348    26.7759 0.0000e+00
      0.248      0.020     6.3772     79.807     42.680  44.203513     3.9097      6.923   151.9380 6.3219e+02    11.7953      0.244      0.353    26.7744 0.0000e+00
      0.250      0.019     6.3796     79.789     42.662  44.184584     3.7074      6.926   152.1989 6.6357e+02    11.7891      0.244      0.354    26.7747 0.0000e+00
      0.253      0.017     6.3816     79.765     42.650  44.171889     3.6714      6.928   152.3402 7.1403e+02    11.7286      0.247      0.359    26.7764 0.0000e+00
      0.259      0.015     6.3844     79.775     42.655  44.176970     3.6904      6.929   152.3562 7.6118e+02    11.6786      0.254      0.368    26.7775 0.0000e+00
      0.265      0.013     6.3842     79.814     42.660  44.182542     3.7539      6.930   152.3923 7.4674e+02    11.6967      0.260      0.377    26.7775 0.0000e+00
      0.270      0.011     6.3832     79.835     42.654  44.175782     3.7976      6.932   152.5179 6.9454e+02    11.7770      0.266      0.385    26.7773 0.0000e+00
      0.272      0.008     6.3789     79.840     42.638  44.158717     3.8114      6.934   152.5843 6.6999e+02    11.7610      0.268      0.388    26.7773 0.0000e+00
      0.271      0.005     6.3799     79.848     42.647  44.166635     3.8711      6.937   152.5932 6.7243e+02    11.6059      0.266      0.386    26.7774 0.0000e+00
      0.270      0.003     6.3858     79.873     42.687  44.208035     3.9708      6.939   152.7114 6.6038e+02    11.4732      0.264      0.383    26.7774 0.0000e+00
      0.270      0.002     6.3863     79.912     42.693  44.214959     4.0093      6.941   152.8084 6.3327e+02    11.4883      0.264      0.382    26.7772 0.0000e+00
      0.273      0.001     6.3865     79.947     42.666  44.186884     4.0120      6.944   152.8206 6.1216e+02    11.5838      0.268      0.388    26.7766 0.0000e+00
      0.274      0.000     6.3866     79.986     42.665  44.185947     4.0285      6.947   152.9450 6.1056e+02    11.6035      0.270      0.391    26.7759 0.0000e+00
      0.274     -0.002     6.3884     80.012     42.682  44.203637     4.0256      6.949   153.1078 6.3199e+02    11.5905      0.270      0.391    26.7758 0.0000e+00
      0.272     -0.005     6.3932     80.017     42.687  44.210340     3.9928      6.950   153.1545 6.6429e+02    11.5974      0.267      0.388    26.7759 0.0000e+00
      0.269     -0.009     6.3943     80.015     42.680  44.203524     3.9572      6.952   153.0785 6.9189e+02    11.5499      0.264      0.383    26.7756 0.0000e+00
      0.267     -0.012     6.3987     80.001     42.661  44.184699     3.9607      6.954   152.9632 7.1515e+02    11.5283      0.262      0.380    26.7759 0.0000e+00
      0.264     -0.015     6.4013     79.961     42.650  44.173159     4.0273      6.954   152.8789 7.4533e+02    11.5071      0.259      0.376    26.7768 0.0000e+00
      0.261     -0.018     6.4002     79.906     42.667  44.190943     4.1140      6.954   152.8339 7.5553e+02    11.3962      0.255      0.371    26.7776 0.0000e+00
      0.256     -0.019     6.4006     79.848     42.684  44.209298     4.1430      6.954   152.7632 7.3465e+02    11.3152      0.250      0.364    26.7787 0.0000e+00
      0.250     -0.019     6.4000     79.770     42.679  44.204666     4.1287      6.955   152.7123 7.0394e+02    11.2791      0.245      0.356    26.7793 0.0000e+00
      0.243     -0.017     6.3968     79.705     42.673  44.198414     4.1727      6.956   152.8218 6.7749e+02    11.3348      0.238      0.345    26.7794 0.0000e+00
      0.237     -0.013     6.3907     79.709     42.671  44.197174     4.2766      6.956   152.9688 6.5745e+02    11.4762      0.230      0.334    26.7795 0.0000e+00
      0.233     -0.008     6.3881     79.761     42.665  44.189684     4.3363      6.957   153.1126 6.2923e+02    11.5547      0.227      0.329    26.7802 0.0000e+00
      0.232     -0.002     6.3806     79.811     42.647  44.171329     4.3365      6.957   153.2688 6.3733e+02    11.5652      0.227      0.329    26.7806 0.0000e+00
      0.234      0.003     6.3722     79.833     42.642  44.165666     4.3461      6.956   153.3955 6.8533e+02    11.5359      0.228      0.331    26.7814 0.0000e+00
      0.237      0.006     6.3741     79.830     42.659  44.184690     4.3939      6.956   153.5265 6.8758e+02    11.5077      0.232      0.337    26.7816 0.0000e+00
      0.241      0.007     6.3801     79.832     42.684  44.210910     4.4314      6.956   153.7332 6.7000e+02    11.4973      0.236      0.342    26.7805 0.0000e+00
      0.243      0.006     6.3847     79.865     42.701  44.228797     4.4335      6.957   154.0020 6.9835e+02    11.5124      0.238      0.345    26.7804 0.0000e+00
      0.244      0.005     6.3865     79.917     42.683  44.210535     4.4025      6.957   154.1094 7.3370e+02    11.4855      0.239      0.347    26.7810 0.0000e+00
      0.244      0.002     6.3848     79.950     42.655  44.180535     4.3402      6.958   154.0853 7.5291e+02    11.3425      0.239      0.347    26.7817 0.0000e+00
      0.244     -0.001     6.3843     79.973     42.659  44.183441     4.3039      6.960   154.1412 7.6434e+02    11.2529      0.239      0.347    26.7824 0.0000e+00
      0.244     -0.003     6.3869     80.003     42.658  44.182192     4.3126      6.960   154.2683 7.3654e+02    11.2900      0.239      0.347    26.7830 0.0000e+00
      0.243     -0.003     6.3930     80.021     42.641  44.165439     4.3205      6.961   154.3315 6.8193e+02    11.3138      0.239      0.347    26.7835 0.0000e+00
      0.241     -0.003     6.3952     80.027     42.647  44.171308     4.3331      6.961   154.3034 6.5921e+02    11.3348      0.237      0.345    26.7824 0.0000e+00
      0.238     -0.002     6.3955     80.012     42.665  44.189683     4.3738      6.962   154.3588 6.7279e+02    11.4079      0.233      0.339    26.7806 0.0000e+00
      0.237      0.000     6.4004     79.959     42.673  44.197175     4.4138      6.963   154.5717 6.9389e+02    11.4799      0.231      0.336    26.7803 0.0000e+00
      0.238      0.003     6.4001     79.876     42.675  44.198415     4.4335      6.963   154.7258 7.1104e+02    11.5559      0.232      0.337    26.7812 0.0000e+00
      0.241      0.006     6.4016     79.788     42.681  44.204667     4.4121      6.964   154.7597 7.2584e+02    11.6094      0.236      0.342    26.7815 0.0000e+00
      0.244      0.009     6.4011     79.734     42.685  44.209299     4.3548      6.965   154.8096 7.4475e+02    11.5801      0.239      0.347    26.7807 0.0000e+00
      0.246      0.011     6.3965     79.730     42.667  44.190944     4.3147      6.965   154.8989 7.5262e+02    11.5096      0.241      0.349    26.7796 0.0000e+00
      0.248      0.011     6.3897     79.763     42.651  44.173160     4.3097      6.966   155.0646 7.4034e+02    11.5081      0.242      0.352    26.7781 0.0000e+00
      0.251      0.010     6.3810     79.822     42.662  44.184700     4.3194      6.967   155.2645 7.3284e+02    11.5629      0.246      0.355    26.7776 0.0000e+00
      0.254      0.009     6.3762     79.907     42.681  44.203534     4.3236      6.968   155.3368 7.3908e+02    11.5908      0.249      0.361    26.7788 0.0000e+00
      0.258      0.006     6.3765     80.017     42.688  44.210444     4.3274      6.969   155.3372 7.3578e+02    11.5722      0.252      0.368    26.7791 0.0000e+00
      0.259      0.002     6.3796     80.150     42.682  44.204782     4.3246      6.970   155.4403 7.1768e+02    11.5092      0.255      0.371    26.7781 0.0000e+00
      0.259     -0.001     6.3840     80.255     42.676  44.198549     4.2982      6.970   155.5522 7.0843e+02    11.5123      0.256      0.371    26.7775 0.0000e+00
      0.257     -0.003     6.3915     80.300     42.676  44.198559     4.2747      6.972   155.5712 7.1242e+02    11.5755      0.252      0.366    26.7769 0.0000e+00
      0.253     -0.004     6.3991     80.285     42.682  44.204897     4.2731      6.974   155.5836 6.9239e+02    11.5897      0.247      0.359    26.7768 0.0000e+00
      0.252     -0.004     6.4125     80.221     42.688  44.211708     4.2788      6.975   155.6163 6.5074e+02    11.5476      0.246      0.357    26.7773 0.0000e+00
      0.252     -0.002     6.4217     80.154     42.693  44.217435     4.2768      6.976   155.7084 6.4094e+02    11.4764      0.247      0.358    26.7775 0.0000e+00
      0.252      0.001     6.4243     80.108     42.687  44.210663     4.2663      6.977   155.8367 6.5931e+02    11.4804      0.247      0.359    26.7775 0.0000e+00
      0.252      0.005     6.4243     80.069     42.671  44.193303     4.2511      6.978   155.9632 6.7705e+02    11.5612      0.247      0.359    26.7777 0.0000e+00
      0.252      0.010     6.4160     80.007     42.676  44.197963     4.2428      6.977   156.2052 6.8792e+02    11.5998      0.247      0.358    26.7781 0.0000e+00
      0.254      0.015     6.4110     79.929     42.682  44.203534     4.2571      6.977   156.5265 6.8378e+02    11.5713      0.248      0.361    26.7787 0.0000e+00
      0.259      0.020     6.4072     79.878     42.677  44.197186     4.3164      6.977   156.8355 6.6953e+02    11.5578      0.253      0.368    26.7784 0.0000e+00
      0.266      0.024     6.4055     79.847     42.667  44.184682     4.4102      6.977   157.1024 6.6361e+02    11.6422      0.261      0.378    26.7773 0.0000e+00
      0.275      0.026     6.4012     79.824     42.664  44.179289     4.4582      6.978   157.3443 6.5428e+02    11.7369      0.270      0.391    26.7768 0.0000e+00
      0.283      0.027     6.3915     79.805     42.681  44.195454     4.4485      6.980   157.6093 6.3409e+02    11.7464      0.278      0.404    26.7771 0.0000e+00
      0.290      0.025     6.3897     79.801     42.676  44.189696     4.2507      6.982   157.8109 6.2792e+02    11.7232      0.284      0.412    26.7760 0.0000e+00
      0.297      0.020     6.3871     79.838     42.661  44.173150     3.8646      6.984   157.8903 6.2194e+02    11.6952      0.291      0.422    26.7724 0.0000e+00
      0.303      0.014     6.3860     79.910     42.673  44.185825     3.6415      6.985   157.8813 6.0937e+02    11.6812      0.298      0.432    26.7686 0.0000e+00
      0.305      0.009     6.3849     79.985     42.702  44.215999     3.6175      6.987   157.9596 6.1381e+02    11.6908      0.301      0.436    26.7670 0.0000e+00
      0.305      0.005     6.3829     80.039     42.707  44.220603     3.6916      6.989   158.2349 6.2441e+02    11.6748      0.300      0.435    26.7663 0.0000e+00
      0.304      0.002     6.3864     80.057     42.666  44.178011     3.8463      6.990   158.4571 6.3137e+02    11.6245      0.298      0.432    26.7661 0.0000e+00
      0.304      0.000     6.3933     80.022     42.634  44.145348     3.9314      6.992   158.4956 6.3777e+02    11.5613      0.297      0.431    26.7665 0.0000e+00
      0.304     -0.002     6.4001     79.977     42.632  44.143060     3.9297      6.995   158.4421 6.3542e+02    11.4918      0.297      0.431    26.7664 0.0000e+00
      0.304     -0.003     6.4040     79.967     42.639  44.150344     4.0097      6.998   158.3256 6.2367e+02    11.3986      0.299      0.433    26.7658 0.0000e+00
      0.304     -0.004     6.4076     79.961     42.657  44.169939     4.1904      7.000   158.2908 6.1785e+02    11.3220      0.299      0.434    26.7658 0.0000e+00
      0.303     -0.004     6.4027     79.938     42.675  44.189560     4.3003      7.002   158.3654 6.2719e+02    11.3513      0.297      0.431    26.7658 0.0000e+00
      0.300     -0.004     6.3966     79.946     42.682  44.197166     4.3148      7.004   158.4534 6.3039e+02    11.3778      0.293      0.426    26.7656 0.0000e+00
      0.298     -0.003     6.3979     80.009     42.683  44.198425     4.3404      7.005   158.5809 6.3041e+02    11.4372      0.291      0.422    26.7660 0.0000e+00
      0.297     -0.002     6.3986     80.076     42.689  44.204784     4.4015      7.006   158.7887 6.3344e+02    11.6256      0.291      0.422    26.7671 0.0000e+00
      0.297      0.000     6.3942     80.123     42.696  44.210569     4.4547      7.008   158.9863 6.1704e+02    11.7425      0.291      0.423    26.7685 0.0000e+00
      0.298      0.003     6.3933     80.155     42.692  44.204909     4.4845      7.010   159.0781 6.0370e+02    11.7919      0.292      0.423    26.7692 0.0000e+00
      0.299      0.005     6.4013     80.152     42.688  44.199810     4.4953      7.013   159.2095 6.0851e+02    11.8121      0.293      0.425    26.7693 0.0000e+00
      0.300      0.005     6.4071     80.112     42.700  44.212400     4.5110      7.015   159.3710 6.0841e+02    11.7139      0.294      0.427    26.7689 0.0000e+00
      0.303      0.005     6.4099     80.060     42.716  44.230184     4.5492      7.015   159.3965 6.0151e+02    11.5610      0.297      0.431    26.7679 0.0000e+00
      0.305      0.004     6.4143     80.008     42.709  44.224409     4.5737      7.016   159.3451 6.0562e+02    11.5008      0.299      0.434    26.7657 0.0000e+00
      0.305      0.001     6.4144     79.980     42.691  44.206052     4.5834      7.019   159.3519 6.2669e+02    11.5666      0.300      0.435    26.7641 0.0000e+00
      0.305     -0.001     6.4094     79.979     42.683  44.198655     4.5748      7.021   159.3926 6.5642e+02    11.6387      0.299      0.434    26.7646 0.0000e+00
      0.304     -0.003     6.4058     79.983     42.681  44.198446     4.5362      7.023   159.4937 6.7520e+02    11.6560      0.299      0.433    26.7662 0.0000e+00
      0.303     -0.005     6.4000     79.995     42.684  44.203535     4.5074      7.026   159.6276 6.6615e+02    11.6728      0.297      0.431    26.7679 0.0000e+00
      0.301     -0.005     6.3973     80.002     42.676  44.196700     4.5094      7.028   159.6348 6.4581e+02    11.7053      0.295      0.429    26.7684 0.0000e+00
      0.299     -0.004     6.3992     80.014     42.658  44.179288     4.5277      7.030   159.6669 6.3476e+02    11.6395      0.293      0.426    26.7688 0.0000e+00
      0.298     -0.003     6.3975     80.054     42.661  44.183441     4.5376      7.032   159.7574 6.2731e+02    11.4576      0.292      0.424    26.7708 0.0000e+00
      0.298     -0.002     6.3997     80.064     42.661  44.183441     4.5288      7.033   159.7831 6.1454e+02    11.3164      0.292      0.424    26.7742 0.0000e+00
      0.299     -0.001     6.3999     80.015     42.657  44.179288     4.5124      7.034   159.8047 6.0098e+02    11.2644      0.293      0.425    26.7770 0.0000e+00
      0.299     -0.000     6.3981     79.964     42.673  44.196703     4.4476      7.036   159.9327 5.9459e+02    11.3749      0.293      0.425    26.7781 0.0000e+00
      0.298      0.001     6.4047     79.929     42.679  44.203574     4.3359      7.039   160.1259 6.0028e+02    11.6619      0.292      0.424    26.7781 0.0000e+00
      0.298      0.002     6.4073     79.924     42.673  44.198893     4.2690      7.039   160.1624 6.1280e+02    11.8320      0.292      0.423    26.7779 0.0000e+00
      0.299      0.002     6.3992     79.969     42.678  44.203575     4.2548      7.040   160.2024 6.2264e+02    11.7921      0.292      0.423    26.7779 0.0000e+00
      0.300      0.001     6.3961     80.032     42.672  44.196713     4.2063      7.042   160.3499 6.2692e+02    11.6578      0.294      0.427    26.7782 0.0000e+00
      0.302      0.000     6.3931     80.074     42.656  44.179403     4.1147      7.043   160.3974 6.2984e+02    11.5406      0.296      0.430    26.7797 0.0000e+00
      0.302     -0.001     6.3902     80.085     42.661  44.184700     4.0795      7.043   160.4339 6.4181e+02    11.5696      0.297      0.431    26.7813 0.0000e+00
      0.302     -0.003     6.3961     80.071     42.674  44.197280     4.0972      7.043   160.5319 6.5148e+02    11.5988      0.297      0.431    26.7818 0.0000e+00
      0.299     -0.004     6.4022     80.033     42.680  44.204563     4.1381      7.044   160.6366 6.4379e+02    11.5175      0.293      0.425    26.7805 0.0000e+00
      0.296     -0.004     6.4060     79.994     42.685  44.209278     4.2066      7.046   160.7536 6.2974e+02    11.4751      0.289      0.420    26.7792 0.0000e+00
      0.295     -0.004     6.4061     79.980     42.667  44.190818     4.2433      7.048   160.8273 6.2174e+02    11.5291      0.289      0.420    26.7792 0.0000e+00
      0.295     -0.003     6.4057     79.977     42.649  44.171786     4.2569      7.048   160.7535 6.2079e+02    11.5911      0.289      0.420    26.7791 0.0000e+00
      0.295     -0.002     6.4019     79.964     42.648  44.169593     4.2793      7.049   160.7216 6.2299e+02    11.5748      0.291      0.422    26.7796 0.0000e+00
      0.295     -0.001     6.3971     79.939     42.643  44.164305     4.3314      7.049   160.8723 6.3084e+02    11.5716      0.289      0.420    26.7800 0.0000e+00
      0.294     -0.000     6.3971     79.924     42.649  44.171319     4.4123      7.049   161.0267 6.4302e+02    11.6549      0.287      0.417    26.7795 0.0000e+00
      0.293      0.000     6.3977     79.949     42.668  44.190923     4.4505      7.050   161.2122 6.4818e+02    11.7275      0.287      0.416    26.7789 0.0000e+00
      0.294      0.001     6.3965     79.999     42.687  44.210910     4.4439      7.050   161.3947 6.5083e+02    11.7673      0.288      0.418    26.7783 0.0000e+00
      0.295      0.003     6.3942     80.045     42.697  44.222556     4.3066      7.051   161.5119 6.5651e+02    11.7262      0.290      0.420    26.7781 0.0000e+00
      0.296      0.004     6.3913     80.076     42.681  44.204782     4.0309      7.052   161.6824 6.5686e+02    11.6059      0.291      0.422    26.7777 0.0000e+00
      0.297      0.004     6.3944     80.101     42.664  44.186427     3.8656      7.052   161.8219 6.5171e+02    11.5419      0.291      0.422    26.7782 0.0000e+00
      0.299      0.004     6.3991     80.135     42.669  44.191058     3.8398      7.053   161.8214 6.4267e+02    11.4994      0.293      0.424    26.7796 0.0000e+00
      0.300      0.003     6.4028     80.160     42.676  44.197302     3.8515      7.056   161.8494 6.2845e+02    11.4333      0.294      0.427    26.7797 0.0000e+00
      0.301      0.003     6.4058     80.159     42.677  44.198447     3.8905      7.057   161.9881 6.1433e+02    11.3582      0.295      0.428    26.7790 0.0000e+00
      0.301      0.002     6.4063     80.144     42.683  44.204897     3.9200      7.057   162.1206 6.0998e+02    11.3084      0.295      0.428    26.7780 0.0000e+00
      0.301      0.001     6.4105     80.137     42.690  44.211817     3.9258      7.058   162.1618 6.1289e+02    11.3098      0.295      0.428    26.7770 0.0000e+00
      0.301      0.001     6.4131     80.136     42.697  44.218641     3.9857      7.060   162.1427 6.1299e+02    11.3745      0.295      0.428    26.7762 0.0000e+00
      0.302      0.001     6.4125     80.134     42.702  44.223929     4.1200      7.062   162.1468 6.1098e+02    11.5103      0.296      0.429    26.7763 0.0000e+00
      0.302      0.000     6.4102     80.118     42.691  44.212275     4.2091      7.063   162.1253 6.2092e+02    11.5844      0.296      0.429    26.7768 0.0000e+00
      0.302     -0.001     6.4102     80.088     42.683  44.204689     4.2141      7.065   162.0547 6.3734e+02    11.5877      0.296      0.430    26.7763 0.0000e+00
      0.302     -0.003     6.4102     80.078     42.674  44.195680     4.0892      7.066   162.0673 6.5178e+02    11.6189      0.296      0.430    26.7756 0.0000e+00
      0.301     -0.004     6.4105     80.093     42.646  44.166824     3.8647      7.067   162.1913 6.7055e+02    11.6874      0.296      0.429    26.7754 0.0000e+00
      0.300     -0.005     6.4098     80.092     42.651  44.173171     3.7464      7.069   162.2635 6.7833e+02    11.7674      0.294      0.427    26.7750 0.0000e+00
      0.298     -0.005     6.4054     80.051     42.684  44.208945     3.7414      7.071   162.2522 6.6861e+02    11.8009      0.292      0.424    26.7750 0.0000e+00
      0.296     -0.004     6.4046     79.992     42.692  44.218516     3.7536      7.072   162.3133 6.4923e+02    11.7844      0.290      0.420    26.7759 0.0000e+00
      0.294     -0.002     6.4073     79.936     42.698  44.225427     3.9190      7.073   162.4002 6.2650e+02    11.7053      0.288      0.418    26.7768 0.0000e+00
      0.294      0.000     6.4084     79.900     42.702  44.229027     4.2434      7.074   162.4426 6.0899e+02    11.5622      0.288      0.418    26.7781 0.0000e+00
      0.295      0.001     6.4032     79.895     42.673  44.198559     4.4381      7.075   162.4815 5.9972e+02    11.5222      0.288      0.418    26.7795 0.0000e+00
      0.296      0.001     6.3981     79.900     42.650  44.174419     4.4670      7.076   162.4406 6.0067e+02    11.5979      0.290      0.421    26.7818 0.0000e+00
      0.297      0.001     6.3930     79.914     42.667  44.191058     4.3510      7.077   162.3776 6.1862e+02    11.6239      0.293      0.425    26.7830 0.0000e+00
      0.297     -0.000     6.3892     79.944     42.686  44.209311     4.1097      7.078   162.4081 6.4267e+02    11.5629      0.291      0.423    26.7811 0.0000e+00
      0.297     -0.003     6.3907     79.972     42.682  44.204689     3.9718      7.078   162.4652 6.5659e+02    11.5090      0.290      0.421    26.7799 0.0000e+00
      0.297     -0.007     6.3905     79.972     42.676  44.198654     3.9654      7.078   162.4658 6.7400e+02    11.5534      0.292      0.424    26.7810 0.0000e+00
      0.296     -0.011     6.3912     79.957     42.676  44.199808     4.0485      7.078   162.5022 6.9189e+02    11.6209      0.292      0.423    26.7802 0.0000e+00
      0.292     -0.013     6.3948     79.989     42.693  44.218643     4.1945      7.076   162.6462 6.8454e+02    11.6419      0.286      0.415    26.7774 0.0000e+00
      0.287     -0.014     6.3979     80.042     42.707  44.235963     4.2652      7.074   162.8316 6.5969e+02    11.6029      0.281      0.408    26.7769 0.0000e+00
      0.282     -0.013     6.3983     80.028     42.686  44.218807     4.2625      7.074   162.9370 6.3933e+02    11.5247      0.277      0.402    26.7783 0.0000e+00
      0.277     -0.011     6.3931     79.953     42.666  44.201638     4.3111      7.073   162.8875 6.3339e+02    11.5850      0.270      0.392    26.7793 0.0000e+00
      0.273     -0.010     6.3965     79.882     42.680  44.218806     4.4031      7.073   162.7484 6.2348e+02    11.7506      0.266      0.386    26.7807 0.0000e+00
      0.273     -0.013     6.4051     79.850     42.695  44.235961     4.4434      7.072   162.6324 5.9529e+02    11.8192      0.267      0.388    26.7840 0.0000e+00
      0.275     -0.018     6.4020     79.862     42.677  44.218639     4.4404      7.071   162.5184 5.8444e+02    11.8001      0.270      0.392    26.7884 0.0000e+00
      0.273     -0.023     6.3933     79.892     42.657  44.199795     4.4169      7.070   162.4876 6.0894e+02    11.6908      0.271      0.393    26.7930 0.0000e+00
      0.265     -0.025     6.3863     79.891     42.653  44.198546     4.3837      7.068   162.6904 6.6736e+02    11.5560      0.262      0.382    26.7968 0.0000e+00
      0.251     -0.023     6.3836     79.855     42.656  44.203550     4.3725      7.065   162.9050 7.5607e+02    11.5367      0.246      0.357    26.7984 0.0000e+00
      0.236     -0.018     6.3846     79.816     42.651  44.196821     4.3728      7.062   163.0172 8.1217e+02    11.5601      0.227      0.330    26.7996 0.0000e+00
      0.230     -0.011     6.3892     79.784     42.638  44.180658     4.3710      7.060   163.1873 7.8838e+02    11.5316      0.221      0.320    26.8015 0.0000e+00
      0.235     -0.003     6.3888     79.769     42.657  44.198546     4.3513      7.060   163.2406 7.2244e+02    11.5346      0.230      0.333    26.8052 0.0000e+00
      0.244      0.003     6.3836     79.768     42.682  44.222679     4.3170      7.061   163.1453 6.4762e+02    11.6639      0.241      0.349    26.8085 0.0000e+00
      0.249      0.007     6.3812     79.769     42.679  44.218535     4.2984      7.062   163.1539 5.9299e+02    11.7621      0.246      0.356    26.8066 0.0000e+00
      0.248      0.006     6.3786     79.806     42.673  44.211919     4.3091      7.063   163.1723 5.7311e+02    11.7309      0.244      0.354    26.8024 0.0000e+00
      0.245      0.003     6.3773     79.904     42.668  44.206162     4.3627      7.063   163.1960 5.7915e+02    11.6624      0.241      0.348    26.7997 0.0000e+00
      0.244      0.002     6.3789     80.027     42.674  44.212406     4.4306      7.063   163.2684 6.2461e+02    11.5836      0.239      0.346    26.7979 0.0000e+00
      0.245      0.003     6.3775     80.122     42.684  44.223938     4.4560      7.064   163.3585 6.7061e+02    11.5303      0.240      0.347    26.7965 0.0000e+00
      0.247      0.004     6.3790     80.167     42.679  44.218640     4.4536      7.066   163.3390 6.8740e+02    11.4961      0.242      0.351    26.7957 0.0000e+00
      0.249      0.005     6.3889     80.184     42.673  44.211825     4.4763      7.068   163.2056 6.9932e+02    11.4767      0.244      0.354    26.7956 0.0000e+00
      0.252      0.005     6.4000     80.187     42.667  44.205019     4.5227      7.070   163.2086 7.0911e+02    11.5014      0.247      0.359    26.7965 0.0000e+00
      0.253      0.004     6.4085     80.150     42.662  44.199816     4.5396      7.072   163.2883 7.1059e+02    11.5211      0.249      0.361    26.7976 0.0000e+00
      0.252      0.003     6.4110     80.060     42.674  44.212397     4.5223      7.073   163.3949 6.9915e+02    11.5102      0.249      0.360    26.7972 0.0000e+00
      0.252      0.001     6.4117     79.963     42.691  44.230180     4.4892      7.074   163.3791 6.7615e+02    11.4715      0.247      0.358    26.7961 0.0000e+00
      0.253     -0.001     6.4133     79.903     42.686  44.224406     4.4556      7.076   163.1831 6.5612e+02    11.4633      0.249      0.361    26.7958 0.0000e+00
      0.254     -0.001     6.4113     79.883     42.670  44.206060     4.4480      7.078   163.0910 6.5264e+02    11.5476      0.250      0.362    26.7961 0.0000e+00
      0.253      0.001     6.4019     79.903     42.664  44.198777     4.4386      7.079   163.1257 6.5264e+02    11.6025      0.248      0.359    26.7967 0.0000e+00
      0.251      0.004     6.3927     79.953     42.668  44.199817     4.3760      7.080   163.2584 6.3682e+02    11.6148      0.246      0.356    26.7963 0.0000e+00
      0.250      0.008     6.3883     80.003     42.688  44.218642     4.2898      7.081   163.4049 5.9886e+02    11.6632      0.244      0.354    26.7950 0.0000e+00
      0.253      0.013     6.3868     80.038     42.705  44.235948     4.2622      7.081   163.5197 5.5860e+02    11.7431      0.248      0.359    26.7939 0.0000e+00
      0.259      0.017     6.3883     80.053     42.689  44.218641     4.2753      7.080   163.7003 5.5231e+02    11.8291      0.254      0.368    26.7922 0.0000e+00
      0.266      0.018     6.3944     80.040     42.671  44.199807     4.2742      7.080   163.7827 5.7285e+02    11.8142      0.261      0.379    26.7892 0.0000e+00
      0.273      0.016     6.3989     80.020     42.669  44.198662     4.2483      7.080   163.7416 5.9787e+02    11.6661      0.267      0.389    26.7867 0.0000e+00
      0.279      0.012     6.4013     80.015     42.675  44.204792     4.2118      7.081   163.8051 6.3164e+02    11.5065      0.274      0.398    26.7857 0.0000e+00
      0.281      0.007     6.4040     80.022     42.680  44.210444     4.1991      7.082   163.9478 6.7770e+02    11.4910      0.278      0.403    26.7851 0.0000e+00
      0.280      0.002     6.4015     80.030     42.674  44.203533     4.2035      7.082   164.0044 7.2220e+02    11.5805      0.276      0.399    26.7851 0.0000e+00
      0.278     -0.002     6.3993     80.035     42.655  44.184698     4.1640      7.083   164.0594 7.3814e+02    11.5647      0.273      0.395    26.7857 0.0000e+00
      0.276     -0.004     6.3989     80.039     42.643  44.173148     4.0721      7.083   164.1816 7.0833e+02    11.4364      0.271      0.393    26.7861 0.0000e+00
      0.276     -0.006     6.4000     80.046     42.660  44.190828     4.0076      7.083   164.2779 6.4940e+02    11.3956      0.271      0.393    26.7859 0.0000e+00
      0.275     -0.006     6.4008     80.066     42.678  44.208040     3.9921      7.084   164.2771 5.9052e+02    11.4809      0.270      0.392    26.7852 0.0000e+00
      0.274     -0.006     6.4009     80.077     42.662  44.190839     3.9758      7.084   164.2581 5.4662e+02    11.6142      0.269      0.390    26.7863 0.0000e+00
      0.272     -0.005     6.4014     80.081     42.646  44.173272     3.9440      7.084   164.3928 5.2480e+02    11.7094      0.268      0.388    26.7882 0.0000e+00
      0.269     -0.004     6.4007     80.073     42.660  44.186061     3.9235      7.085   164.6145 5.2322e+02    11.7097      0.264      0.383    26.7880 0.0000e+00
      0.267     -0.001     6.4040     80.023     42.691  44.218516     3.9195      7.086   164.7882 5.2041e+02    11.6860      0.261      0.378    26.7864 0.0000e+00
      0.267      0.002     6.4049     79.968     42.720  44.248314     3.9786      7.086   164.8584 5.3173e+02    11.6615      0.261      0.379    26.7853 0.0000e+00
      0.270      0.005     6.4041     79.947     42.701  44.228965     4.1139      7.086   164.8611 5.8859e+02    11.6183      0.264      0.384    26.7843 0.0000e+00
      0.272      0.007     6.4071     79.958     42.649  44.174999     4.1992      7.086   164.9068 6.3489e+02    11.5734      0.267      0.387    26.7833 0.0000e+00
      0.275      0.007     6.4003     80.008     42.642  44.167093     4.2112      7.086   164.9803 6.4564e+02    11.5628      0.269      0.389    26.7830 0.0000e+00
      0.278      0.005     6.3945     80.089     42.672  44.196839     4.1914      7.086   164.9761 6.7084e+02    11.5932      0.273      0.395    26.7824 0.0000e+00
      0.280      0.002     6.3941     80.167     42.693  44.217280     4.1509      7.086   164.9421 6.9435e+02    11.6331      0.275      0.399    26.7823 0.0000e+00
      0.280     -0.001     6.3937     80.206     42.700  44.223816     4.1382      7.085   164.9987 6.8385e+02    11.6700      0.275      0.399    26.7827 0.0000e+00
      0.279     -0.005     6.3982     80.192     42.689  44.212387     4.1462      7.085   165.1442 6.5255e+02    11.6288      0.274      0.397    26.7823 0.0000e+00
      0.276     -0.008     6.4060     80.161     42.682  44.206051     4.0891      7.085   165.3247 6.1650e+02    11.5794      0.272      0.394    26.7808 0.0000e+00
      0.273     -0.009     6.4136     80.157     42.686  44.210674     3.9553      7.085   165.4611 5.8142e+02    11.6537      0.267      0.388    26.7787 0.0000e+00
      0.269     -0.009     6.4175     80.162     42.678  44.204804     3.8613      7.086   165.5029 5.5209e+02    11.7409      0.264      0.383    26.7776 0.0000e+00
      0.266     -0.008     6.4154     80.153     42.671  44.198560     3.8429      7.086   165.4855 5.3819e+02    11.7797      0.262      0.378    26.7773 0.0000e+00
      0.264     -0.005     6.4101     80.144     42.670  44.198663     3.8495      7.087   165.5095 5.4020e+02    11.8156      0.259      0.375    26.7779 0.0000e+00
      0.264     -0.003     6.4115     80.141     42.677  44.206052     3.8744      7.088   165.5335 5.5305e+02    11.8336      0.258      0.374    26.7804 0.0000e+00
      0.264     -0.000     6.4125     80.139     42.695  44.224417     3.9024      7.089   165.5180 5.7696e+02    11.8257      0.259      0.375    26.7830 0.0000e+00
      0.265      0.003     6.4101     80.108     42.700  44.230296     3.9050      7.091   165.5810 6.0420e+02    11.7890      0.260      0.377    26.7843 0.0000e+00
      0.265      0.006     6.4100     80.031     42.685  44.213657     3.9052      7.092   165.7782 6.2669e+02    11.7650      0.260      0.377    26.7850 0.0000e+00
      0.266      0.008     6.4089     79.954     42.687  44.213657     3.9307      7.093   166.0098 6.4004e+02    11.7750      0.261      0.378    26.7856 0.0000e+00
      0.269      0.011     6.4103     79.932     42.706  44.230296     3.9634      7.093   166.4021 6.4361e+02    11.7734      0.264      0.383    26.7855 0.0000e+00
      0.273      0.018     6.4091     79.952     42.702  44.224409     3.9755      7.089   167.1662 6.4402e+02    11.7792      0.269      0.389    26.7848 0.0000e+00
      0.277      0.028     6.4010     79.969     42.686  44.205939     3.9611      7.082   167.9356 6.3714e+02    11.7770      0.272      0.393    26.7833 0.0000e+00
      0.280      0.039     6.3930     79.973     42.680  44.197407     3.8724      7.076   168.3907 6.1585e+02    11.7811      0.276      0.400    26.7812 0.0000e+00
      0.287      0.047     6.3919     79.961     42.670  44.184713     3.7183      7.072   168.7109 6.1588e+02    11.8284      0.277      0.402    26.7793 0.0000e+00
      0.306      0.050     6.3963     79.930     42.668  44.179406     3.6383      7.068   168.9684 6.4912e+02    11.8369      0.294      0.426    26.7768 0.0000e+00
      0.332      0.048     6.3972     79.903     42.685  44.196712     3.6285      7.065   169.0946 6.4797e+02    11.7817      0.332      0.481    26.7745 0.0000e+00
      0.351      0.040     6.3979     79.891     42.691  44.203536     3.5757      7.064   169.1185 5.9553e+02    11.6733      0.350      0.508    26.7718 0.0000e+00
      0.358      0.026     6.3982     79.911     42.686  44.198438     3.4989      7.062   169.0859 5.3429e+02    11.5854      0.350      0.509    26.7677 0.0000e+00
      0.359      0.009     6.3946     79.972     42.684  44.198552     3.4652      7.062   169.1302 5.0489e+02    11.6072      0.353      0.514    26.7643 0.0000e+00
      0.357     -0.010     6.3928     80.029     42.688  44.204909     3.4594      7.062   169.1374 5.0982e+02    11.6291      0.354      0.513    26.7633 0.0000e+00
      0.349     -0.028     6.3914     80.061     42.693  44.211830     3.5037      7.061   168.9159 5.0425e+02    11.5766      0.343      0.497    26.7650 0.0000e+00
      0.341     -0.043     6.3911     80.085     42.696  44.218767     3.6012      7.059   168.6885 4.9253e+02    11.5196      0.331      0.481    26.7663 0.0000e+00
      0.333     -0.055     6.3988     80.102     42.698  44.225313     3.6653      7.058   168.5382 5.0123e+02    11.5206      0.329      0.477    26.7673 0.0000e+00
      0.318     -0.060     6.4034     80.107     42.697  44.227505     3.6878      7.058   168.3887 5.4522e+02    11.5544      0.318      0.461    26.7694 0.0000e+00
      0.293     -0.059     6.4047     80.107     42.711  44.245278     3.6980      7.058   168.3444 6.3710e+02    11.5174      0.287      0.417    26.7722 0.0000e+00
      0.267     -0.051     6.4063     80.115     42.713  44.249786     3.8145      7.060   168.3470 7.4015e+02    11.4504      0.258      0.373    26.7770 0.0000e+00
      0.251     -0.040     6.4070     80.118     42.683  44.218536     4.0465      7.063   168.2478 8.1505e+02    11.4617      0.243      0.351    26.7824 0.0000e+00
      0.246     -0.027     6.4072     80.107     42.653  44.184815     4.1732      7.066   168.0908 8.3113e+02    11.5171      0.238      0.346    26.7866 0.0000e+00
      0.250     -0.014     6.4057     80.096     42.630  44.159443     4.1889      7.069   167.9977 8.0748e+02    11.5740      0.245      0.356    26.7904 0.0000e+00
      0.255     -0.005     6.4066     80.077     42.637  44.165668     4.1622      7.072   167.9824 7.8862e+02    11.6026      0.253      0.367    26.7930 0.0000e+00
      0.255      0.000     6.4079     80.065     42.667  44.196599     4.0916      7.074   167.9922 8.0192e+02    11.5551      0.252      0.365    26.7925 0.0000e+00
      0.250      0.003     6.4057     80.084     42.686  44.216050     4.0428      7.076   168.0304 8.2950e+02    11.4785      0.244      0.354    26.7900 0.0000e+00
      0.247      0.003     6.4060     80.098     42.681  44.210422     4.0129      7.079   168.0142 7.7201e+02    11.4620      0.240      0.349    26.7880 0.0000e+00
      0.248      0.004     6.4048     80.088     42.664  44.192032     3.9547      7.081   167.9682 6.8875e+02    11.4915      0.243      0.352    26.7870 0.0000e+00
      0.253      0.007     6.4012     80.072     42.657  44.184122     3.8890      7.083   167.9906 6.8288e+02    11.5290      0.248      0.360    26.7862 0.0000e+00
      0.259      0.009     6.4060     80.047     42.652  44.178248     3.8677      7.085   168.0265 7.1395e+02    11.5737      0.255      0.370    26.7850 0.0000e+00
      0.262      0.009     6.4071     80.032     42.658  44.184492     3.8634      7.088   168.0580 7.3613e+02    11.5532      0.258      0.374    26.7844 0.0000e+00
      0.262      0.008     6.4053     80.046     42.670  44.196136     3.8616      7.091   168.0283 7.4419e+02    11.5549      0.256      0.372    26.7840 0.0000e+00
      0.263      0.007     6.4050     80.059     42.666  44.192087     3.8794      7.094   167.9250 7.5029e+02    11.6626      0.257      0.373    26.7838 0.0000e+00
      0.264      0.007     6.4019     80.055     42.672  44.199017     3.8955      7.095   167.9282 7.5176e+02    11.7274      0.259      0.376    26.7837 0.0000e+00
      0.266      0.008     6.3998     80.056     42.689  44.216446     3.9065      7.097   168.0671 7.4510e+02    11.7584      0.260      0.378    26.7829 0.0000e+00
      0.267      0.009     6.4024     80.067     42.685  44.212398     3.8787      7.099   168.1408 7.3266e+02    11.7290      0.261      0.379    26.7825 0.0000e+00
      0.270      0.009     6.4045     80.082     42.686  44.213543     3.8087      7.100   168.1316 7.2632e+02    11.6110      0.265      0.384    26.7824 0.0000e+00
      0.275      0.008     6.4025     80.121     42.702  44.230286     3.7764      7.101   168.1278 7.1732e+02    11.5282      0.270      0.392    26.7822 0.0000e+00
      0.279      0.006     6.4027     80.182     42.697  44.224417     3.7886      7.103   168.1806 6.8519e+02    11.5136      0.273      0.397    26.7825 0.0000e+00
      0.280      0.005     6.4042     80.232     42.679  44.206062     3.7979      7.105   168.2537 6.6454e+02    11.5370      0.274      0.398    26.7828 0.0000e+00
      0.279      0.000     6.4043     80.248     42.669  44.198778     3.8051      7.105   168.1510 6.8000e+02    11.5031      0.273      0.397    26.7830 0.0000e+00
      0.278     -0.010     6.4072     80.212     42.666  44.199828     3.8186      7.105   167.8857 6.9712e+02    11.4455      0.271      0.395    26.7831 0.0000e+00
      0.278     -0.028     6.4138     80.142     42.681  44.218754     3.8276      7.105   167.5407 7.0578e+02    11.4560      0.272      0.394    26.7828 0.0000e+00
      0.278     -0.053     6.4179     80.107     42.693  44.237204     3.8396      7.104   167.3359 7.2323e+02    11.4929      0.276      0.400    26.7829 0.0000e+00
      0.269     -0.078     6.4196     80.127     42.682  44.232487     3.8378      7.104   167.4744 7.6197e+02    11.4809      0.272      0.395    26.7853 0.0000e+00
      0.243     -0.095     6.4168     80.186     42.667  44.225202     3.7896      7.103   167.6670 8.3555e+02    11.3794      0.245      0.356    26.7901 0.0000e+00
      0.200     -0.101     6.4066     80.260     42.647  44.212621     3.7396      7.102   167.6855 9.2040e+02    11.2908      0.199      0.288    26.7944 0.0000e+00
      0.154     -0.095     6.4035     80.299     42.636  44.207323     3.7323      7.102   167.6116 9.1741e+02    11.2634      0.145      0.211    26.8004 0.0000e+00
      0.123     -0.079     6.4051     80.304     42.650  44.224630     3.8425      7.103   167.5478 7.5338e+02    11.3220      0.110      0.160    26.8088 0.0000e+00
      0.113     -0.056     6.4078     80.296     42.657  44.231455     4.0475      7.104   167.4303 5.8634e+02    11.4861      0.107      0.155    26.8184 0.0000e+00
      0.114     -0.036     6.4161     80.277     42.652  44.226365     4.1474      7.105   167.2236 6.2709e+02    11.5406      0.113      0.164    26.8300 0.0000e+00
      0.117     -0.030     6.4171     80.263     42.649  44.226574     4.1358      7.106   167.0267 7.6198e+02    11.4680      0.115      0.167    26.8383 0.0000e+00
      0.118     -0.042     6.4163     80.263     42.651  44.233979     4.0732      7.106   166.7706 8.1379e+02    11.4280      0.116      0.168    26.8392 0.0000e+00
      0.113     -0.067     6.4165     80.264     42.661  44.252441     3.9737      7.106   166.4505 8.2724e+02    11.3982      0.115      0.167    26.8384 0.0000e+00
      0.095     -0.098     6.4139     80.276     42.657  44.259388     3.9313      7.106   166.1675 7.9985e+02    11.3810      0.101      0.146    26.8386 0.0000e+00
      0.060     -0.126     6.4122     80.325     42.641  44.254515     3.9181      7.108   165.7581 7.7755e+02    11.3573      0.062      0.089    26.8413 0.0000e+00
      0.014     -0.146     6.4123     80.399     42.630  44.257011     3.8063      7.109   165.2003 8.6870e+02    11.3504      0.014      0.020    26.8482 0.0000e+00
     -0.034     -0.151     6.4112     80.505     42.642  44.289596     3.6359      7.109   164.8436 1.0602e+03    11.4343     -0.033     -0.048    26.8583 0.0000e+00
     -0.082     -0.136     6.4085     80.690     42.662  44.331147     3.5639      7.108   164.8006 1.2940e+03    11.5175     -0.081     -0.118    26.8721 0.0000e+00
     -0.124     -0.105     6.4127     80.990     42.630  44.315105     3.5685      7.107   164.8523 1.5148e+03    11.5714     -0.126     -0.183    26.8839 0.0000e+00
     -0.154     -0.068     6.4165     81.379     42.592  44.286094     3.5503      7.107   164.7808 1.7105e+03    11.5738     -0.160     -0.232    26.8983 0.0000e+00
     -0.162     -0.033     6.4202     81.756     42.602  44.297759     3.4599      7.107   164.5389 1.8103e+03    11.5803     -0.166     -0.241    26.9271 0.0000e+00
     -0.152     -0.003     6.4306     82.024     42.636  44.329204     3.3250      7.108   164.3369 1.8375e+03    11.6841     -0.149     -0.215    26.9524 0.0000e+00
     -0.137      0.015     6.4528     82.143     42.656  44.348907     3.2585      7.110   164.3169 1.8698e+03    11.7698     -0.133     -0.193    26.9706 0.0000e+00
     -0.127      0.021     6.4856     82.128     42.647  44.345556     3.2632      7.113   164.2964 1.8769e+03    11.8303     -0.123     -0.179    26.9880 0.0000e+00
     -0.120      0.016     6.5185     82.029     42.645  44.352171     3.2990      7.116   164.1749 1.8628e+03    11.8348     -0.117     -0.168    26.9865 0.0000e+00
     -0.118      0.006     6.5426     81.943     42.651  44.365437     3.3495      7.120   164.0538 1.8480e+03    11.7565     -0.114     -0.165    26.9760 0.0000e+00
     -0.121     -0.001     6.5507     81.921     42.659  44.379017     3.3759      7.123   163.9501 1.8358e+03    11.7385     -0.118     -0.172    26.9758 0.0000e+00
     -0.126     -0.004     6.5483     81.937     42.664  44.389414     3.3766      7.125   163.8669 1.8256e+03    11.7872     -0.126     -0.182    26.9846 0.0000e+00
     -0.131     -0.005     6.5353     81.997     42.636  44.364199     3.3916      7.128   163.7360 1.8143e+03    11.7648     -0.129     -0.187    26.9954 0.0000e+00
     -0.131     -0.003     6.5252     82.113     42.601  44.328050     3.4239      7.130   163.5727 1.7983e+03    11.6373     -0.130     -0.188    27.0027 0.0000e+00
     -0.129      0.000     6.5255     82.276     42.606  44.333191     3.4423      7.133   163.5267 1.7847e+03    11.5447     -0.126     -0.183    27.0101 0.0000e+00
     -0.127      0.002     6.5245     82.443     42.635  44.362885     3.4477      7.137   163.5241 1.7810e+03    11.5336     -0.124     -0.180    27.0174 0.0000e+00
     -0.127      0.004     6.5288     82.546     42.641  44.369704     3.4552      7.140   163.4561 1.7819e+03    11.6394     -0.125     -0.181    27.0202 0.0000e+00
     -0.127      0.004     6.5383     82.549     42.623  44.352170     3.4840      7.142   163.3056 1.7849e+03    11.8673     -0.125     -0.181    27.0203 0.0000e+00
     -0.126      0.004     6.5520     82.474     42.610  44.341315     3.5120      7.144   163.2534 1.7898e+03    11.9660     -0.124     -0.180    27.0203 0.0000e+00
     -0.125      0.004     6.5682     82.380     42.630  44.365403     3.5192      7.147   163.3418 1.7919e+03    11.9459     -0.122     -0.177    27.0200 0.0000e+00
     -0.123      0.005     6.5772     82.312     42.649  44.389519     3.5292      7.149   163.3411 1.7921e+03    11.9310     -0.121     -0.175    27.0202 0.0000e+00
     -0.122      0.008     6.5769     82.293     42.637  44.379013     3.5421      7.151   163.2450 1.7959e+03    11.8535     -0.120     -0.173    27.0214 0.0000e+00
     -0.121      0.012     6.5680     82.323     42.622  44.365320     3.5585      7.154   163.1268 1.8017e+03    11.7953     -0.118     -0.172    27.0240 0.0000e+00
     -0.120      0.018     6.5590     82.380     42.610  44.350909     3.5851      7.154   163.2027 1.8019e+03    11.8413     -0.118     -0.171    27.0294 0.0000e+00
     -0.116      0.025     6.5522     82.433     42.597  44.331721     3.6566      7.153   163.4744 1.7967e+03    11.8980     -0.115     -0.167    27.0340 0.0000e+00
     -0.108      0.035     6.5505     82.447     42.602  44.323740     3.7561      7.152   163.6589 1.7889e+03    11.8312     -0.107     -0.155    27.0375 0.0000e+00
     -0.097      0.046     6.5535     82.406     42.610  44.317860     3.7981      7.151   163.7975 1.7408e+03    11.7169     -0.096     -0.139    27.0395 0.0000e+00
     -0.085      0.057     6.5588     82.301     42.620  44.324083     3.8070      7.148   164.1184 1.6439e+03    11.7124     -0.084     -0.121    27.0378 0.0000e+00
     -0.069      0.066     6.5652     82.154     42.628  44.335500     3.8217      7.145   164.6141 1.5342e+03    11.7768     -0.070     -0.101    27.0337 0.0000e+00
     -0.049      0.074     6.5679     81.994     42.622  44.328951     3.8178      7.142   165.0585 1.3921e+03    11.8465     -0.049     -0.071    27.0161 0.0000e+00
     -0.026      0.080     6.5684     81.831     42.615  44.308384     3.8018      7.139   165.3614 1.1423e+03    11.8717     -0.024     -0.035    26.9934 0.0000e+00
     -0.005      0.085     6.5596     81.664     42.610  44.277223     3.7947      7.135   165.6087 8.0634e+02    11.8081     -0.004     -0.006    26.9889 0.0000e+00
      0.016      0.089     6.5456     81.480     42.629  44.269518     3.8057      7.131   165.8981 6.8625e+02    11.7603      0.015      0.022    26.9973 0.0000e+00
      0.037      0.091     6.5324     81.265     42.661  44.278649     3.8526      7.127   166.1072 7.9554e+02    11.7726      0.036      0.053    27.0025 0.0000e+00
      0.061      0.091     6.5210     80.979     42.663  44.260639     3.9126      7.126   166.1577 7.5417e+02    11.7852      0.059      0.085    26.9865 0.0000e+00
      0.087      0.088     6.5130     80.628     42.659  44.242163     3.9317      7.124   166.1657 5.9952e+02    11.7769      0.084      0.121    26.9487 0.0000e+00
      0.113      0.082     6.5020     80.306     42.669  44.245658     3.9169      7.123   166.2030 5.7539e+02    11.7399      0.112      0.161    26.9145 0.0000e+00
      0.138      0.072     6.4893     80.067     42.661  44.239414     3.9503      7.124   166.2642 6.2909e+02    11.6797      0.139      0.202    26.8889 0.0000e+00
      0.154      0.057     6.4706     79.898     42.648  44.230153     4.0518      7.126   166.3902 6.4013e+02    11.6294      0.153      0.223    26.8650 0.0000e+00
      0.165      0.040     6.4400     79.812     42.674  44.260629     4.1123      7.126   166.6935 6.4272e+02    11.6101      0.161      0.234    26.8445 0.0000e+00
      0.174      0.026     6.4137     79.802     42.699  44.290525     4.1002      7.127   167.0064 6.6933e+02    11.5832      0.173      0.252    26.8378 0.0000e+00
      0.177      0.016     6.3960     79.858     42.682  44.274258     4.0126      7.128   167.1620 6.6469e+02    11.5434      0.176      0.256    26.8437 0.0000e+00
      0.173      0.012     6.3798     79.967     42.665  44.254374     3.8775      7.129   167.2844 6.2018e+02    11.5384      0.168      0.244    26.8493 0.0000e+00
      0.171      0.013     6.3737     80.097     42.658  44.240536     3.8150      7.129   167.4535 5.8484e+02    11.5570      0.166      0.240    26.8522 0.0000e+00
      0.174      0.018     6.3723     80.197     42.660  44.233878     3.8067      7.130   167.5723 5.7590e+02    11.5640      0.169      0.246    26.8566 0.0000e+00
      0.179      0.025     6.3767     80.245     42.675  44.237338     3.7765      7.130   167.6019 5.7528e+02    11.5883      0.174      0.252    26.8617 0.0000e+00
      0.189      0.032     6.3864     80.284     42.667  44.218877     3.7333      7.131   167.6404 5.7164e+02    11.6126      0.185      0.268    26.8579 0.0000e+00
      0.202      0.037     6.3993     80.297     42.659  44.201075     3.7090      7.132   167.6931 5.4834e+02    11.6522      0.201      0.291    26.8495 0.0000e+00
      0.212      0.040     6.4107     80.241     42.680  44.212513     3.7156      7.133   167.7226 5.1349e+02    11.7596      0.209      0.303    26.8392 0.0000e+00
      0.221      0.041     6.4125     80.144     42.709  44.230195     3.7295      7.133   167.8252 5.1161e+02    11.8174      0.215      0.311    26.8232 0.0000e+00
      0.231      0.040     6.4186     80.059     42.711  44.224426     3.7190      7.135   168.0729 5.4595e+02    11.7706      0.227      0.329    26.8111 0.0000e+00
      0.243      0.039     6.4229     80.033     42.696  44.206221     3.6886      7.138   168.3082 5.7300e+02    11.7069      0.240      0.347    26.8031 0.0000e+00
      0.253      0.038     6.4183     80.075     42.687  44.200497     3.6701      7.139   168.5192 5.7519e+02    11.6954      0.249      0.361    26.7891 0.0000e+00
      0.263      0.035     6.4110     80.142     42.699  44.218705     3.6617      7.140   168.8174 5.7475e+02    11.7001      0.258      0.375    26.7724 0.0000e+00
      0.272      0.030     6.4038     80.202     42.711  44.235955     3.6211      7.141   169.0744 5.7287e+02    11.6619      0.267      0.387    26.7621 0.0000e+00
      0.281      0.024     6.4014     80.269     42.691  44.218652     3.5535      7.140   169.2181 5.6714e+02    11.6084      0.276      0.400    26.7600 0.0000e+00
      0.287      0.019     6.4061     80.340     42.672  44.199922     3.5098      7.140   169.2636 5.6988e+02    11.5320      0.283      0.411    26.7656 0.0000e+00
      0.291      0.014     6.4118     80.393     42.672  44.199922     3.4920      7.141   169.2814 5.6411e+02    11.4560      0.286      0.416    26.7746 0.0000e+00
      0.291      0.011     6.4143     80.394     42.690  44.218651     3.4882      7.143   169.4327 5.4203e+02    11.5090      0.287      0.415    26.7805 0.0000e+00
      0.290      0.013     6.4199     80.339     42.705  44.235949     3.4968      7.144   169.8882 5.2195e+02    11.6943      0.284      0.410    26.7841 0.0000e+00
      0.291      0.020     6.4260     80.286     42.689  44.218642     3.5046      7.143   170.5722 5.0791e+02    11.8176      0.283      0.411    26.7845 0.0000e+00
      0.295      0.032     6.4313     80.286     42.674  44.199809     3.4994      7.141   170.9925 4.9072e+02    11.8042      0.289      0.419    26.7829 0.0000e+00
      0.302      0.043     6.4325     80.329     42.678  44.198665     3.4341      7.140   171.0990 4.7877e+02    11.8052      0.295      0.426    26.7841 0.0000e+00
      0.317      0.049     6.4249     80.373     42.689  44.204805     3.3149      7.140   171.2569 4.7109e+02    11.8980      0.306      0.444    26.7860 0.0000e+00
      0.339      0.049     6.4191     80.368     42.699  44.210561     3.2567      7.140   171.3524 4.6717e+02    12.0039      0.333      0.484    26.7861 0.0000e+00
      0.359      0.041     6.4202     80.320     42.695  44.204785     3.2708      7.140   171.3074 4.7668e+02    12.0950      0.356      0.517    26.7828 0.0000e+00
      0.372      0.027     6.4255     80.275     42.688  44.198437     3.2854      7.141   171.4874 4.9286e+02    12.0086      0.369      0.533    26.7757 0.0000e+00
      0.377      0.012     6.4319     80.249     42.683  44.197281     3.3001      7.141   171.8930 5.2190e+02    11.7113      0.374      0.541    26.7683 0.0000e+00
      0.372      0.001     6.4322     80.233     42.673  44.190820     3.3156      7.141   172.2546 5.3114e+02    11.5071      0.368      0.534    26.7631 0.0000e+00
      0.361     -0.004     6.4258     80.218     42.667  44.183798     3.3312      7.140   172.5037 4.9371e+02    11.4866      0.354      0.513    26.7606 0.0000e+00
      0.352     -0.002     6.4228     80.196     42.666  44.175848     3.3471      7.140   172.6687 4.5466e+02    11.5320      0.340      0.493    26.7607 0.0000e+00
      0.352      0.002     6.4198     80.170     42.656  44.158170     3.3583      7.140   172.7863 4.4096e+02    11.5770      0.342      0.496    26.7678 0.0000e+00
      0.362      0.006     6.4179     80.122     42.663  44.160460     3.3749      7.140   172.8071 4.3972e+02    11.6549      0.355      0.515    26.7764 0.0000e+00
      0.372      0.008     6.4175     80.030     42.705  44.203528     3.3810      7.140   172.9210 4.3780e+02    11.7228      0.368      0.534    26.7737 0.0000e+00
      0.377      0.009     6.4161     79.925     42.731  44.234578     3.3822      7.141   173.1305 4.3587e+02    11.7483      0.373      0.541    26.7635 0.0000e+00
      0.372      0.009     6.4160     79.855     42.710  44.218509     3.3973      7.142   173.2746 4.3536e+02    11.7938      0.366      0.531    26.7528 0.0000e+00
      0.366      0.010     6.4145     79.820     42.689  44.199684     3.3975      7.143   173.4586 4.5181e+02    11.7933      0.356      0.518    26.7459 0.0000e+00
      0.366      0.015     6.4058     79.830     42.688  44.197396     3.3775      7.144   173.6353 4.8962e+02    11.7079      0.356      0.517    26.7461 0.0000e+00
      0.372      0.023     6.3941     79.888     42.687  44.190843     3.3711      7.144   173.7753 5.1566e+02    11.6499      0.365      0.529    26.7519 0.0000e+00
      0.382      0.032     6.3893     79.946     42.689  44.183906     3.4039      7.144   174.0331 5.3106e+02    11.7067      0.373      0.542    26.7594 0.0000e+00
      0.395      0.038     6.3850     79.956     42.689  44.176976     3.4655      7.145   174.3433 5.4885e+02    11.8146      0.387      0.561    26.7644 0.0000e+00
      0.409      0.040     6.3851     79.908     42.685  44.170524     3.4995      7.146   174.5138 5.5195e+02    11.8614      0.402      0.583    26.7641 0.0000e+00
      0.419      0.039     6.3930     79.818     42.684  44.169371     3.4985      7.146   174.6325 5.4343e+02    11.8281      0.412      0.597    26.7553 0.0000e+00
      0.427      0.035     6.4006     79.731     42.677  44.163031     3.5040      7.146   174.7464 5.3665e+02    11.7541      0.419      0.607    26.7427 0.0000e+00
      0.434      0.030     6.4024     79.696     42.672  44.157350     3.5240      7.146   174.8587 5.3209e+02    11.7177      0.426      0.618    26.7342 0.0000e+00
      0.442      0.025     6.3983     79.711     42.679  44.164156     3.5485      7.148   174.9573 5.3072e+02    11.7646      0.433      0.628    26.7322 0.0000e+00
      0.449      0.021     6.3898     79.722     42.695  44.181845     3.5676      7.150   174.9919 5.3594e+02    11.8079      0.441      0.639    26.7336 0.0000e+00
      0.455      0.017     6.3807     79.710     42.694  44.180805     3.5389      7.151   174.9339 5.3661e+02    11.7627      0.447      0.649    26.7351 0.0000e+00
      0.458      0.014     6.3777     79.694     42.666  44.151576     3.4681      7.153   174.7713 5.2561e+02    11.6960      0.450      0.652    26.7347 0.0000e+00
      0.459      0.011     6.3818     79.682     42.660  44.145811     3.4348      7.156   174.7470 5.1620e+02    11.7190      0.450      0.653    26.7335 0.0000e+00
      0.460      0.009     6.3830     79.697     42.688  44.174582     3.4438      7.158   174.8982 5.1083e+02    11.8025      0.451      0.655    26.7340 0.0000e+00
      0.463      0.009     6.3806     79.737     42.696  44.182064     3.4528      7.159   174.9643 5.0312e+02    11.8175      0.454      0.658    26.7347 0.0000e+00
      0.465      0.010     6.3801     79.755     42.688  44.172803     3.4862      7.162   174.9450 4.9384e+02    11.7630      0.456      0.661    26.7348 0.0000e+00
      0.467      0.013     6.3776     79.722     42.706  44.189555     3.5562      7.164   175.0089 4.8684e+02    11.7249      0.458      0.665    26.7353 0.0000e+00
      0.470      0.015     6.3785     79.664     42.711  44.194191     3.5991      7.164   175.1348 4.8201e+02    11.6976      0.461      0.668    26.7348 0.0000e+00
      0.474      0.017     6.3842     79.624     42.685  44.165374     3.6139      7.165   175.1759 4.7738e+02    11.7065      0.465      0.674    26.7336 0.0000e+00
      0.480      0.017     6.3865     79.606     42.680  44.158506     3.6359      7.168   175.1616 4.7413e+02    11.7307      0.471      0.683    26.7326 0.0000e+00
      0.487      0.017     6.3832     79.590     42.696  44.174625     3.6487      7.170   175.2208 4.7260e+02    11.7503      0.478      0.693    26.7314 0.0000e+00
      0.492      0.016     6.3768     79.581     42.692  44.169835     3.6356      7.171   175.3749 4.7333e+02    11.7732      0.482      0.701    26.7294 0.0000e+00
      0.495      0.014     6.3741     79.569     42.687  44.164064     3.6011      7.173   175.5624 4.7682e+02    11.7342      0.485      0.704    26.7274 0.0000e+00
      0.496      0.013     6.3739     79.519     42.691  44.168320     3.5740      7.174   175.5946 4.7703e+02    11.7222      0.487      0.706    26.7259 0.0000e+00
      0.499      0.013     6.3722     79.444     42.680  44.157830     3.5655      7.175   175.5056 4.7363e+02    11.7646      0.489      0.711    26.7249 0.0000e+00
      0.502      0.014     6.3713     79.388     42.685  44.164178     3.5654      7.176   175.5193 4.7366e+02    11.8030      0.492      0.714    26.7233 0.0000e+00
      0.506      0.016     6.3730     79.350     42.701  44.181598     3.5646      7.176   175.5887 4.7150e+02    11.8106      0.496      0.719    26.7218 0.0000e+00
      0.511      0.017     6.3681     79.314     42.697  44.178036     3.5803      7.177   175.6564 4.6362e+02    11.6858      0.501      0.726    26.7229 0.0000e+00
      0.516      0.019     6.3593     79.273     42.703  44.184584     3.6306      7.180   175.7353 4.5652e+02    11.5581      0.506      0.733    26.7254 0.0000e+00
      0.521      0.020     6.3557     79.222     42.716  44.197287     3.6815      7.181   175.7683 4.4952e+02    11.5642      0.512      0.742    26.7270 0.0000e+00
      0.526      0.022     6.3529     79.166     42.723  44.204684     3.7044      7.181   175.7968 4.4247e+02    11.5896      0.516      0.748    26.7280 0.0000e+00
      0.531      0.022     6.3499     79.123     42.729  44.210546     3.7001      7.182   175.9083 4.4105e+02    11.5578      0.520      0.754    26.7283 0.0000e+00
      0.537      0.022     6.3471     79.104     42.724  44.204685     3.6787      7.182   175.9978 4.4180e+02    11.4866      0.526      0.763    26.7283 0.0000e+00
      0.544      0.022     6.3429     79.084     42.717  44.197288     3.6624      7.183   176.0196 4.3726e+02    11.4802      0.534      0.774    26.7279 0.0000e+00
      0.550      0.022     6.3378     79.038     42.705  44.184583     3.6696      7.183   176.0851 4.3226e+02    11.5492      0.541      0.783    26.7275 0.0000e+00
      0.555      0.022     6.3339     79.018     42.698  44.178028     3.6660      7.184   176.1869 4.3200e+02    11.6372      0.544      0.789    26.7269 0.0000e+00
      0.560      0.021     6.3328     79.072     42.701  44.181494     3.6177      7.184   176.3043 4.3200e+02    11.7254      0.550      0.797    26.7260 0.0000e+00
      0.566      0.021     6.3338     79.155     42.683  44.163024     3.5776      7.185   176.3865 4.2610e+02    11.7610      0.555      0.805    26.7262 0.0000e+00
      0.571      0.022     6.3271     79.224     42.667  44.145126     3.5725      7.186   176.4055 4.1884e+02    11.7944      0.560      0.813    26.7269 0.0000e+00
      0.576      0.023     6.3232     79.294     42.677  44.155520     3.5729      7.186   176.4492 4.1448e+02    11.8559      0.565      0.820    26.7271 0.0000e+00
      0.581      0.026     6.3303     79.380     42.684  44.161754     3.5323      7.186   176.5705 4.1090e+02    11.8899      0.569      0.826    26.7272 0.0000e+00
      0.587      0.029     6.3383     79.452     42.680  44.157020     3.4477      7.185   176.7531 4.0807e+02    11.8298      0.575      0.834    26.7270 0.0000e+00
      0.595      0.032     6.3430     79.494     42.685  44.161756     3.3909      7.185   176.9364 4.0360e+02    11.7106      0.583      0.846    26.7262 0.0000e+00
      0.605      0.033     6.3475     79.519     42.680  44.155532     3.3690      7.185   176.9803 3.9707e+02    11.7125      0.593      0.860    26.7258 0.0000e+00
      0.616      0.033     6.3562     79.545     42.671  44.145241     3.3659      7.184   176.9403 3.8984e+02    11.8177      0.603      0.875    26.7252 0.0000e+00
      0.626      0.032     6.3626     79.583     42.690  44.164283     3.3874      7.184   177.1408 3.8456e+02    11.8560      0.614      0.892    26.7242 0.0000e+00
      0.634      0.028     6.3651     79.618     42.720  44.195343     3.4035      7.185   177.4247 3.8210e+02    11.7990      0.622      0.904    26.7231 0.0000e+00
      0.640      0.023     6.3673     79.628     42.727  44.203407     3.3954      7.186   177.4473 3.7991e+02    11.7091      0.628      0.911    26.7217 0.0000e+00
      0.645      0.018     6.3686     79.628     42.722  44.198308     3.3809      7.186   177.3287 3.7803e+02    11.6913      0.632      0.917    26.7210 0.0000e+00
      0.649      0.014     6.3721     79.637     42.721  44.197163     3.3854      7.187   177.1957 3.7808e+02    11.7888      0.636      0.923    26.7208 0.0000e+00
      0.651      0.012     6.3766     79.662     42.715  44.189568     3.3996      7.187   177.1288 3.7896e+02    11.8639      0.640      0.927    26.7211 0.0000e+00
      0.652      0.014     6.3759     79.678     42.696  44.169945     3.4113      7.188   177.2088 3.7866e+02    11.8478      0.641      0.929    26.7213 0.0000e+00
      0.653      0.017     6.3759     79.659     42.677  44.150330     3.4277      7.188   177.3024 3.7534e+02    11.7995      0.639      0.927    26.7212 0.0000e+00
      0.656      0.022     6.3757     79.626     42.670  44.142829     3.4394      7.188   177.4006 3.6818e+02    11.7572      0.642      0.932    26.7207 0.0000e+00
      0.664      0.027     6.3787     79.577     42.671  44.142725     3.4453      7.188   177.6215 3.6026e+02    11.7804      0.651      0.945    26.7200 0.0000e+00
      0.674      0.031     6.3820     79.518     42.679  44.149072     3.4570      7.189   177.8225 3.5186e+02    11.8419      0.660      0.959    26.7201 0.0000e+00
      0.684      0.034     6.3780     79.471     42.688  44.156091     3.4810      7.190   177.9375 3.4406e+02    11.8507      0.671      0.974    26.7205 0.0000e+00
      0.694      0.034     6.3765     79.422     42.698  44.164107     3.5021      7.190   178.0653 3.3847e+02    11.7845      0.681      0.987    26.7198 0.0000e+00
      0.703      0.033     6.3729     79.357     42.717  44.182516     3.4964      7.190   178.0772 3.3457e+02    11.6912      0.689      1.000    26.7181 0.0000e+00
      0.711      0.031     6.3668     79.290     42.724  44.188249     3.4865      7.191   177.9948 3.3306e+02    11.6451      0.698      1.013    26.7163 0.0000e+00
      0.718      0.029     6.3642     79.242     42.707  44.169939     3.4906      7.191   178.0153 3.3122e+02    11.6705      0.705      1.023    26.7133 0.0000e+00
      0.725      0.027     6.3614     79.219     42.690  44.151569     3.5130      7.192   177.9819 3.2756e+02    11.7585      0.711      1.031    26.7105 0.0000e+00
      0.731      0.025     6.3557     79.208     42.695  44.156563     3.5486      7.194   177.8486 3.2533e+02    11.7875      0.717      1.040    26.7087 0.0000e+00
      0.738      0.025     6.3497     79.178     42.706  44.166837     3.5554      7.194   177.8667 3.2599e+02    11.7139      0.723      1.049    26.7072 0.0000e+00
      0.744      0.026     6.3459     79.128     42.691  44.148834     3.5453      7.195   177.9431 3.2591e+02    11.6879      0.729      1.057    26.7065 0.0000e+00
      0.750      0.027     6.3443     79.084     42.674  44.129324     3.5838      7.196   177.9111 3.2269e+02    11.6781      0.735      1.066    26.7061 0.0000e+00
      0.756      0.027     6.3450     79.067     42.668  44.121365     3.6555      7.197   177.9110 3.1946e+02    11.5951      0.741      1.075    26.7052 0.0000e+00
      0.764      0.026     6.3425     79.033     42.665  44.116069     3.6790      7.197   178.0272 3.1638e+02    11.5051      0.748      1.085    26.7033 0.0000e+00
      0.774      0.024     6.3383     78.983     42.680  44.128757     3.6600      7.198   178.1980 3.1128e+02    11.4440      0.760      1.101    26.7010 0.0000e+00
      0.780      0.021     6.3328     78.928     42.701  44.147818     3.6515      7.198   178.3415 3.0952e+02    11.3344      0.767      1.112    26.6993 0.0000e+00
      0.783      0.017     6.3350     78.798     42.713  44.156113     3.6585      7.198   178.3853 3.1163e+02    11.2054      0.768      1.114    26.6968 0.0000e+00
      0.786      0.013     6.3325     78.580     42.726  44.165573     3.6704      7.197   178.3823 3.1121e+02    11.1817      0.770      1.118    26.6940 0.0000e+00
      0.788      0.010     6.3255     78.312     42.761  44.198714     3.6705      7.197   178.3926 3.0950e+02    11.1497      0.773      1.122    26.6915 0.0000e+00
      0.790      0.010     6.3276     78.004     42.806  44.239441     3.6594      7.198   178.4234 3.1084e+02    11.0581      0.775      1.124    26.6882 0.0000e+00
      0.792      0.015     6.3160     77.660     42.852  44.277142     3.6612      7.198   178.5832 3.1231e+02    11.0310      0.776      1.126    26.6836 0.0000e+00
      0.793      0.024     6.2979     77.295     42.926  44.337157     3.6753      7.198   178.7762 3.0960e+02    11.0606      0.777      1.127    26.6785 0.0000e+00
      0.796      0.034     6.2767     76.837     43.002  44.393770     3.6878      7.196   178.8633 3.0563e+02    11.1083      0.779      1.130    26.6751 0.0000e+00
      0.806      0.043     6.2529     76.093     43.026  44.390332     3.7298      7.196   178.9474 2.9967e+02    11.0958      0.788      1.142    26.6712 0.0000e+00
      0.822      0.049     6.2256     74.887     43.021  44.359013     3.8003      7.195   179.0198 2.8979e+02    11.0118      0.804      1.166    26.6574 0.0000e+00
      0.842      0.054     6.1988     73.107     43.074  44.395915     3.8325      7.194   179.1354 2.8160e+02    10.9817      0.826      1.198    26.6402 0.0000e+00
      0.860      0.058     6.1733     70.913     43.142  44.455633     3.8365      7.193   179.3125 2.7840e+02    11.0383      0.847      1.228    26.6164 0.0000e+00
      0.871      0.060     6.1210     68.773     43.141  44.446288     3.8568      7.192   179.4412 2.7639e+02    11.1159      0.856      1.241    26.5770 0.0000e+00
      0.880      0.060     6.0332     66.986     43.112  44.409861     3.9452      7.191   179.5729 2.7270e+02    11.2710      0.861      1.249    26.5429 0.0000e+00
      0.895      0.058     5.8902     65.570     43.102  44.396043     4.0902      7.191   179.6994 2.6832e+02    11.5134      0.875      1.269    26.5260 0.0000e+00
      0.915      0.056     5.6947     64.515     43.114  44.406154     4.1689      7.191   179.8531 2.6044e+02    11.6545      0.897      1.301    26.5162 0.0000e+00
      0.935      0.054     5.5158     63.847     43.114  44.405163     4.1812      7.191   179.9690 2.5200e+02    11.7471      0.919      1.334    26.5061 0.0000e+00
      0.949      0.050     5.3756     63.589     43.094  44.384058     4.1557      7.191   180.0672 2.4988e+02    11.8138      0.933      1.353    26.4982 0.0000e+00
      0.957      0.042     5.2617     63.657     43.113  44.404869     4.0767      7.192   180.4384 2.4755e+02    11.7097      0.939      1.362    26.4939 0.0000e+00
      0.965      0.032     5.1768     63.897     43.170  44.466366     4.0090      7.192   180.9295 2.4182e+02    11.5474      0.946      1.372    26.4914 0.0000e+00
      0.974      0.023     5.1211     64.218     43.193  44.492864     3.9863      7.192   181.2728 2.4014e+02    11.4571      0.956      1.386    26.4902 0.0000e+00
      0.981      0.018     5.1030     64.596     43.168  44.471345     3.9847      7.193   181.5784 2.4178e+02    11.3686      0.964      1.398    26.4898 0.0000e+00
      0.982      0.017     5.1144     64.995     43.155  44.460093     3.9898      7.193   181.8704 2.4183e+02    11.2288      0.963      1.398    26.4915 0.0000e+00
      0.982      0.017     5.1356     65.406     43.178  44.483777     3.9814      7.193   182.0510 2.4089e+02    11.0992      0.961      1.394    26.4950 0.0000e+00
      0.984      0.016     5.1604     65.826     43.201  44.503811     3.9582      7.193   182.1276 2.3994e+02    10.9981      0.963      1.396    26.4984 0.0000e+00
      0.991      0.016     5.1925     66.196     43.212  44.511876     3.9582      7.194   182.1943 2.3727e+02    10.9621      0.970      1.408    26.5036 0.0000e+00
      0.999      0.015     5.2240     66.443     43.220  44.517811     3.9898      7.195   182.2547 2.3318e+02    11.0397      0.980      1.421    26.5078 0.0000e+00
      1.005      0.014     5.2564     66.556     43.215  44.512092     4.0248      7.195   182.2552 2.3129e+02    11.1166      0.987      1.431    26.5067 0.0000e+00
      1.007      0.011     5.2931     66.582     43.208  44.506197     4.0485      7.196   182.2876 2.3206e+02    11.0716      0.989      1.434    26.5021 0.0000e+00
      1.006      0.008     5.3254     66.526     43.213  44.510020     4.0760      7.197   182.3871 2.3372e+02    10.9751      0.987      1.431    26.4972 0.0000e+00
      1.006      0.004     5.3466     66.352     43.201  44.494842     4.1155      7.198   182.4264 2.3417e+02    10.9738      0.985      1.428    26.4936 0.0000e+00
      1.008     -0.001     5.3529     66.082     43.159  44.449622     4.1352      7.199   182.4184 2.3248e+02    11.0559      0.988      1.432    26.4935 0.0000e+00
      1.010     -0.007     5.3546     65.763     43.115  44.407600     4.1404      7.201   182.5483 2.3068e+02    11.1148      0.991      1.439    26.4964 0.0000e+00
      1.011     -0.013     5.3530     65.472     43.069  44.367616     4.1450      7.201   182.7922 2.3056e+02    11.1052      0.993      1.440    26.4963 0.0000e+00
      1.007     -0.018     5.3373     65.348     43.038  44.347048     4.0993      7.200   183.0450 2.3410e+02    11.0413      0.990      1.436    26.4911 0.0000e+00
      0.998     -0.020     5.3152     65.521     43.027  44.349355     4.0119      7.200   183.2818 2.4177e+02    10.9913      0.980      1.422    26.4872 0.0000e+00
      0.986     -0.019     5.2876     66.021     42.999  44.332060     3.9704      7.199   183.5042 2.5004e+02    11.0125      0.965      1.401    26.4904 0.0000e+00
      0.977     -0.015     5.2587     66.794     42.989  44.328381     3.9808      7.198   183.6690 2.5221e+02    11.0929      0.955      1.386    26.4987 0.0000e+00
      0.975     -0.008     5.2430     67.724     43.026  44.368351     4.0123      7.197   183.7250 2.4779e+02    11.1441      0.953      1.382    26.5131 0.0000e+00
      0.978     -0.000     5.2545     68.648     43.095  44.434490     4.0600      7.197   183.7518 2.4462e+02    11.1191      0.960      1.392    26.5327 0.0000e+00
      0.983      0.006     5.2952     69.369     43.161  44.493285     4.0830      7.197   183.8208 2.4331e+02    11.0643      0.965      1.399    26.5468 0.0000e+00
      0.985      0.011     5.3594     69.696     43.187  44.507949     4.0745      7.197   183.9568 2.4037e+02    11.0623      0.965      1.400    26.5537 0.0000e+00
      0.986      0.015     5.4392     69.561     43.175  44.484820     4.0488      7.197   184.1059 2.3738e+02    11.1623      0.967      1.402    26.5565 0.0000e+00
      0.989      0.018     5.5187     69.018     43.164  44.467522     4.0051      7.197   184.2465 2.3584e+02    11.2480      0.970      1.406    26.5504 0.0000e+00
      0.994      0.023     5.5851     68.200     43.186  44.489221     3.9794      7.196   184.4527 2.3522e+02    11.2446      0.974      1.413    26.5376 0.0000e+00
      1.000      0.027     5.6142     67.304     43.191  44.493273     3.9791      7.195   184.7057 2.3394e+02    11.2247      0.980      1.421    26.5237 0.0000e+00
      1.010      0.029     5.6028     66.503     43.154  44.453038     4.0099      7.195   184.8965 2.3079e+02    11.0757      0.989      1.435    26.5091 0.0000e+00
      1.020      0.029     5.5565     65.867     43.149  44.447065     4.0770      7.195   184.9529 2.2589e+02    10.8087      1.000      1.452    26.5010 0.0000e+00
      1.029      0.028     5.4845     65.427     43.185  44.484525     4.1078      7.195   184.9575 2.2223e+02    10.6615      1.010      1.465    26.5033 0.0000e+00
      1.035      0.025     5.4064     65.203     43.226  44.525106     4.0989      7.196   185.0375 2.2160e+02    10.5938      1.015      1.472    26.5033 0.0000e+00
      1.040      0.021     5.3417     65.164     43.260  44.556878     4.1369      7.196   185.1463 2.2058e+02    10.5364      1.020      1.479    26.4989 0.0000e+00
      1.044      0.019     5.2898     65.222     43.260  44.551284     4.2168      7.197   185.1552 2.1856e+02    10.5486      1.025      1.486    26.4978 0.0000e+00
      1.048      0.018     5.2533     65.253     43.237  44.520935     4.2663      7.198   185.1449 2.1751e+02    10.6046      1.028      1.492    26.4988 0.0000e+00
      1.050      0.017     5.2368     65.185     43.230  44.507306     4.2778      7.200   185.1935 2.1667e+02    10.5988      1.030      1.494    26.4980 0.0000e+00
      1.054      0.016     5.2356     64.936     43.238  44.513444     4.2642      7.201   185.2272 2.1488e+02    10.4787      1.033      1.498    26.4929 0.0000e+00
      1.061      0.013     5.2466     64.445     43.256  44.531671     4.2266      7.202   185.2939 2.1151e+02    10.3482      1.040      1.509    26.4864 0.0000e+00
      1.068      0.011     5.2500     63.830     43.260  44.537258     4.1976      7.203   185.3977 2.0848e+02    10.3182      1.049      1.521    26.4779 0.0000e+00
      1.071      0.010     5.2477     63.320     43.239  44.517521     4.1971      7.204   185.3634 2.0825e+02    10.3557      1.052      1.526    26.4698 0.0000e+00
      1.068      0.010     5.2322     63.051     43.205  44.483459     4.2113      7.206   185.2243 2.0903e+02    10.3575      1.047      1.519    26.4674 0.0000e+00
      1.066      0.010     5.1880     63.000     43.170  44.442805     4.2696      7.207   185.1777 2.0813e+02    10.2027      1.044      1.514    26.4677 0.0000e+00
      1.069      0.012     5.1305     63.015     43.149  44.406817     4.3700      7.207   185.2298 2.0575e+02     9.9529      1.047      1.519    26.4695 0.0000e+00
      1.075      0.017     5.0849     62.856     43.127  44.365687     4.4261      7.208   185.4241 2.0284e+02     9.8657      1.054      1.528    26.4724 0.0000e+00
      1.082      0.023     5.0642     62.297     43.107  44.326340     4.4479      7.208   185.7198 2.0155e+02     9.9000      1.062      1.541    26.4763 0.0000e+00
      1.087      0.028     5.0647     61.265     43.111  44.311895     4.5419      7.207   185.9661 2.0164e+02     9.7182      1.067      1.548    26.4720 0.0000e+00
      1.092      0.032     5.0746     59.774     43.133  44.317965     4.6985      7.206   185.9936 1.9821e+02     9.3412      1.071      1.551    26.4518 0.0000e+00
      1.101      0.035     5.0723     57.863     43.164  44.336223     4.7849      7.205   185.8798 1.9177e+02     9.1332      1.078      1.563    26.4293 0.0000e+00
      1.113      0.036     5.0301     55.697     43.180  44.342203     4.7947      7.205   185.9673 1.8667e+02     9.1157      1.092      1.583    26.4084 0.0000e+00
      1.126      0.036     4.9474     53.562     43.175  44.326771     4.8004      7.205   186.1907 1.8278e+02     9.0954      1.105      1.602    26.3864 0.0000e+00
      1.136      0.034     4.8299     51.692     43.192  44.340048     4.7962      7.205   186.3433 1.7902e+02     9.0596      1.115      1.618    26.3675 0.0000e+00
      1.144      0.030     4.6723     50.200     43.222  44.375782     4.7853      7.206   186.4362 1.7663e+02     9.0243      1.122      1.628    26.3506 0.0000e+00
      1.149      0.025     4.4894     49.190     43.216  44.377985     4.7772      7.207   186.5406 1.7573e+02     8.9425      1.127      1.634    26.3374 0.0000e+00
      1.155      0.020     4.3103     48.755     43.201  44.366695     4.7811      7.207   186.6582 1.7443e+02     8.8891      1.133      1.643    26.3259 0.0000e+00
      1.160      0.015     4.1595     48.954     43.203  44.366237     4.8070      7.207   186.7407 1.7290e+02     8.9596      1.140      1.652    26.3175 0.0000e+00
      1.165      0.011     4.0344     49.715     43.215  44.372440     4.8250      7.207   186.8489 1.7289e+02     9.0437      1.143      1.657    26.3271 0.0000e+00
      1.166      0.008     3.9495     50.709     43.229  44.378214     4.8239      7.208   187.0195 1.7357e+02     9.0513      1.143      1.658    26.3424 0.0000e+00
      1.166      0.004     3.9125     51.492     43.231  44.372559     4.7847      7.209   187.0834 1.7352e+02     9.0528      1.143      1.657    26.3446 0.0000e+00
      1.166      0.002     3.9282     51.772     43.233  44.367526     4.7256      7.210   187.1048 1.7337e+02     9.1299      1.143      1.658    26.3414 0.0000e+00
      1.166      0.001     4.0017     51.550     43.256  44.380831     4.7175      7.210   187.1923 1.7332e+02     9.2314      1.144      1.660    26.3348 0.0000e+00
      1.166      0.005     4.0964     50.978     43.294  44.406457     4.7359      7.210   187.2809 1.7313e+02     9.2554      1.144      1.659    26.3233 0.0000e+00
      1.165      0.013     4.1702     50.146     43.326  44.423441     4.7396      7.210   187.4879 1.7355e+02     9.1813      1.143      1.657    26.3138 0.0000e+00
      1.165      0.023     4.1918     49.076     43.382  44.459207     4.8541      7.208   187.8018 1.7339e+02     9.0526      1.142      1.657    26.3072 0.0000e+00
      1.169      0.032     4.1678     47.754     43.472  44.521492     5.0968      7.206   188.1512 1.6997e+02     8.9635      1.144      1.659    26.2958 0.0000e+00
      1.182      0.036     4.1219     46.189     43.523  44.541712     5.2514      7.204   188.4432 1.6396e+02     8.9574      1.155      1.676    26.2784 0.0000e+00
      1.202      0.036     4.0544     44.341     43.517  44.513210     5.2926      7.203   188.5796 1.5877e+02     8.9789      1.180      1.712    26.2621 0.0000e+00
      1.220      0.034     3.9715     42.222     43.503  44.494230     5.3533      7.203   188.7674 1.5644e+02     8.9494      1.202      1.742    26.2403 0.0000e+00
      1.227      0.030     3.8662     40.189     43.505  44.502642     5.4447      7.203   188.9933 1.5635e+02     8.8747      1.205      1.749    26.2027 0.0000e+00
      1.224      0.027     3.7425     38.698     43.549  44.551455     5.4905      7.202   189.0738 1.5580e+02     8.8610      1.199      1.740    26.1591 0.0000e+00
      1.223      0.023     3.6011     37.948     43.645  44.640095     5.5163      7.200   189.2245 1.5360e+02     8.9554      1.196      1.734    26.1305 0.0000e+00
      1.228      0.021     3.4150     37.769     43.710  44.685698     5.7564      7.199   189.5248 1.5106e+02     9.0935      1.201      1.743    26.1266 0.0000e+00
      1.241      0.020     3.2345     37.639     43.704  44.658467     6.1789      7.197   189.7795 1.4863e+02     9.1644      1.216      1.764    26.1403 0.0000e+00
      1.253      0.018     3.1079     36.980     43.686  44.628199     6.3968      7.196   189.8948 1.4704e+02     9.1299      1.232      1.786    26.1508 0.0000e+00
      1.259      0.016     3.0514     35.606     43.696  44.637096     6.4186      7.197   189.8864 1.4755e+02     9.1201      1.239      1.796    26.1394 0.0000e+00
      1.257      0.016     3.0559     33.864     43.760  44.702561     6.6252      7.198   189.9360 1.4890e+02     9.2503      1.234      1.790    26.1097 0.0000e+00
      1.252      0.016     3.0665     32.289     43.845  44.784957     7.0145      7.198   190.1502 1.4906e+02     9.4406      1.225      1.776    26.0812 0.0000e+00
      1.252      0.017     3.0211     31.108     43.880  44.808140     7.2225      7.198   190.4110 1.4746e+02     9.5090      1.224      1.774    26.0689 0.0000e+00
      1.261      0.020     2.8962     30.037     43.876  44.792407     7.2339      7.198   190.5083 1.4456e+02     9.4277      1.235      1.791    26.0690 0.0000e+00
      1.275      0.023     2.7366     28.682     43.874  44.785145     7.2109      7.198   190.4664 1.4173e+02     9.3112      1.252      1.815    26.0742 0.0000e+00
      1.285      0.024     2.6001     27.137     43.874  44.783814     7.1767      7.199   190.5072 1.4025e+02     9.2280      1.262      1.831    26.0712 0.0000e+00
      1.289      0.022     2.5168     25.878     43.867  44.776305     7.1701      7.199   190.6569 1.3952e+02     9.2065      1.264      1.834    26.0508 0.0000e+00
      1.290      0.020     2.4478     25.157     43.847  44.757831     7.1799      7.200   190.8142 1.3850e+02     9.2233      1.265      1.835    26.0341 0.0000e+00
      1.291      0.019     2.3350     24.849     43.840  44.750886     7.1787      7.200   190.9462 1.3702e+02     9.1916      1.266      1.837    26.0309 0.0000e+00
      1.295      0.020     2.1889     24.795     43.847  44.755805     7.2317      7.200   191.0477 1.3462e+02     9.1304      1.268      1.841    26.0305 0.0000e+00
      1.302      0.021     2.0796     24.956     43.849  44.753833     7.3543      7.201   191.0948 1.3140e+02     9.1329      1.274      1.848    26.0303 0.0000e+00
      1.311      0.024     2.0284     25.260     43.887  44.790504     7.4374      7.201   191.0858 1.2838e+02     9.1535      1.286      1.865    26.0322 0.0000e+00
      1.319      0.026     2.0087     25.547     43.978  44.881809     7.4795      7.202   191.1122 1.2640e+02     9.1745      1.296      1.880    26.0341 0.0000e+00
      1.324      0.026     2.0041     25.802     44.071  44.969113     7.7551      7.203   191.2414 1.2531e+02     9.1815      1.299      1.884    26.0310 0.0000e+00
      1.328      0.026     2.0176     25.992     44.136  45.020869     8.2646      7.203   191.3573 1.2386e+02     9.1364      1.300      1.887    26.0241 0.0000e+00
      1.335      0.026     2.0511     25.716     44.200  45.063228     8.5452      7.203   191.4812 1.2192e+02     9.1067      1.308      1.898    26.0232 0.0000e+00
      1.344      0.027     2.0731     24.486     44.261  45.100363     8.5844      7.203   191.6202 1.2047e+02     9.1292      1.319      1.912    26.0246 0.0000e+00
      1.351      0.028     2.0897     22.236     44.272  45.088958     8.6884      7.204   191.6618 1.1945e+02     9.1012      1.325      1.922    26.0172 0.0000e+00
      1.357      0.028     2.1207     19.340     44.253  45.052250     8.8458      7.203   191.7257 1.1834e+02     8.9739      1.331      1.930    25.9990 0.0000e+00
      1.365      0.027     2.1181     16.273     44.248  45.037372     8.9223      7.202   191.8772 1.1705e+02     8.9224      1.339      1.941    25.9724 0.0000e+00
      1.372      0.026     2.0205     13.351     44.255  45.036011     8.9228      7.202   192.1162 1.1585e+02     8.9224      1.346      1.952    25.9411 0.0000e+00
      1.379      0.026     1.8256     10.845     44.265  45.035776     8.9027      7.202   192.3791 1.1492e+02     8.9047      1.353      1.962    25.9125 0.0000e+00
      1.384      0.025     1.5745      9.057     44.274  45.034518     8.8866      7.201   192.4750 1.1404e+02     8.9487      1.357      1.969    25.8945 0.0000e+00
      1.390      0.023     1.3183      8.068     44.272  45.020784     8.8781      7.201   192.5015 1.1294e+02     8.9421      1.363      1.977    25.8850 0.0000e+00
      1.397      0.023     1.0759      7.752     44.261  44.996654     8.8337      7.202   192.6128 1.1176e+02     8.8928      1.370      1.987    25.8760 0.0000e+00
      1.403      0.023     0.8587      7.918     44.272  44.996656     8.4746      7.203   192.7023 1.1072e+02     8.8644      1.376      1.995    25.8642 0.0000e+00
      1.408      0.023     0.7129      8.342     44.303  45.020790     7.8319      7.204   192.7235 1.0983e+02     8.8042      1.381      2.002    25.8519 0.0000e+00
      1.413      0.023     0.6377      8.857     44.318  45.034536     7.4884      7.204   192.7831 1.0887e+02     8.7795      1.386      2.010    25.8393 0.0000e+00
      1.419      0.022     0.6163      9.347     44.315  45.035898     7.4505      7.204   192.9063 1.0772e+02     8.7704      1.392      2.018    25.8257 0.0000e+00
      1.426      0.020     0.6383      9.746     44.309  45.037269     7.3906      7.204   193.0090 1.0642e+02     8.6265      1.399      2.028    25.8122 0.0000e+00
      1.432      0.019     0.6767     10.048     44.318  45.051117     7.1805      7.204   193.0780 1.0560e+02     8.3718      1.405      2.038    25.8017 0.0000e+00
      1.437      0.020     0.7222     10.274     44.343  45.076382     6.8741      7.204   193.2244 1.0549e+02     8.2184      1.409      2.046    25.7997 0.0000e+00
      1.438      0.023     0.7641     10.443     44.363  45.088844     6.7241      7.203   193.4020 1.0530e+02     8.2056      1.410      2.045    25.8062 0.0000e+00
      1.440      0.026     0.7962     10.555     44.363  45.074823     6.7234      7.203   193.5045 1.0452e+02     8.1837      1.410      2.044    25.8163 0.0000e+00
      1.447      0.028     0.8198     10.574     44.341  45.033789     6.8821      7.202   193.6038 1.0281e+02     7.9876      1.417      2.055    25.8228 0.0000e+00
      1.460      0.030     0.8378     10.447     44.296  44.973544     7.1864      7.201   193.7425 1.0054e+02     7.6456      1.432      2.077    25.8226 0.0000e+00
      1.472      0.032     0.8514     10.188     44.256  44.917685     7.3651      7.201   193.8907 9.9243e+01     7.4989      1.446      2.098    25.8151 0.0000e+00
      1.480      0.034     0.8615      9.862     44.224  44.866207     7.3947      7.201   194.1049 9.8911e+01     7.5795      1.452      2.107    25.7988 0.0000e+00
      1.485      0.034     0.8663      9.560     44.179  44.795447     7.3534      7.200   194.4392 9.8239e+01     7.5275      1.454      2.110    25.7733 0.0000e+00
      1.491      0.035     0.8552      9.376     44.109  44.696854     7.2642      7.199   194.7498 9.7075e+01     7.3138      1.460      2.119    25.7573 0.0000e+00
      1.501      0.036     0.8323      9.357     44.073  44.626238     7.2242      7.198   194.9358 9.5580e+01     7.1823      1.472      2.134    25.7452 0.0000e+00
      1.512      0.036     0.8037      9.479     44.120  44.639823     7.2520      7.198   195.1390 9.3512e+01     7.2013      1.482      2.149    25.7205 0.0000e+00
      1.524      0.034     0.7760      9.703     44.173  44.670630     7.4841      7.197   195.3999 9.1383e+01     7.2358      1.493      2.167    25.6937 0.0000e+00
      1.537      0.029     0.7601      9.984     44.188  44.681310     7.8830      7.196   195.5087 9.0333e+01     7.1558      1.510      2.190    25.6628 0.0000e+00
      1.544      0.026     0.7603     10.243     44.142  44.641994     8.0885      7.195   195.4220 9.0392e+01     7.0528      1.519      2.202    25.6225 0.0000e+00
      1.544      0.026     0.7722     10.419     44.009  44.512658     8.1550      7.195   195.3843 9.0677e+01     7.0150      1.514      2.197    25.5781 0.0000e+00
      1.544      0.027     0.7914     10.489     43.897  44.387048     8.7448      7.195   195.4829 9.0294e+01     7.0415      1.511      2.192    25.5489 0.0000e+00
      1.550      0.028     0.8177     10.449     43.868  44.329285     9.8179      7.195   195.4953 8.8619e+01     7.0999      1.517      2.200    25.5450 0.0000e+00
      1.562      0.031     0.8404     10.310     43.891  44.322016    10.3930      7.195   195.4486 8.6507e+01     7.0722      1.530      2.220    25.5603 0.0000e+00
      1.577      0.032     0.8547     10.104     43.890  44.299107    10.4383      7.195   195.5202 8.4949e+01     6.9792      1.548      2.245    25.5757 0.0000e+00
      1.588      0.032     0.8609      9.888     43.845  44.242695    10.4985      7.196   195.5871 8.3979e+01     6.9665      1.559      2.260    25.5596 0.0000e+00
      1.594      0.029     0.8581      9.713     43.818  44.211202    10.6046      7.196   195.6544 8.3454e+01     7.0556      1.564      2.269    25.5187 0.0000e+00
      1.597      0.026     0.8463      9.567     43.719  44.108750    10.6722      7.195   195.9042 8.2985e+01     7.1332      1.566      2.272    25.4795 0.0000e+00
      1.600      0.028     0.8287      9.453     43.519  43.892605    10.6922      7.194   196.2845 8.2451e+01     7.1188      1.569      2.275    25.4543 0.0000e+00
      1.605      0.035     0.8079      9.383     43.438  43.755921    10.7882      7.193   196.4666 8.1851e+01     7.1214      1.575      2.284    25.4451 0.0000e+00
      1.612      0.044     0.7957      9.315     43.583  43.789008    12.0159      7.193   196.3851 8.0626e+01     8.0866      1.578      2.289    25.4405 0.0000e+00
      1.624      0.051     0.7837      9.201     43.849  43.911643    14.2994      7.193   196.3315 7.8257e+01     9.9763      1.588      2.303    25.4418 0.0000e+00
      1.645      0.055     0.7721      8.991     44.091  44.032450    15.5671      7.193   196.3341 7.5354e+01    11.0452      1.613      2.339    25.4392 0.0000e+00
      1.668      0.058     0.7705      8.648     44.232  44.106952    15.7000      7.192   196.3311 7.3066e+01    11.2064      1.639      2.377    25.3897 0.0000e+00
      1.684      0.063     0.7669      8.166     44.832  44.685399    15.7902      7.191   196.4675 7.1872e+01    11.9598      1.655      2.401    25.2485 0.0000e+00
      1.692      0.069     0.7626      7.603     46.465  46.265472    15.9588      7.190   196.6072 7.1276e+01    13.4251      1.660      2.407    25.0511 0.0000e+00
      1.699      0.074     0.7479      7.063     48.104  47.722110    16.0490      7.189   196.5568 6.9815e+01    14.3375      1.663      2.411    24.9047 0.0000e+00
      1.717      0.076     0.7212      6.547     48.740  48.077115    15.8239      7.187   196.5465 6.6542e+01    14.8960      1.678      2.434    24.8289 0.0000e+00
      1.748      0.078     0.6800      5.918     48.993  48.081547    13.0873      7.187   196.6549 6.2469e+01    19.4265      1.713      2.485    24.8303 0.0000e+00
      1.783      0.080     0.6282      5.079     49.416  48.346734     8.0628      7.187   196.7492 5.9725e+01    27.6114      1.754      2.545    24.8456 0.0000e+00
      1.803      0.079     0.5853      4.121     49.804  48.616738     5.3123      7.186   196.8266 5.8722e+01    32.0126      1.774      2.573    24.6531 0.0000e+00
      1.812      0.073     0.5515      3.219     49.983  48.679458     5.0498      7.185   196.8163 5.7622e+01    32.5378      1.775      2.572    24.2882 0.0000e+00
      1.824      0.062     0.5063      2.468     50.000  48.597000     5.0133      7.184   196.7962 5.5503e+01    33.8934      1.785      2.588    24.0180 0.0000e+00
      1.844      0.051     0.4322      1.872     49.913  48.444965     4.9797      7.183   196.9277 5.3158e+01    36.1737      1.810      2.626    23.9034 0.0000e+00
      1.864      0.043     0.3454      1.417     49.802  48.301380     4.9513      7.182   197.0292 5.1505e+01    37.3583      1.831      2.656    23.8108 0.0000e+00
      1.875      0.038     0.2675      1.135     49.769  48.257621     4.9279      7.182   197.2495 5.0842e+01    37.4561      1.842      2.671    23.6827 0.0000e+00
      1.880      0.033     0.2046      1.064     49.885  48.360296     4.7797      7.182   197.6980 5.0771e+01    38.1081      1.844      2.675    23.5788 0.0000e+00
      1.880      0.033     0.1555      1.181     50.156  48.590461     4.5246      7.181   197.9790 5.0716e+01    39.3664      1.843      2.673    23.5138 0.0000e+00
      1.882      0.039     0.1154      1.402     50.461  48.818366     4.3983      7.179   198.0664 5.0306e+01    40.0649      1.844      2.674    23.4765 0.0000e+00
      1.890      0.047     0.0897      1.628     50.637  48.893624     4.4008      7.179   198.1515 4.9062e+01    40.1323      1.848      2.681    23.4750 0.0000e+00
      1.906      0.053     0.0843      1.812     50.561  48.738376     4.3976      7.178   198.3191 4.6907e+01    40.1470      1.865      2.707    23.4764 0.0000e+00
      1.931      0.055     0.0973      1.952     50.286  48.464904     4.3932      7.178   198.2870 4.4832e+01    40.8580      1.896      2.749    23.4462 0.0000e+00
      1.954      0.053     0.1197      2.030     50.052  48.317141     4.4137      7.177   197.8488 4.3672e+01    42.2378      1.920      2.785    23.3788 0.0000e+00
      1.966      0.048     0.1407      2.049     49.973  48.348671     4.4375      7.177   197.4096 4.3406e+01    42.9963      1.932      2.802    23.2730 0.0000e+00
      1.970      0.043     0.1557      2.040     49.955  48.401876     4.4565      7.177   197.2783 4.3554e+01    43.1283      1.932      2.802    23.1604 0.0000e+00
      1.973      0.039     0.1689      2.035     49.950  48.389151     4.4602      7.178   197.2930 4.3321e+01    43.0478      1.933      2.802    23.1470 0.0000e+00
      1.980      0.037     0.1757      2.069     50.036  48.385276     4.4400      7.179   197.3300 4.2343e+01    42.7744      1.940      2.813    23.2527 0.0000e+00
      1.994      0.039     0.1747      2.124     50.279  48.481864     4.4287      7.179   197.4678 4.1061e+01    42.6234      1.955      2.835    23.3845 0.0000e+00
      2.010      0.041     0.1740      2.148     50.633  48.667937     4.4325      7.179   197.6687 4.0113e+01    42.5893      1.973      2.861    23.4709 0.0000e+00
      2.021      0.040     0.1711      2.141     50.924  48.793641     4.4280      7.179   198.0378 3.9579e+01    42.0540      1.984      2.878    23.4620 0.0000e+00
      2.029      0.035     0.1753      2.117     50.995  48.731723     4.3990      7.179   198.8333 3.9019e+01    40.9682      1.989      2.884    23.3638 0.0000e+00
      2.037      0.025     0.1833      2.065     50.871  48.554000     4.3727      7.178   199.8869 3.8245e+01    40.3238      1.996      2.895    23.2093 0.0000e+00
      2.046      0.015     0.1849      1.988     50.615  48.358941     4.3686      7.178   200.0218 3.7607e+01    40.2401      2.008      2.912    23.0546 0.0000e+00
      2.051      0.005     0.1839      1.903     50.311  48.214545     4.3320      7.178   199.1734 3.7570e+01    40.1954      2.015      2.921    22.9003 0.0000e+00
      2.049     -0.001     0.1836      1.820     50.115  48.205090     4.2632      7.177   199.0079 3.8045e+01    40.1252      2.012      2.918    22.7505 0.0000e+00
      2.043     -0.002     0.1791      1.775     50.017  48.244891     4.2195      7.176   199.4839 3.8693e+01    40.0402      2.004      2.907    22.6755 0.0000e+00
      2.035      0.003     0.1713      1.796     49.978  48.251549     4.2115      7.175   199.5930 3.9248e+01    39.9535      1.994      2.892    22.7269 0.0000e+00
      2.031      0.011     0.1640      1.883     50.138  48.349148     4.2413      7.175   199.2951 3.9221e+01    39.7258      1.988      2.883    22.9000 0.0000e+00
      2.037      0.020     0.1545      1.994     50.541  48.599509     4.2888      7.175   199.0653 3.8336e+01    39.3363      1.994      2.892    23.1080 0.0000e+00
      2.052      0.026     0.1494      2.083     51.115  48.992817     4.3198      7.174   199.0513 3.7090e+01    39.1379      2.011      2.918    23.2582 0.0000e+00
      2.067      0.030     0.1508      2.139     51.637  49.358424     4.3241      7.173   198.9539 3.6305e+01    39.0689      2.030      2.945    23.3022 0.0000e+00
      2.076      0.030     0.1597      2.166     51.915  49.527828     4.2666      7.174   198.9206 3.6066e+01    38.3658      2.038      2.956    23.2460 0.0000e+00
      2.079      0.027     0.1721      2.161     52.220  49.771095     4.1576      7.176   199.2503 3.5864e+01    37.1270      2.038      2.956    23.0793 0.0000e+00
      2.082      0.026     0.1798      2.121     52.593  50.077406     4.0881      7.176   199.9303 3.5591e+01    36.4908      2.042      2.961    22.9046 0.0000e+00
      2.086      0.027     0.1851      2.045     52.821  50.183643     4.0841      7.176   200.2589 3.5307e+01    36.4805      2.045      2.966    22.7824 0.0000e+00
      2.091      0.031     0.1880      1.948     53.021  50.230023     4.0917      7.176   200.1254 3.4730e+01    36.4907      2.049      2.972    22.6684 0.0000e+00
      2.101      0.034     0.1876      1.873     53.167  50.257008     4.1055      7.176   200.2952 3.3747e+01    36.5802      2.058      2.986    22.6479 0.0000e+00
      2.115      0.036     0.1844      1.828     53.231  50.255777     4.1340      7.176   200.6771 3.2742e+01    36.7757      2.074      3.009    22.6381 0.0000e+00
      2.128      0.039     0.1781      1.790     53.482  50.469028     4.1370      7.176   200.8707 3.2087e+01    36.8393      2.089      3.030    22.5097 0.0000e+00
      2.136      0.042     0.1680      1.761     53.856  50.803508     4.1243      7.176   200.8301 3.1738e+01    36.6323      2.096      3.040    22.3464 0.0000e+00
      2.141      0.043     0.1616      1.730     53.982  50.871137     4.1054      7.175   200.7020 3.1350e+01    34.5120      2.099      3.044    22.2398 0.0000e+00
      2.150      0.041     0.1599      1.695     53.892  50.715197     4.0669      7.174   200.6125 3.0590e+01    30.6394      2.105      3.053    22.1891 0.0000e+00
      2.165      0.037     0.1550      1.669     53.773  50.568860     4.0343      7.172   200.6954 2.9556e+01    28.4779      2.122      3.077    22.1715 0.0000e+00
      2.181      0.034     0.1540      1.654     53.674  50.498651     4.0182      7.172   201.0162 2.8783e+01    28.0869      2.142      3.106    22.1770 0.0000e+00
      2.191      0.033     0.1511      1.644     54.025  50.882284     4.0298      7.171   201.2208 2.8522e+01    26.8002      2.153      3.122    22.1276 0.0000e+00
      2.194      0.033     0.1477      1.623     55.480  52.286492     4.0670      7.169   201.1898 2.8482e+01    24.5690      2.152      3.121    22.0277 0.0000e+00
      2.194      0.034     0.1457      1.607     57.715  54.332136     4.0939      7.167   201.2437 2.8301e+01    23.3819      2.150      3.119    21.9931 0.0000e+00
      2.199      0.036     0.1438      1.604     59.615  55.929471     4.0967      7.165   201.4424 2.7769e+01    23.1052      2.154      3.124    22.0295 0.0000e+00
      2.211      0.038     0.1446      1.603     60.885  56.865411     4.1423      7.165   201.5275 2.6854e+01    21.2577      2.166      3.141    22.0865 0.0000e+00
      2.231      0.039     0.1411      1.596     61.757  57.454848     4.2461      7.165   201.4127 2.5900e+01    17.9524      2.189      3.174    22.1481 0.0000e+00
      2.247      0.039     0.1396      1.599     62.281  57.784103     4.3106      7.164   201.2583 2.5394e+01    16.1724      2.207      3.202    22.1171 0.0000e+00
      2.255      0.037     0.1405      1.613     62.749  58.114933     4.3318      7.163   201.2094 2.5284e+01    15.9967      2.213      3.209    21.9227 0.0000e+00
      2.257      0.033     0.1415      1.619     63.348  58.596357     4.3781      7.163   201.2519 2.5164e+01    15.2133      2.213      3.209    21.6824 0.0000e+00
      2.261      0.028     0.1405      1.611     64.223  59.348975     4.4455      7.163   201.3420 2.4851e+01    13.7024      2.215      3.213    21.4904 0.0000e+00
      2.269      0.023     0.1409      1.597     65.224  60.227105     4.4720      7.162   201.3525 2.4353e+01    12.8274      2.223      3.226    21.3674 0.0000e+00
      2.280      0.020     0.1434      1.592     65.788  60.701335     4.4579      7.161   201.2067 2.3922e+01    12.7289      2.237      3.244    21.2968 0.0000e+00
      2.288      0.020     0.1441      1.597     67.697  62.414734     4.4582      7.162   201.0408 2.3831e+01    12.7166      2.247      3.258    21.2397 0.0000e+00
      2.289      0.020     0.1432      1.606     72.504  66.774258     4.5162      7.163   200.8962 2.3913e+01    12.4394      2.246      3.257    21.1971 0.0000e+00
      2.289      0.021     0.1416      1.616     77.007  70.774542     4.6100      7.163   200.7494 2.3858e+01    11.9385      2.243      3.253    21.1669 0.0000e+00
      2.290      0.024     0.1410      1.632     78.383  71.826141     4.6608      7.162   200.6417 2.3528e+01    11.6475      2.244      3.254    21.1279 0.0000e+00
      2.297      0.029     0.1421      1.650     78.362  71.607900     4.6720      7.162   200.6265 2.2899e+01    11.4832      2.251      3.264    21.0941 0.0000e+00
      2.310      0.032     0.1431      1.655     78.718  71.822112     4.7044      7.162   200.5665 2.2207e+01    10.6018      2.266      3.286    21.0696 0.0000e+00
      2.323      0.032     0.1438      1.633     77.764  70.920114     4.7691      7.162   200.5181 2.1692e+01     9.1203      2.279      3.306    20.9717 0.0000e+00
      2.334      0.026     0.1460      1.610     75.325  68.709892     4.8050      7.162   200.6435 2.1372e+01     8.3620      2.289      3.320    20.8056 0.0000e+00
      2.341      0.019     0.1481      1.603     75.128  68.614475     4.7976      7.161   200.7926 2.1253e+01     8.2994      2.298      3.332    20.6610 0.0000e+00
      2.344      0.015     0.1504      1.594     78.294  71.609547     4.7713      7.161   200.7716 2.1370e+01     8.2609      2.300      3.336    20.5945 0.0000e+00
      2.341      0.017     0.1464      1.577     82.434  75.368094     4.7287      7.159   200.3040 2.1604e+01     8.2382      2.296      3.331    20.5930 0.0000e+00
      2.336      0.022     0.1436      1.566     85.354  77.825224     4.6984      7.156   199.5256 2.1613e+01     8.2297      2.288      3.320    20.5825 0.0000e+00
      2.339      0.027     0.1444      1.577     85.377  77.540652     4.6789      7.153   198.9318 2.1151e+01     8.1577      2.290      3.322    20.6425 0.0000e+00
      2.354      0.030     0.1430      1.607     83.499  75.614574     4.6265      7.150   198.5457 2.0236e+01     7.8800      2.305      3.343    20.7626 0.0000e+00
      2.375      0.032     0.1414      1.626     83.223  75.326962     4.5566      7.148   198.0397 1.9384e+01     7.5023      2.331      3.381    20.7557 0.0000e+00
      2.390      0.034     0.1396      1.621     85.122  77.051212     4.5325      7.146   197.3739 1.9191e+01     7.3493      2.351      3.410    20.6133 0.0000e+00
      2.391      0.035     0.1416      1.614     86.701  78.342827     4.5349      7.145   196.7766 1.9359e+01     7.3620      2.345      3.402    20.3838 0.0000e+00
      2.387      0.034     0.1459      1.620     87.215  78.545847     4.5183      7.143   196.2391 1.9174e+01     7.2465      2.336      3.389    20.2137 0.0000e+00
      2.393      0.034     0.1485      1.633     87.507  78.551792     4.4906      7.141   195.6934 1.8475e+01     7.0455      2.343      3.398    20.2400 0.0000e+00
      2.409      0.038     0.1463      1.648     87.789  78.605116     4.4743      7.141   195.2546 1.7696e+01     7.0152      2.363      3.428    20.2996 0.0000e+00
      2.424      0.046     0.1452      1.643     87.984  78.618052     4.4634      7.141   195.0635 1.7087e+01     7.0512      2.379      3.452    20.2052 0.0000e+00
      2.436      0.054     0.1476      1.618     87.606  78.135737     4.4246      7.139   195.0184 1.6421e+01     6.8653      2.387      3.462    20.0170 0.0000e+00
      2.448      0.057     0.1481      1.613     86.756  77.223979     4.3712      7.135   194.8807 1.5674e+01     6.5441      2.401      3.481    19.8645 0.0000e+00
      2.461      0.056     0.1514      1.624     86.546  76.876809     4.3426      7.132   194.5173 1.4811e+01     6.3449      2.412      3.499    19.7577 0.0000e+00
      2.477      0.053     0.1517      1.629     86.331  76.544860     4.3289      7.127   194.4108 1.3598e+01     6.2663      2.427      3.519    19.6686 0.0000e+00
      2.498      0.050     0.1468      1.629     85.004  75.244574     4.3214      7.123   194.5389 1.2422e+01     6.2084      2.451      3.555    19.5932 0.0000e+00
      2.513      0.045     0.1473      1.621     83.972  74.187901     4.4267      7.119   193.9150 1.1820e+01     6.1924      2.470      3.581    19.5046 0.0000e+00
      2.519      0.038     0.1500      1.610     84.371  74.385442     4.6372      7.115   192.8044 1.1475e+01     6.2771      2.471      3.583    19.4037 0.0000e+00
      2.524      0.029     0.1500      1.624     85.138  74.962857     4.7517      7.111   191.5208 1.0877e+01     6.4122      2.472      3.586    19.3213 0.0000e+00
      2.532      0.022     0.1504      1.643     85.286  75.066358     4.7623      7.108   190.0101 1.0274e+01     6.4257      2.484      3.603    19.2595 0.0000e+00
      2.539      0.020     0.1506      1.640     84.935  74.746833     4.8577      7.106   188.9941 1.0024e+01     6.3382      2.492      3.614    19.1784 0.0000e+00
      2.541      0.023     0.1475      1.652     84.438  74.278139     5.0390      7.104   188.2705 9.8784e+00     6.2762      2.492      3.614    19.0624 0.0000e+00
      2.542      0.025     0.1502      1.669     84.233  74.040124     5.1323      7.103   187.1977 9.5560e+00     6.2912      2.491      3.613    18.9999 0.0000e+00
      2.548      0.025     0.1545      1.659     84.509  74.221068     5.1858      7.100   185.8313 9.0127e+00     6.3491      2.496      3.621    19.0032 0.0000e+00
      2.559      0.024     0.1505      1.645     84.709  74.367997     5.7361      7.096   184.1392 8.3577e+00     6.4980      2.508      3.638    19.0039 0.0000e+00
      2.571      0.023     0.1529      1.633     84.547  74.227327     6.7421      7.094   182.3975 7.9165e+00     6.7595      2.523      3.660    18.9844 0.0000e+00
      2.579      0.020     0.1568      1.618     84.507  74.173098     7.2953      7.091   180.9484 7.8658e+00     6.8805      2.532      3.673    18.9484 0.0000e+00
      2.579      0.015     0.1536      1.616     84.762  74.348007     7.3723      7.089   179.6096 7.9079e+00     6.8338      2.529      3.668    18.9006 0.0000e+00
      2.579      0.010     0.1529      1.615     84.951  74.498497     7.7561      7.087   178.3413 7.7443e+00     6.8774      2.527      3.665    18.8794 0.0000e+00
      2.581      0.007     0.1522      1.591     84.871  74.466923     8.4733      7.086   177.1430 7.5608e+00     7.1001      2.532      3.673    18.9008 0.0000e+00
      2.584      0.009     0.1497      1.566     84.710  74.347743     8.8785      7.083   175.9625 7.5545e+00     7.3406      2.536      3.677    18.8944 0.0000e+00
      2.584      0.015     0.1499      1.571     85.055  74.583256     8.9683      7.081   174.9085 7.5644e+00     7.7014      2.534      3.675    18.8417 0.0000e+00
      2.584      0.021     0.1520      1.591     86.178  75.407191     9.3423      7.079   173.8637 7.3947e+00    10.9503      2.533      3.674    18.8258 0.0000e+00
      2.589      0.026     0.1480      1.601     87.425  76.299312     9.9965      7.077   172.5367 6.9528e+00    16.9383      2.537      3.679    18.8701 0.0000e+00
      2.601      0.029     0.1439      1.605     88.181  76.786839    10.3275      7.075   171.0808 6.3571e+00    20.1863      2.549      3.698    18.9016 0.0000e+00
      2.615      0.030     0.1455      1.610     88.612  77.041924    10.1072      7.074   169.8556 5.8838e+00    20.0583      2.566      3.721    18.8617 0.0000e+00
      2.625      0.028     0.1491      1.608     88.987  77.285230     7.5150      7.073   168.7353 5.6293e+00    15.1860      2.576      3.736    18.7559 0.0000e+00
      2.630      0.023     0.1500      1.604     89.147  77.376049     2.7819      7.072   167.4300 5.4926e+00     6.1614      2.580      3.742    18.6248 0.0000e+00
      2.634      0.017     0.1496      1.598     89.063  77.313397     0.2045      7.071   166.0320 5.3806e+00     1.2261      2.583      3.745    18.5227 0.0000e+00
      2.636      0.012     0.1518      1.592     88.939  77.290688    -0.0185      7.070   164.7385 5.2751e+00     0.7741      2.585      3.750    18.4609 0.0000e+00
      2.638      0.008     0.1507      1.583     88.869  77.355925    -0.0390      7.070   163.6644 5.1667e+00     0.7654      2.587      3.752    18.4161 0.0000e+00
      2.639      0.006     0.1507      1.567     88.941  77.530115    -0.0598      7.069   162.6808 5.0572e+00     0.8131      2.588      3.753    18.3824 0.0000e+00
      2.641      0.006     0.1504      1.552     89.100  77.743822    -0.0707      7.069   161.2774 4.9626e+00     0.8046      2.590      3.755    18.3809 0.0000e+00
      2.641      0.006     0.1490      1.548     89.154  77.841738    -0.0709      7.069   159.4301 4.8593e+00     0.8327      2.590      3.757    18.4382 0.0000e+00
      2.642      0.006     0.1490      1.551     89.094  77.823924    -0.0699      7.070   157.6393 4.7065e+00     0.9829      2.591      3.759    18.5230 0.0000e+00
      2.645      0.006     0.1463      1.554     89.046  77.782813    -0.0586      7.070   155.9727 4.5345e+00     1.6982      2.594      3.762    18.5897 0.0000e+00
      2.647      0.006     0.1445      1.552     89.032  77.726164    -0.0426      7.069   154.3360 4.3957e+00     2.9570      2.596      3.765    18.6269 0.0000e+00
      2.649      0.005     0.1444      1.550     89.029  77.647584    -0.0431      7.069   152.8208 4.3057e+00     3.6316      2.598      3.767    18.6529 0.0000e+00
      2.650      0.004     0.1446      1.550     89.059  77.595599    -0.0643      7.069   151.4197 4.2551e+00     3.6374      2.599      3.769    18.6781 0.0000e+00
      2.651      0.003     0.1455      1.543     89.132  77.606165    -0.0743      7.070   149.9568 4.2104e+00     3.4375      2.599      3.770    18.6820 0.0000e+00
      2.651      0.002     0.1450      1.538     89.204  77.648100    -0.0570      7.070   148.3832 4.1671e+00     3.0938      2.600      3.770    18.6530 0.0000e+00
      2.651      0.002     0.1445      1.547     89.141  77.593952    -0.0372      7.070   146.8480 4.1261e+00     2.8972      2.600      3.770    18.6045 0.0000e+00
      2.651      0.002     0.1455      1.546     88.870  77.396535    -0.0346      7.070   145.3329 4.0626e+00     2.8703      2.600      3.770    18.5536 0.0000e+00
      2.652      0.002     0.1448      1.520     88.503  77.168627    -0.0425      7.070   143.8301 3.9999e+00     2.6330      2.601      3.772    18.5217 0.0000e+00
      2.653      0.002     0.1429      1.504     88.175  77.000216    -0.0493      7.070   142.4442 3.9581e+00     2.1459      2.601      3.773    18.5165 0.0000e+00
      2.654      0.002     0.1454      1.513     87.926  76.886374    -0.0583      7.070   141.0513 3.9096e+00     1.8653      2.602      3.774    18.5124 0.0000e+00
      2.654      0.002     0.1465      1.529     87.747  76.809584    -0.0683      7.071   139.6378 3.8603e+00     1.8703      2.602      3.774    18.5258 0.0000e+00
      2.655      0.002     0.1412      1.523     87.639  76.771229    -0.0625      7.071   138.3450 3.8230e+00     1.8315      2.603      3.776    18.5872 0.0000e+00
      2.655      0.001     0.1396      1.500     87.569  76.740599    -0.0455      7.071   137.0360 3.7914e+00     1.6355      2.604      3.776    18.6647 0.0000e+00
      2.655      0.001     0.1406      1.497     87.504  76.693586    -0.0376      7.071   135.4258 3.7614e+00     1.4470      2.603      3.776    18.7231 0.0000e+00
      2.655      0.001     0.1434      1.507     87.440  76.647864    -0.0416      7.072   133.6746 3.7311e+00     1.3620      2.604      3.777    18.7665 0.0000e+00
      2.655      0.001     0.1433      1.509     87.405  76.632848    -0.0533      7.073   132.2104 3.7016e+00     1.2916      2.604      3.777    18.8015 0.0000e+00
      2.656      0.001     0.1378      1.494     87.398  76.639206    -0.0627      7.073   130.8001 3.6653e+00     1.2115      2.605      3.778    18.8170 0.0000e+00
      2.656      0.001     0.1391      1.475     87.415  76.661168    -0.0542      7.072   129.3564 3.6185e+00     1.2129      2.605      3.778    18.8176 0.0000e+00
      2.657      0.001     0.1405      1.480     87.462  76.707658    -0.0339      7.071   128.0906 3.5710e+00     1.2397      2.606      3.779    18.8226 0.0000e+00
      2.657      0.001     0.1411      1.499     87.519  76.756271    -0.0339      7.071   126.7661 3.5314e+00     1.1938      2.606      3.780    18.8335 0.0000e+00
      2.657      0.001     0.1397      1.504     87.597  76.803893    -0.0543      7.071   125.3882 3.4946e+00     1.1366      2.606      3.779    18.8421 0.0000e+00
      2.657      0.001     0.1355      1.495     87.679  76.838364    -0.0641      7.071   124.0786 3.4618e+00     1.0941      2.606      3.780    18.8450 0.0000e+00
      2.658      0.001     0.1374      1.482     87.738  76.855115    -0.0616      7.071   122.7186 3.4253e+00     1.0557      2.606      3.780    18.8477 0.0000e+00
      2.658      0.000     0.1402      1.472     87.792  76.879233    -0.0484      7.071   121.3344 3.3785e+00     1.0483      2.607      3.781    18.8515 0.0000e+00
      2.658      0.000     0.1405      1.478     87.877  76.939202    -0.0299      7.072   120.1616 3.3435e+00     1.0395      2.606      3.780    18.8393 0.0000e+00
      2.658     -0.002     0.1390      1.487     87.907  76.944382    -0.0292      7.072   119.1212 3.3282e+00     1.0173      2.607      3.781    18.8121 0.0000e+00
      2.658     -0.009     0.1384      1.478     87.727  76.751089    -0.0321      7.072   117.9615 3.3262e+00     1.0185      2.607      3.781    18.7909 0.0000e+00
      2.657     -0.030     0.1360      1.468     87.552  76.573023     0.0189      7.069   116.7228 3.3304e+00     1.3266      2.606      3.780    18.7782 0.0000e+00
      2.657     -0.067     0.1374      1.460     87.219  76.380824     0.6789      7.064   115.4151 3.3614e+00     5.2899      2.606      3.779    18.7731 0.0000e+00
      2.652     -0.114     0.1399      1.435     86.324  75.953185     1.9134      7.058   114.0240 3.6791e+00    12.6274      2.605      3.778    18.7640 0.0000e+00
      2.629     -0.154     0.1375      1.414     85.594  75.853340     2.6021      7.053   112.6369 4.9860e+00    16.7715      2.593      3.761    18.7412 0.0000e+00
      2.570     -0.175     0.1364      1.414     85.880  76.573068     2.7056      7.050   111.2055 7.8453e+00    18.8792      2.533      3.673    18.7081 0.0000e+00
      2.483     -0.175     0.1375      1.399     86.790  77.598793     2.9401      7.047   109.6226 1.1587e+01    37.9750      2.432      3.526    18.7167 0.0000e+00
      2.406     -0.154     0.1334      1.378     87.092  77.892061     3.3317      7.043   108.0386 1.4160e+01    72.8289      2.343      3.398    18.9396 0.0000e+00
      2.366     -0.118     0.1283      1.381     86.717  77.575728     3.5369      7.039   106.9391 1.4157e+01    91.8008      2.306      3.344    19.3317 0.0000e+00
      2.362     -0.075     0.1310      1.398     86.731  77.652557     3.5312      7.038   106.5669 1.2626e+01    93.9007      2.312      3.353    19.6375 0.0000e+00
      2.374     -0.043     0.1281      1.412     87.030  77.930991     3.3549      7.037   106.1197 1.1383e+01    98.3894      2.331      3.381    19.7490 0.0000e+00
      2.384     -0.036     0.1245      1.414     86.694  77.572441     3.0365      7.036   104.9739 1.0988e+01   106.2778      2.342      3.398    19.7027 0.0000e+00
      2.381     -0.057     0.1261      1.404     85.392  76.369120     2.8612      7.036   103.8127 1.1363e+01   110.4732      2.340      3.393    19.7033 0.0000e+00
      2.366     -0.099     0.1277      1.382     83.737  74.952983     2.8579      7.036   103.0921 1.2690e+01   110.2080      2.326      3.373    19.7828 0.0000e+00
      2.336     -0.147     0.1296      1.358     82.130  73.673965     3.1138      7.038   102.4556 1.5525e+01   103.3786      2.297      3.331    19.7858 0.0000e+00
      2.288     -0.190     0.1293      1.342     80.719  72.601879     3.5991      7.042   101.8822 2.0122e+01    90.7526      2.249      3.262    19.7311 0.0000e+00
      2.226     -0.215     0.1292      1.332     80.232  72.352279     3.8656      7.044   101.3217 2.5924e+01    83.8010      2.187      3.172    19.6851 0.0000e+00
      2.155     -0.217     0.1261      1.320     79.816  72.118449     3.9134      7.045   100.0658 3.1797e+01    82.4886      2.116      3.069    19.7264 0.0000e+00
      2.080     -0.197     0.1234      1.303     77.903  70.473881     4.0695      7.046    98.6571 3.6510e+01    74.3381      2.036      2.953    19.8459 0.0000e+00
      2.018     -0.163     0.1219      1.288     76.110  68.929869     4.3206      7.046    98.2271 3.9225e+01    59.4141      1.967      2.853    19.9666 0.0000e+00
      1.983     -0.128     0.1208      1.288     76.040  68.958266     4.4366      7.046    98.3088 4.0012e+01    51.2173      1.935      2.807    20.0943 0.0000e+00
      1.973     -0.104     0.1200      1.297     76.119  69.101660     4.4225      7.047    98.0962 3.9707e+01    50.1092      1.931      2.801    20.1918 0.0000e+00
      1.974     -0.099     0.1176      1.302     75.338  68.439485     4.3576      7.050    97.6347 3.9430e+01    46.8358      1.937      2.809    20.2269 0.0000e+00
      1.969     -0.115     0.1161      1.312     74.171  67.434418     4.2518      7.053    97.4616 4.1288e+01    41.0844      1.940      2.812    20.2680 0.0000e+00
      1.942     -0.147     0.1156      1.322     73.383  66.799913     4.2000      7.055    97.3793 4.6243e+01    37.9917      1.915      2.777    20.3470 0.0000e+00
      1.890     -0.183     0.1179      1.318     72.658  66.233130     4.2066      7.058    97.0694 5.3088e+01    37.7258      1.858      2.695    20.3930 0.0000e+00
      1.822     -0.213     0.1169      1.305     71.093  64.902553     4.2150      7.061    96.8994 6.1378e+01    37.6311      1.787      2.592    20.4141 0.0000e+00
      1.751     -0.227     0.1180      1.282     68.501  62.658282     4.2854      7.063    96.8729 7.0166e+01    37.1881      1.714      2.488    20.4450 0.0000e+00
      1.684     -0.225     0.1199      1.255     65.958  60.509387     4.4245      7.065    96.5768 7.8494e+01    36.4341      1.649      2.391    20.5065 0.0000e+00
      1.626     -0.214     0.1182      1.248     65.116  59.949582     4.5075      7.066    95.8996 8.5622e+01    36.0296      1.590      2.306    20.5767 0.0000e+00
      1.580     -0.202     0.1176      1.259     65.274  60.274242     4.5385      7.069    94.6216 9.0696e+01    35.9874      1.545      2.241    20.6340 0.0000e+00
      1.540     -0.194     0.1155      1.280     65.798  60.877734     4.7417      7.072    92.9116 9.6123e+01    35.5474      1.512      2.192    20.7175 0.0000e+00
      1.497     -0.191     0.1109      1.310     66.022  61.147742     5.1084      7.075    91.9164 1.0381e+02    34.6374      1.471      2.133    20.8507 0.0000e+00
      1.448     -0.192     0.1107      1.343     65.003  60.235386     5.3014      7.077    91.5370 1.1320e+02    34.0719      1.421      2.061    21.0398 0.0000e+00
      1.394     -0.199     0.1116      1.378     63.729  59.121599     5.3360      7.078    91.1633 1.2311e+02    33.8341      1.367      1.983    21.1844 0.0000e+00
      1.340     -0.209     0.1130      1.408     61.264  56.956068     5.6768      7.080    91.1838 1.3434e+02    32.1039      1.312      1.904    21.2667 0.0000e+00
      1.288     -0.222     0.1164      1.440     56.715  52.915663     6.3177      7.082    91.6128 1.4889e+02    28.9682      1.263      1.831    21.3201 0.0000e+00
      1.238     -0.236     0.1186      1.468     52.773  49.581519     6.6759      7.086    92.1349 1.6564e+02    27.2100      1.216      1.764    21.3128 0.0000e+00
      1.180     -0.250     0.1227      1.499     50.637  48.077699     6.7533      7.090    92.6777 1.8569e+02    26.8327      1.162      1.684    21.3574 0.0000e+00
      1.110     -0.261     0.1240      1.610     49.188  47.241776     7.2450      7.092    93.0991 2.1720e+02    24.7820      1.092      1.582    21.4779 0.0000e+00
      1.033     -0.267     0.1270      1.913     48.001  46.585749     8.1438      7.093    93.1865 2.5340e+02    21.0319      1.012      1.468    21.5951 0.0000e+00
      0.957     -0.267     0.1294      2.518     47.086  46.113983     8.6400      7.094    93.1322 2.8579e+02    18.9969      0.938      1.361    21.9083 0.0000e+00
      0.886     -0.260     0.1275      3.554     46.527  45.918591     8.6410      7.096    93.4755 3.2072e+02    18.6580      0.866      1.257    22.4715 0.0000e+00
      0.821     -0.245     0.1323      5.205     46.351  46.001284     8.0396      7.099    94.3257 3.4797e+02    16.9335      0.802      1.162    23.0493 0.0000e+00
      0.764     -0.221     0.1534      7.579     46.121  45.908049     6.9202      7.101    95.2373 3.7107e+02    13.8594      0.750      1.088    23.5501 0.0000e+00
      0.707     -0.191     0.2000     10.452     45.610  45.489755     6.3008      7.101    95.8946 4.0376e+02    12.1640      0.694      1.006    23.9848 0.0000e+00
      0.652     -0.161     0.2795     13.378     45.240  45.260494     6.2443      7.102    96.3360 4.2803e+02    12.0125      0.634      0.920    24.3729 0.0000e+00
      0.612     -0.138     0.4081     16.098     45.113  45.294619     6.2366      7.102    96.7020 4.5763e+02    12.0614      0.591      0.859    24.6766 0.0000e+00
      0.591     -0.123     0.6128     18.842     44.979  45.267810     6.1658      7.101    96.7070 4.8563e+02    12.4823      0.576      0.836    24.7860 0.0000e+00
      0.580     -0.119     0.8655     21.805     44.838  45.190427     6.0379      7.101    96.5681 4.7681e+02    13.2411      0.574      0.831    24.8253 0.0000e+00
      0.560     -0.124     1.1160     24.509     44.828  45.247779     5.9559      7.100    96.8294 4.8303e+02    13.6181      0.555      0.803    25.0035 0.0000e+00
      0.527     -0.138     1.3255     26.573     44.917  45.390042     5.9391      7.099    96.6831 5.4733e+02    13.6255      0.520      0.754    25.2306 0.0000e+00
      0.483     -0.157     1.5308     28.437     44.911  45.387112     5.9020      7.099    96.0031 6.5685e+02    13.3993      0.478      0.694    25.3367 0.0000e+00
      0.430     -0.177     1.7983     30.684     44.752  45.212352     5.8146      7.100    95.6639 7.3495e+02    12.8983      0.420      0.608    25.3735 0.0000e+00
      0.381     -0.189     2.0348     33.145     44.579  45.054413     5.7486      7.101    95.8510 7.5042e+02    12.5892      0.369      0.536    25.4658 0.0000e+00
      0.337     -0.189     2.1804     35.235     44.410  44.937520     5.7110      7.100    96.3726 7.9148e+02    12.5994      0.335      0.487    25.5488 0.0000e+00
      0.286     -0.181     2.3079     36.954     44.275  44.878210     5.5425      7.100    96.7218 9.0755e+02    13.6372      0.283      0.410    25.5335 0.0000e+00
      0.230     -0.170     2.5014     38.816     44.350  45.035675     5.2436      7.100    96.8043 1.1259e+03    15.6058      0.222      0.322    25.4870 0.0000e+00
      0.184     -0.159     2.7308     41.132     44.591  45.318068     5.0685      7.100    97.0253 1.1866e+03    16.6577      0.173      0.251    25.5107 0.0000e+00
      0.152     -0.148     2.8954     43.815     44.748  45.436138     5.0323      7.099    96.6405 9.8080e+02    16.6197      0.150      0.216    25.5827 0.0000e+00
      0.124     -0.141     3.0086     46.333     44.709  45.320568     4.9138      7.099    94.9919 1.0010e+03    15.4537      0.127      0.183    25.6658 0.0000e+00
      0.090     -0.142     3.1457     47.732     44.492  45.063221     4.7091      7.097    93.0091 1.2745e+03    13.3885      0.083      0.122    25.7848 0.0000e+00
      0.059     -0.156     3.3334     47.400     44.135  44.736687     4.5963      7.093    91.0787 1.5245e+03    12.3167      0.056      0.082    25.8514 0.0000e+00
      0.028     -0.182     3.5679     45.855     43.775  44.482921     4.5483      7.090    89.2902 1.7196e+03    12.2301      0.036      0.052    25.7802 0.0000e+00
     -0.021     -0.220     3.8159     44.400     43.490  44.343779     4.1619      7.090    88.6781 1.7914e+03    12.0330     -0.014     -0.021    25.6550 0.0000e+00
     -0.082     -0.263     3.9592     44.235     43.267  44.260619     3.4455      7.091    90.7327 1.7903e+03    11.6762     -0.083     -0.120    25.6079 0.0000e+00
     -0.148     -0.297     3.9111     45.945     43.116  44.239368     3.0522      7.095    95.0315 1.7613e+03    11.5026     -0.138     -0.200    25.6394 0.0000e+00
     -0.233     -0.311     3.7294     49.149     42.981  44.213989     3.0117      7.100    99.7000 1.7505e+03    11.5401     -0.212     -0.307    25.7816 0.0000e+00
     -0.345     -0.298     3.5630     52.749     42.842  44.144367     2.8310      7.105   100.9764 1.7767e+03    11.6854     -0.343     -0.498    25.9907 0.0000e+00
     -0.450     -0.267     3.5196     55.803     42.763  44.095912     2.4896      7.108    97.3857 1.7313e+03    11.8926     -0.458     -0.666    26.1402 0.0000e+00
     -0.520     -0.227     3.6576     57.803     42.735  44.072497     2.2879      7.111    94.5722 1.6101e+03    11.9614     -0.520     -0.754    26.3022 0.0000e+00
     -0.554     -0.179     3.9475     58.571     42.340  43.670846     2.2574      7.116    94.3198 1.5306e+03    12.0051     -0.556     -0.806    26.4503 0.0000e+00
     -0.565     -0.128     4.2563     58.220     41.953  43.301756     2.2293      7.120    94.2480 1.5656e+03    12.5571     -0.550     -0.797    26.5279 0.0000e+00
     -0.583     -0.087     4.5119     57.213     42.333  43.735561     1.8477      7.124    94.1343 1.6611e+03    18.2262     -0.561     -0.814    26.5668 0.0000e+00
     -0.616     -0.062     4.6779     56.185     42.718  44.155612     1.1390      7.128    94.2348 1.7226e+03    28.5582     -0.614     -0.890    26.5607 0.0000e+00
     -0.637     -0.047     4.7373     55.330     42.696  44.128000     0.7518      7.132    94.6896 1.7481e+03    34.1144     -0.632     -0.916    26.5486 0.0000e+00
     -0.641     -0.036     4.6946     54.452     42.693  44.099922     0.7284      7.135    94.9876 1.7781e+03    34.2009     -0.629     -0.912    26.5940 0.0000e+00
     -0.641     -0.022     4.5809     53.443     42.838  44.196929     0.9227      7.139    95.3417 1.7744e+03    29.3998     -0.629     -0.913    26.6612 0.0000e+00
     -0.642     -0.008     4.4935     52.463     43.139  44.412174     1.3360      7.143    96.3897 1.7008e+03    20.3685     -0.628     -0.913    26.6892 0.0000e+00
     -0.642     -0.001     4.4363     51.848     43.458  44.607599     2.0224      7.145    97.5932 1.5918e+03    15.3227     -0.630     -0.915    26.6774 0.0000e+00
     -0.642 4.0981e-07     4.3708     52.170     43.644  44.655312     7.2742      7.146    98.5358 1.5003e+03    14.3356     -0.630     -0.913    26.6499 0.0000e+00
     -0.642      0.000     4.2899     54.492     43.284  44.163657    64.8682      7.147    99.4416 1.3987e+03     9.0150     -0.630     -0.913    26.6004 0.0000e+00
     -0.642      0.000     4.2068     59.310     37.715  38.408937   170.4355      7.147   100.2847 1.2528e+03    -0.6385     -0.630     -0.914    26.4867 0.0000e+00
     -0.642      0.001     4.1631     65.491     24.395  24.814053   227.5603      7.148   101.0713 1.1276e+03    -5.9187     -0.630     -0.914    26.3219 0.0000e+00
     -0.642      0.001     4.1629     71.527     12.157  12.354007   227.5080      7.149   101.5528 1.0406e+03    -6.4910     -0.630     -0.914    26.1439 0.0000e+00
     -0.642      0.001     4.3323     76.734      7.357   7.470047   169.6868      7.151   102.0632 9.7153e+02    -7.0800     -0.630     -0.913    25.9922 0.0000e+00
     -0.641      0.001     4.7822     80.871      6.483   6.579252    62.8172      7.153   103.2849 9.3304e+02    -7.9500     -0.628     -0.911    25.8860 0.0000e+00
     -0.641      0.001     5.3453     83.803      5.995   6.081977     4.5095      7.155   104.4513 9.0003e+02    -8.3344     -0.628     -0.911    25.8172 0.0000e+00
     -0.640      0.001     5.8504     85.493      5.435   5.512260    -0.7301      7.156   105.1529 8.8341e+02    -8.4147     -0.628     -0.911    25.7766 0.0000e+00
     -0.640      0.000     6.2840     85.998      5.256   5.329397    -0.5259      7.158   106.4326 9.8474e+02    -9.3990     -0.628     -0.910    25.7534 0.0000e+00
     -0.641 1.8628e-08     6.6275     85.657      5.256   5.328149     1.5604      7.158   108.5669 1.1567e+03   -11.1493     -0.629     -0.912    25.7379 0.0000e+00
     -0.641 2.0490e-07     6.8676     85.007      4.861   4.926994     4.0370      7.158   110.3955 1.2212e+03   -12.1214     -0.628     -0.911    25.7233 0.0000e+00
     -0.641 2.0490e-07     7.0087     84.374      4.286   4.343480     5.1070      7.158   109.8711 1.2356e+03   -12.2712     -0.628     -0.911    25.7099 0.0000e+00
     -0.641 1.8627e-08     7.0419     83.822      3.861   3.911167     5.1500      7.155   109.9710 1.3259e+03   -12.3113     -0.629     -0.912    25.6962 0.0000e+00
     -0.641 1.6934e-09     6.9954     83.365      3.394   3.437536     4.5902      7.151   114.6147 1.4034e+03   -12.0267     -0.628     -0.911    25.6824 0.0000e+00
     -0.641 1.5395e-10     6.9353     82.983      3.077   3.114510     3.5572      7.147   119.8998 1.4315e+03   -11.4260     -0.628     -0.911    25.6677 0.0000e+00
     -0.641 1.3995e-11     6.8873     82.658      3.199   3.236185     2.9809      7.145   127.1538 1.5256e+03   -11.0595     -0.628     -0.911    25.6521 0.0000e+00
     -0.641 1.2723e-12     6.8418     82.413      3.475   3.515062     2.8494      7.142   136.0724 1.6926e+03   -10.7046     -0.629     -0.912    25.6364 0.0000e+00
     -0.641 1.1566e-13     6.8082     82.242      3.533   3.572446     2.1081      7.138   140.5762 1.8501e+03    -6.8618     -0.628     -0.911    25.6200 0.0000e+00
     -0.640 1.0515e-14     6.7802     82.115      3.449   3.486599     0.7676      7.137   144.5256 1.9726e+03     0.1854     -0.628     -0.911    25.6028 0.0000e+00
     -0.640 9.5590e-16     6.7539     82.012      3.329   3.363957     0.0252      7.137   152.4200 2.0430e+03     3.9637     -0.628     -0.911    25.5859 0.0000e+00
     -0.640 8.6900e-17     6.7364     81.907      3.135   3.166482    -0.0517      7.138   160.8285 1.9121e+03     4.3544     -0.628     -0.911    25.5690 0.0000e+00
     -0.640 7.9000e-18     6.7261     81.803      2.971   2.999327    -0.0291      7.139   164.4535 1.4652e+03     5.2849     -0.628     -0.911    25.5517 0.0000e+00
     -0.640 7.1820e-19     6.7175     81.724      2.900   2.926538     0.0082      7.140   164.4157 9.1862e+02     6.8455     -0.628     -0.911    25.5344 0.0000e+00
     -0.640 6.5290e-20     6.7127     81.670      2.894   2.919853     0.0079      7.142   163.9849 5.7217e+02     7.6463     -0.628     -0.911    25.5169 0.0000e+00
     -0.640 5.9355e-21     6.7065     81.643      2.894   2.918498     0.0007      7.144   162.9439 4.5671e+02     7.7261     -0.628     -0.911    25.4982 0.0000e+00
     -0.640 5.3960e-22     6.6985     81.620      2.887   2.910152     0.0043      7.146   160.3482 4.3825e+02     7.7076     -0.628     -0.911    25.4779 0.0000e+00
     -0.640 4.9053e-23     6.6961     81.612      2.924   2.945636     0.0015      7.149   155.2288 5.3170e+02     7.5926     -0.628     -0.911    25.4561 0.0000e+00
     -0.640 4.4596e-24     6.6931     81.648      2.947   2.967452    -0.0078      7.153   148.5391 7.3628e+02     7.4972     -0.628     -0.911    25.4339 0.0000e+00
     -0.640 4.0874e-25     6.6952     81.678      2.902   2.920543    -0.0173      7.155   143.2194 9.0247e+02     7.4769     -0.628     -0.911    25.4111 0.0000e+00
     -0.640 7.3708e-26     6.6965     81.680      2.867   2.885229    -0.0208      7.156   141.3278 8.6493e+02     7.4837     -0.629     -0.912    25.3888 0.0000e+00
     -0.640 -9.990e-29     6.6954 -9.990e-29 -9.990e-29 -9.990e-29 -9.990e-29 -9.990e-29 -9.990e-29 6.8933e+02 -9.990e-29     -0.628     -0.911    25.3646 0.0000e+00
     -0.640 -9.990e-29     6.7048 -9.990e-29 -9.990e-29 -9.990e-29 -9.990e-29 -9.990e-29 -9.990e-29 5.9731e+02 -9.990e-29     -0.628     -0.911    25.3430 0.0000e+00
     -0.640 -9.990e-29     6.7113 -9.990e-29 -9.990e-29 -9.990e-29 -9.990e-29 -9.990e-29 -9.990e-29 5.2502e+02 -9.990e-29     -0.628     -0.911    25.3179 0.0000e+00
     -0.640 -9.990e-29     6.7104 -9.990e-29 -9.990e-29 -9.990e-29 -9.990e-29 -9.990e-29 -9.990e-29 4.6315e+02 -9.990e-29     -0.628     -0.911    25.3003 0.0000e+00
