* Sea-Bird SBE19plus  Data File:
* FileName = C:\DATA\071618_fcr_0003.hex
* Software version 2.6.3.104
* Temperature SN = 7809
* Conductivity SN = 7809
* System UpLoad Time = Jul 16 2018 16:09:49
* <ApplicationData>
* <Seaterm232>
* <SoftwareVersion>2.6.3.104</SoftwareVersion>
* <BuildDate>30-Jun-2017</BuildDate>
* </Seaterm232>
* </ApplicationData>
* <InstrumentState>
* <HardwareData DeviceType='SBE19plus' SerialNumber='01907809'>
*
*    <Manufacturer>Sea-Bird Electronics, Inc.</Manufacturer>
*
*    <FirmwareVersion>3.1.8</FirmwareVersion>
*
*    <FirmwareDate>Mar  9 2016 16:22:29</FirmwareDate>
*
*    <CommandSetVersion>1.4</CommandSetVersion>
*
*    <PCBAssembly PCBSerialNum='120721' AssemblyNum='41054J'/>
*
*    <PCBAssembly PCBSerialNum='120715' AssemblyNum='41967A'/>
*
*    <PCBAssembly PCBSerialNum='116699' AssemblyNum='41606'/>
*
*    <PCBAssembly PCBSerialNum='120719' AssemblyNum='41059D'/>
*
*    <MfgDate>28-Apr-2017</MfgDate>
*
*    <InternalSensors>
*
*       <Sensor id='Main Temperature'>
*
*          <type>temperature0</type>
*
*          <SerialNumber>01907809</SerialNumber>
*
*       </Sensor>
*
*       <Sensor id='Main Conductivity'>
*
*          <type>conductivity-0</type>
*
*          <SerialNumber>01907809</SerialNumber>
*
*       </Sensor>
*
*       <Sensor id='Main Pressure'>
*
*          <type>strain-0</type>
*
*          <SerialNumber>10586018</SerialNumber>
*
*       </Sensor>
*
*    </InternalSensors>
*
*    <ExternalSensors>
*
*       <Sensor id='volt 0'>
*
*          <type>pH</type>
*
*          <SerialNumber>27-0363</SerialNumber>
*
*       </Sensor>
*
*       <Sensor id='volt 1'>
*
*          <type>ORP</type>
*
*          <SerialNumber>27-0363</SerialNumber>
*
*       </Sensor>
*
*       <Sensor id='volt 2'>
*
*          <type>OXY</type>
*
*          <SerialNumber>43-0434</SerialNumber>
*
*       </Sensor>
*
*       <Sensor id='volt 3'>
*
*          <type>PAR</type>
*
*          <SerialNumber>1122</SerialNumber>
*
*       </Sensor>
*
*       <Sensor id='volt 4'>
*
*          <type>ECO AFL/FL</type>
*
*          <SerialNumber>FLNTURT-2496</SerialNumber>
*
*       </Sensor>
*
*       <Sensor id='volt 5'>
*
*          <type>ECO-NTU</type>
*
*          <SerialNumber>FLNTURT-2496</SerialNumber>
*
*       </Sensor>
*
*       <Sensor id='serial'>
*
*          <type>not assigned</type>
*
*          <SerialNumber>not assigned</SerialNumber>
*
*       </Sensor>
*
*    </ExternalSensors>
*
* </HardwareData>
* <StatusData DeviceType='SBE19plus' SerialNumber='01907809'>
*
*    <DateTime>2018-07-16T20:08:52</DateTime>
*
*    <LoggingState>not logging</LoggingState>
*
*    <EventSummary numEvents='0'/>
*
*    <Power>
*
*       <vMain>12.6</vMain>
*
*       <vLith>8.8</vLith>
*
*       <iMain>63.3</iMain>
*
*       <iPump>41.7</iPump>
*
*       <iExt01>13.9</iExt01>
*
*       <iExt2345>42.6</iExt2345>
*
*    </Power>
*
*    <MemorySummary>
*
*       <Bytes>61801</Bytes>
*
*       <Samples>2687</Samples>
*
*       <SamplesFree>2858101</SamplesFree>
*
*       <SampleLength>23</SampleLength>
*
*       <Profiles>4</Profiles>
*
*    </MemorySummary>
*
* </StatusData>
* <ConfigurationData DeviceType='SBE19plus' SerialNumber='01907809'>
*
*    <ProfileMode>
*
*       <ScansToAverage>1</ScansToAverage>
*
*       <MinimumCondFreq>5</MinimumCondFreq>
*
*       <PumpDelay>45</PumpDelay>
*
*       <AutoRun>no</AutoRun>
*
*       <IgnoreSwitch>no</IgnoreSwitch>
*
*    </ProfileMode>
*
*    <Battery>
*
*       <Type>alkaline</Type>
*
*       <CutOff>7.5</CutOff>
*
*    </Battery>
*
*    <DataChannels>
*
*       <ExtVolt0>yes</ExtVolt0>
*
*       <ExtVolt1>yes</ExtVolt1>
*
*       <ExtVolt2>yes</ExtVolt2>
*
*       <ExtVolt3>yes</ExtVolt3>
*
*       <ExtVolt4>yes</ExtVolt4>
*
*       <ExtVolt5>yes</ExtVolt5>
*
*       <SBE38>no</SBE38>
*
*       <WETLABS>no</WETLABS>
*
*       <OPTODE>no</OPTODE>
*
*       <SBE63>no</SBE63>
*
*       <SeaFET>no</SeaFET>
*
*       <GTD>no</GTD>
*
*    </DataChannels>
*
*    <EchoCharacters>yes</EchoCharacters>
*
*    <OutputExecutedTag>yes</OutputExecutedTag>
*
*    <OutputFormat>raw HEX</OutputFormat>
*
* </ConfigurationData>
* <CalibrationCoefficients DeviceType='SBE19plus' SerialNumber='01907809'>
*
*    <Calibration format='TEMP1' id='Main Temperature'>
*
*       <SerialNum>01907809</SerialNum>
*
*       <CalDate>09-Mar-18</CalDate>
*
*       <TA0>1.210932e-03</TA0>
*
*       <TA1>2.843566e-04</TA1>
*
*       <TA2>-1.945074e-06</TA2>
*
*       <TA3>2.128067e-07</TA3>
*
*       <TOFFSET>0.000000e+00</TOFFSET>
*
*    </Calibration>
*
*    <Calibration format='WBCOND0' id='Main Conductivity'>
*
*       <SerialNum>01907809</SerialNum>
*
*       <CalDate>09-Mar-18</CalDate>
*
*       <G>-1.006721e+00</G>
*
*       <H>1.269065e-01</H>
*
*       <I>-1.405844e-04</I>
*
*       <J>2.478371e-05</J>
*
*       <CPCOR>-9.570000e-08</CPCOR>
*
*       <CTCOR>3.250000e-06</CTCOR>
*
*       <CSLOPE>1.000000e+00</CSLOPE>
*
*    </Calibration>
*
*    <Calibration format='STRAIN0' id='Main Pressure'>
*
*       <SerialNum>10586018</SerialNum>
*
*       <CalDate>07-Mar-18</CalDate>
*
*       <PA0>-4.081764e-02</PA0>
*
*       <PA1>4.851884e-04</PA1>
*
*       <PA2>-3.511682e-12</PA2>
*
*       <PTCA0>5.252134e+05</PTCA0>
*
*       <PTCA1>1.795324e+00</PTCA1>
*
*       <PTCA2>-2.843535e-01</PTCA2>
*
*       <PTCB0>2.516687e+01</PTCB0>
*
*       <PTCB1>3.750000e-04</PTCB1>
*
*       <PTCB2>0.000000e+00</PTCB2>
*
*       <PTEMPA0>-5.378069e+01</PTEMPA0>
*
*       <PTEMPA1>5.366207e+01</PTEMPA1>
*
*       <PTEMPA2>4.872143e-02</PTEMPA2>
*
*       <POFFSET>5.000000e-01</POFFSET>
*
*       <PRANGE>1.600000e+02</PRANGE>
*
*    </Calibration>
*
*    <Calibration format='VOLT0' id='Volt 0'>
*
*       <OFFSET>-4.920000e-02</OFFSET>
*
*       <SLOPE>1.248122e+00</SLOPE>
*
*    </Calibration>
*
*    <Calibration format='VOLT0' id='Volt 1'>
*
*       <OFFSET>-4.784000e-02</OFFSET>
*
*       <SLOPE>1.248871e+00</SLOPE>
*
*    </Calibration>
*
*    <Calibration format='VOLT0' id='Volt 2'>
*
*       <OFFSET>-4.864632e-02</OFFSET>
*
*       <SLOPE>1.248714e+00</SLOPE>
*
*    </Calibration>
*
*    <Calibration format='VOLT0' id='Volt 3'>
*
*       <OFFSET>-4.743790e-02</OFFSET>
*
*       <SLOPE>1.248571e+00</SLOPE>
*
*    </Calibration>
*
*    <Calibration format='VOLT0' id='Volt 4'>
*
*       <OFFSET>-4.671263e-02</OFFSET>
*
*       <SLOPE>1.248951e+00</SLOPE>
*
*    </Calibration>
*
*    <Calibration format='VOLT0' id='Volt 5'>
*
*       <OFFSET>-4.871053e-02</OFFSET>
*
*       <SLOPE>1.249136e+00</SLOPE>
*
*    </Calibration>
*
*    <Calibration format='FREQ0' id='external frequency channel'>
*
*       <EXTFREQSF>1.000014e+00</EXTFREQSF>
*
*    </Calibration>
*
* </CalibrationCoefficients>
* <EventCounters DeviceType='SBE19plus' SerialNumber='01907809'>
*
*    <EventSummary numEvents='0'/>
*
* </EventCounters></InstrumentState>
* <Headers>
*
* cast   3 16 Jul 2018 16:01:54 samples 1026 to 1742, avg = 1, stop = mag switch
*
# nquan = 17
# nvalues = 620                         
# units = specified
# name 0 = depFM: Depth [fresh water, m]
# name 1 = tv290C: Temperature [ITS-90, deg C]
# name 2 = sbeox0Mg/L: Oxygen, SBE 43 [mg/l]
# name 3 = sbeox0PS: Oxygen, SBE 43 [% saturation]
# name 4 = c0uS/cm: Conductivity [uS/cm]
# name 5 = specc: Specific Conductance [uS/cm]
# name 6 = ph: pH
# name 7 = orp: Oxidation Reduction Potential [mV]
# name 8 = flECO-AFL: Fluorescence, WET Labs ECO-AFL/FL [mg/m^3]
# name 9 = turbWETntu0: Turbidity, WET Labs ECO [NTU]
# name 10 = sal00: Salinity, Practical [PSU]
# name 11 = dz/dtM: Descent Rate [m/s]
# name 12 = prdM: Pressure, Strain Gauge [db]
# name 13 = prdE: Pressure, Strain Gauge [psi]
# name 14 = scan: Scan Count
# name 15 = par/sat/log: PAR/Logarithmic, Satlantic
# name 16 = flag:  0.000e+00
# span 0 =     -0.538,      5.341       
# span 1 =    11.4177,    27.9675       
# span 2 =    -0.1271,    14.8315       
# span 3 =     -1.209,    173.259       
# span 4 =   1.041889,  39.347891       
# span 5 =      1.003,     51.457       
# span 6 =      6.274,      8.746       
# span 7 =    74.6047,  1240.2295       
# span 8 =    -0.2547,    18.5320       
# span 9 =    -0.3586,    15.7147       
# span 10 =     0.0125,     0.0268      
# span 11 =     -0.220,      0.187      
# span 12 =     -0.527,      5.237      
# span 13 =     -0.764,      7.596      
# span 14 =          1,        620      
# span 15 = 4.5989e+00, 1.6293e+03      
# span 16 = 0.0000e+00, 0.0000e+00      
# interval = seconds: 0.25
# start_time = Jul 16 2018 16:01:54 [Instrument's time stamp, header]
# bad_flag = -9.990e-29
# <Sensors count="9" >
#   <sensor Channel="1" >
#     <!-- Count, Temperature -->
#     <TemperatureSensor SensorID="58" >
#       <SerialNumber>7809</SerialNumber>
#       <CalibrationDate>09-Mar-18</CalibrationDate>
#       <A0>1.21093245e-003</A0>
#       <A1>2.84356597e-004</A1>
#       <A2>-1.94507398e-006</A2>
#       <A3>2.12806664e-007</A3>
#       <Slope>1.00000000</Slope>
#       <Offset>0.0000</Offset>
#     </TemperatureSensor>
#   </sensor>
#   <sensor Channel="2" >
#     <!-- Frequency 0, Conductivity -->
#     <ConductivitySensor SensorID="3" >
#       <SerialNumber>7809</SerialNumber>
#       <CalibrationDate>09-Mar-18</CalibrationDate>
#       <UseG_J>1</UseG_J>
#       <!-- Cell const and series R are applicable only for wide range sensors. -->
#       <SeriesR>0.0000</SeriesR>
#       <CellConst>2000.0000</CellConst>
#       <ConductivityType>0</ConductivityType>
#       <Coefficients equation="0" >
#         <A>0.00000000e+000</A>
#         <B>0.00000000e+000</B>
#         <C>0.00000000e+000</C>
#         <D>0.00000000e+000</D>
#         <M>0.0</M>
#         <CPcor>-9.57000000e-008</CPcor>
#       </Coefficients>
#       <Coefficients equation="1" >
#         <G>-1.00672082e+000</G>
#         <H>1.26906489e-001</H>
#         <I>-1.40584351e-004</I>
#         <J>2.47837121e-005</J>
#         <CPcor>-9.57000000e-008</CPcor>
#         <CTcor>3.2500e-006</CTcor>
#         <!-- WBOTC not applicable unless ConductivityType = 1. -->
#         <WBOTC>0.00000000e+000</WBOTC>
#       </Coefficients>
#       <Slope>1.00000000</Slope>
#       <Offset>0.00000</Offset>
#     </ConductivitySensor>
#   </sensor>
#   <sensor Channel="3" >
#     <!-- Count, Pressure, Strain Gauge -->
#     <PressureSensor SensorID="46" >
#       <SerialNumber>7809</SerialNumber>
#       <CalibrationDate>07-Mar-18</CalibrationDate>
#       <PA0>-4.08176359e-002</PA0>
#       <PA1>4.85188419e-004</PA1>
#       <PA2>-3.51168169e-012</PA2>
#       <PTEMPA0>-5.37806900e+001</PTEMPA0>
#       <PTEMPA1>5.36620721e+001</PTEMPA1>
#       <PTEMPA2>4.87214332e-002</PTEMPA2>
#       <PTCA0>5.25213435e+005</PTCA0>
#       <PTCA1>1.79532409e+000</PTCA1>
#       <PTCA2>-2.84353509e-001</PTCA2>
#       <PTCB0>2.51668750e+001</PTCB0>
#       <PTCB1>3.75000000e-004</PTCB1>
#       <PTCB2>0.00000000e+000</PTCB2>
#       <Offset>0.000000</Offset>
#     </PressureSensor>
#   </sensor>
#   <sensor Channel="4" >
#     <!-- A/D voltage 0, pH -->
#     <pH_Sensor SensorID="43" >
#       <SerialNumber>0363</SerialNumber>
#       <CalibrationDate>16-Mar-18</CalibrationDate>
#       <Slope>4.6194</Slope>
#       <Offset>2.5947</Offset>
#     </pH_Sensor>
#   </sensor>
#   <sensor Channel="5" >
#     <!-- A/D voltage 1, Oxidation Reduction Potential -->
#     <OxidationReductionPotentialSensor SensorID="41" >
#       <SerialNumber>0363</SerialNumber>
#       <CalibrationDate>16-Mar-18</CalibrationDate>
#       <B>2.499480</B>
#       <M>-0.496195</M>
#       <Offset>0.0</Offset>
#     </OxidationReductionPotentialSensor>
#   </sensor>
#   <sensor Channel="6" >
#     <!-- A/D voltage 2, Oxygen, SBE 43 -->
#     <OxygenSensor SensorID="38" >
#       <SerialNumber>0434</SerialNumber>
#       <CalibrationDate>13-Mar-18</CalibrationDate>
#       <Use2007Equation>1</Use2007Equation>
#       <CalibrationCoefficients equation="0" >
#         <!-- Coefficients for Owens-Millard equation. -->
#         <Boc>0.0000</Boc>
#         <Soc>0.0000e+000</Soc>
#         <offset>0.0000</offset>
#         <Pcor>0.00e+000</Pcor>
#         <Tcor>0.0000</Tcor>
#         <Tau>0.0</Tau>
#       </CalibrationCoefficients>
#       <CalibrationCoefficients equation="1" >
#         <!-- Coefficients for Sea-Bird equation - SBE calibration in 2007 and later. -->
#         <Soc>4.5718e-001</Soc>
#         <offset>-0.6113</offset>
#         <A>-4.0649e-003</A>
#         <B> 2.0945e-004</B>
#         <C>-3.3182e-006</C>
#         <D0> 2.5826e+000</D0>
#         <D1> 1.92634e-004</D1>
#         <D2>-4.64803e-002</D2>
#         <E> 3.6000e-002</E>
#         <Tau20> 1.2200</Tau20>
#         <H1>-3.3000e-002</H1>
#         <H2> 5.0000e+003</H2>
#         <H3> 1.4500e+003</H3>
#       </CalibrationCoefficients>
#     </OxygenSensor>
#   </sensor>
#   <sensor Channel="7" >
#     <!-- A/D voltage 3, PAR/Logarithmic, Satlantic -->
#     <PARLog_SatlanticSensor SensorID="76" >
#       <SerialNumber>1122</SerialNumber>
#       <CalibrationDate>22-Jun-2017</CalibrationDate>
#       <a0>9.6090e-001</a0>
#       <a1>8.0780e-001</a1>
#       <Im>1.3589e+000</Im>
#       <Multiplier>1.0000e+000</Multiplier>
#     </PARLog_SatlanticSensor>
#   </sensor>
#   <sensor Channel="8" >
#     <!-- A/D voltage 4, Fluorometer, WET Labs ECO-AFL/FL -->
#     <FluoroWetlabECO_AFL_FL_Sensor SensorID="20" >
#       <SerialNumber>FLNTURT-2496</SerialNumber>
#       <CalibrationDate>25-Jan-2017</CalibrationDate>
#       <ScaleFactor>5.30000000e+001</ScaleFactor>
#       <!-- Dark output -->
#       <Vblank>0.0560</Vblank>
#     </FluoroWetlabECO_AFL_FL_Sensor>
#   </sensor>
#   <sensor Channel="9" >
#     <!-- A/D voltage 5, Turbidity Meter, WET Labs, ECO-NTU -->
#     <TurbidityMeter SensorID="67" >
#       <SerialNumber>FLNTURT-2496</SerialNumber>
#       <CalibrationDate>25-Jan-2017</CalibrationDate>
#       <ScaleFactor>176.000000</ScaleFactor>
#       <!-- Dark output -->
#       <DarkVoltage>0.072000</DarkVoltage>
#     </TurbidityMeter>
#   </sensor>
# </Sensors>
# datcnv_date = Jul 16 2018 16:18:50, 7.26.7.114 [datcnv_vars = 16]
# datcnv_in = C:\DATA\071618_fcr30.hex C:\DATA\SBE19plusV2_7809.xmlcon
# datcnv_skipover = 0
# datcnv_ox_hysteresis_correction = yes
# datcnv_ox_tau_correction = yes
# filter_date = Jul 16 2018 16:19:08, 7.26.7.114
# filter_in = C:\DATA\071618_fcr30.cnv
# filter_low_pass_tc_A = 0.030
# filter_low_pass_tc_B = 0.150
# filter_low_pass_A_vars = tv290C c0uS/cm par/sat/log
# filter_low_pass_B_vars = prdM prdE
# alignctd_date = Jul 16 2018 16:19:23, 7.26.7.114
# alignctd_in = C:\DATA\071618_fcr30.cnv
# alignctd_adv = tv290C 0.500, sbeox0Mg/L 3.000, sbeox0PS 3.000                                                                                                                                                                      
# file_type = ascii
*END*
     -0.537    26.8404     8.0551    101.201   1.041889      1.003      6.958   190.4479    -0.1334    -0.2243     0.0125 -2.105e-16     -0.527     -0.764          1 1.2315e+03 0.0000e+00
     -0.537    26.8411     8.0119    101.210   1.095128      1.056      6.969   188.5172    -0.1375    -0.3183     0.0125      0.000     -0.527     -0.764          2 1.1057e+03 0.0000e+00
     -0.537    26.8414     7.9812    101.185   1.208829      1.164      6.973   188.3279    -0.1738    -0.2914     0.0125      0.000     -0.527     -0.764          3 3.8576e+02 0.0000e+00
     -0.537    26.8424     7.9651    101.200   1.196460      1.164      6.972   182.8764    -0.1415    -0.2243     0.0125      0.000     -0.527     -0.764          4 2.2066e+02 0.0000e+00
     -0.538    26.8421     7.9518    101.166   1.436197      1.352      6.978   179.3179    -0.1415    -0.2780     0.0125      0.000     -0.527     -0.764          5 3.0969e+02 0.0000e+00
     -0.537    26.8442     7.9423    101.159   1.502624      1.514      6.980   179.5450    -0.1779    -0.2377     0.0125      0.000     -0.527     -0.764          6 2.5105e+02 0.0000e+00
     -0.537    26.8426     7.9360    101.184   1.676331      1.514      6.980   178.9014    -0.1779    -0.3586     0.0125      0.000     -0.527     -0.764          7 2.5823e+02 0.0000e+00
     -0.537    26.8469     7.9287    101.186   1.841782      1.917      6.986   178.2957    -0.1738    -0.2780     0.0125     -0.000     -0.527     -0.764          8 2.4005e+02 0.0000e+00
     -0.537    26.8421     7.9312    101.280   2.244173      1.971      6.990   176.4786    -0.1860    -0.2512     0.0125     -0.000     -0.527     -0.764          9 2.9347e+02 0.0000e+00
     -0.537    26.8588     7.9537    101.560   1.619680      1.863      7.005  1160.5021    -0.1698    -0.2646     0.0125     -0.000     -0.527     -0.764         10 3.4523e+02 0.0000e+00
     -0.538    27.0577     7.9821    101.881   2.382088      1.810      7.029  1240.2295    -0.1617    -0.1974     0.0125     -0.000     -0.523     -0.759         11 4.0936e+02 0.0000e+00
     -0.529    27.3578     8.0168    102.285  11.009094     10.851      6.938  1240.2295    -0.1415    -0.2512     0.0150      0.002     -0.506     -0.734         12 4.0290e+02 0.0000e+00
     -0.477    27.5619     8.0514    102.705  19.228607     18.504      7.526  1240.2295    -0.2224     0.2322     0.0178      0.017     -0.469     -0.681         13 4.3139e+02 0.0000e+00
     -0.435    27.6820     8.0901    103.184  27.497785     25.943      7.946  1240.2295    -0.2305     0.0845     0.0207      0.040     -0.427     -0.620         14 5.7932e+02 0.0000e+00
     -0.396    27.7596     8.1062    103.377  36.583080     35.333      8.220   120.2605    -0.2345     0.1920     0.0244      0.065     -0.388     -0.563         15 6.1195e+02 0.0000e+00
     -0.358    27.8217     8.0764    102.980  37.600450     35.358      8.348   107.8434    -0.2224     0.2860     0.0245      0.092     -0.352     -0.510         16 5.7979e+02 0.0000e+00
     -0.323    27.8810     7.9959    101.931  37.114146     35.360      8.415    74.6047    -0.2305     0.2054     0.0245      0.116     -0.317     -0.460         17 5.9046e+02 0.0000e+00
     -0.292    27.9339     7.8897    100.550  37.603474     35.477      8.473    78.3147    -0.2224     0.1517     0.0246      0.134     -0.277     -0.401         18 5.8850e+02 0.0000e+00
     -0.228    27.9675     7.7579     98.850  37.466017     35.490      8.503    77.4818    -0.2547     0.1517     0.0246      0.152     -0.221     -0.321         19 5.9076e+02 0.0000e+00
     -0.155    27.9647     7.6040     96.853  37.581781     35.454      8.497    78.2390    -0.2021     0.2860     0.0246      0.170     -0.160     -0.231         20 6.0443e+02 0.0000e+00
     -0.106    27.9416     7.4752     95.171  37.459384     35.378      8.505    80.8511     0.9867    15.6878     0.0246      0.178     -0.110     -0.159         21 6.2109e+02 0.0000e+00
     -0.075    27.9203     7.3853     93.996  37.440362     35.328      8.509    84.3340     0.9665    15.6610     0.0245      0.184     -0.073     -0.105         22 6.4083e+02 0.0000e+00
     -0.037    27.9082     7.3053     92.964  37.368173     35.291      8.505    87.5519     0.9665    15.7147     0.0245      0.187     -0.039     -0.056         23 6.4157e+02 0.0000e+00
     -0.005    27.9009     7.2406     92.134  37.371271     35.305      8.503    90.7319     0.9705    15.6207     0.0245      0.184     -0.010     -0.015         24 6.6413e+02 0.0000e+00
      0.011    27.8938     7.2374     92.089  37.317876     35.260      8.506    93.2683     1.6013     0.8499     0.0245      0.174      0.010      0.014         25 6.4909e+02 0.0000e+00
      0.025    27.8844     7.2990     92.871  37.315990     35.265      8.509    95.1990     1.6418     0.7291     0.0245      0.154      0.026      0.038         26 5.0963e+02 0.0000e+00
      0.043    27.8712     7.3823     93.936  37.314303     35.270      8.513    97.0540     1.6215     0.7291     0.0245      0.126      0.043      0.062         27 4.5384e+02 0.0000e+00
      0.063    27.8573     7.4530     94.851  37.319979     35.276      8.515    97.9248     1.6296     0.7694     0.0245      0.102      0.060      0.087         28 4.4506e+02 0.0000e+00
      0.076    27.8442     7.4877     95.316  37.308932     35.285      8.517    99.9691     1.6175     0.8634     0.0245      0.087      0.073      0.106         29 4.2558e+02 0.0000e+00
      0.084    27.8242     7.4680     95.094  37.268737     35.242      8.524   101.1805     1.7792     0.8634     0.0245      0.075      0.080      0.116         30 4.4267e+02 0.0000e+00
      0.086    27.7992     7.4106     94.391  37.251369     35.250      8.530   102.9976     1.7388     0.8365     0.0245      0.061      0.082      0.120         31 4.4575e+02 0.0000e+00
      0.083    27.7815     7.3245     93.318  37.211915     35.211      8.531   104.7012     1.7428     0.7828     0.0245      0.048      0.079      0.115         32 4.4585e+02 0.0000e+00
      0.074    27.7730     7.2292     92.121  37.199206     35.227      8.529   106.2912     1.7590     0.7828     0.0245      0.035      0.072      0.105         33 4.4810e+02 0.0000e+00
      0.065    27.7685     7.1546     91.187  37.207874     35.239      8.531   107.6162     1.8278     0.8902     0.0245      0.020      0.064      0.093         34 4.5135e+02 0.0000e+00
      0.059    27.7662     7.1408     91.028  37.201136     35.245      8.527   109.5091     1.8156     0.8768     0.0245      0.004      0.057      0.083         35 4.6697e+02 0.0000e+00
      0.050    27.7655     7.1637     91.329  37.148277     35.195      8.525   110.5312     1.8601     0.7828     0.0244     -0.010      0.048      0.070         36 4.7080e+02 0.0000e+00
      0.037    27.7682     7.2735     92.720  37.155020     35.196      8.523   111.5912     1.8197     0.7559     0.0244     -0.022      0.039      0.057         37 4.5946e+02 0.0000e+00
      0.032    27.7771     7.4448     94.887  37.192747     35.250      8.521   112.6891     1.6054     0.7291     0.0245     -0.028      0.035      0.051         38 4.6426e+02 0.0000e+00
      0.038    27.7913     7.6248     97.147  37.219967     35.248      8.522   113.9005     1.6215     0.7694     0.0245     -0.028      0.038      0.055         39 4.4262e+02 0.0000e+00
      0.044    27.8078     7.7676     98.947  37.239783     35.295      8.521   115.2255     1.6134     0.8634     0.0245     -0.023      0.043      0.063         40 4.1900e+02 0.0000e+00
      0.049    27.8247     7.8642    100.177  37.168082     35.180      8.517   117.1941     1.6701     0.8634     0.0244     -0.014      0.048      0.070         41 4.0597e+02 0.0000e+00
      0.054    27.8392     7.9239    100.910  37.190550     35.222      8.515   117.9512     1.6984     0.7828     0.0245     -0.005      0.055      0.080         42 3.9124e+02 0.0000e+00
      0.065    27.8502     7.9375    101.041  37.271132     35.263      8.513   117.7620     1.7024     0.8902     0.0245      0.005      0.068      0.099         43 3.8868e+02 0.0000e+00
      0.089    27.8600     7.9051    100.595  37.305069     35.306      8.516   117.1941     1.7145     0.8097     0.0245      0.019      0.092      0.134         44 3.7869e+02 0.0000e+00
      0.128    27.8707     7.8264     99.569  37.326268     35.299      8.510   117.9512     1.7024     0.8365     0.0245      0.039      0.131      0.189         45 3.5483e+02 0.0000e+00
      0.182    27.8756     7.7316     98.345  37.363386     35.345      8.508   119.3898     1.7186     0.8365     0.0245      0.064      0.182      0.263         46 3.3516e+02 0.0000e+00
      0.246    27.8711     7.6539     97.344  37.318192     35.286      8.505   121.0934     1.6822     0.9036     0.0245      0.094      0.238      0.345         47 3.2050e+02 0.0000e+00
      0.299    27.8600     7.5937     96.566  37.145228     35.123      8.506   122.4563     1.6781     0.8365     0.0244      0.126      0.283      0.411         48 3.1424e+02 0.0000e+00
      0.321    27.8410     7.5543     96.056  37.015100     34.995      8.513   123.0241     1.7024     0.8365     0.0244      0.149      0.306      0.444         49 3.0210e+02 0.0000e+00
      0.317    27.8304     7.5274     95.708  37.005581     35.001      8.520   123.9327     1.6741     0.8365     0.0244      0.154      0.309      0.448         50 3.0912e+02 0.0000e+00
      0.309    27.8286     7.5047     95.413  37.038441     35.041      8.528   125.2198     1.8763     0.7694     0.0244      0.141      0.304      0.441         51 3.2730e+02 0.0000e+00
      0.302    27.8140     7.4685     94.948  37.152171     35.154      8.531   126.0148     1.9127     0.9171     0.0244      0.114      0.301      0.436         52 3.0745e+02 0.0000e+00
      0.309    27.7911     7.4298     94.451  37.249627     35.260      8.536   127.1127     1.8803     0.8634     0.0245      0.080      0.302      0.438         53 2.8611e+02 0.0000e+00
      0.312    27.7721     7.3990     94.056  37.273081     35.270      8.539   127.7563     1.9248     0.8231     0.0245      0.046      0.305      0.442         54 3.6155e+02 0.0000e+00
      0.313    27.7577     7.4019     94.090  37.300949     35.339      8.540   128.3998     1.7833     0.8365     0.0245      0.017      0.307      0.445         55 4.1585e+02 0.0000e+00
      0.314    27.7476     7.4290     94.433  37.274275     35.298      8.543   129.2327     1.7550     0.6888     0.0245      0.002      0.307      0.445         56 3.7461e+02 0.0000e+00
      0.311    27.7402     7.4645     94.877  37.246967     35.308      8.543   129.8763     1.7590     0.8231     0.0245     -0.002      0.305      0.443         57 3.8570e+02 0.0000e+00
      0.309    27.7334     7.4965     95.271  37.216303     35.262      8.538   131.0877     1.7469     0.8634     0.0245      0.000      0.303      0.440         58 3.6970e+02 0.0000e+00
      0.308    27.7280     7.5333     95.724  37.253121     35.320      8.538   131.7691     1.8358     0.8231     0.0245      0.002      0.303      0.439         59 3.3508e+02 0.0000e+00
      0.309    27.7240     7.5681     96.154  37.260471     35.324      8.539   132.9427     1.8278     0.8365     0.0245      0.001      0.304      0.440         60 3.3961e+02 0.0000e+00
      0.312    27.7209     7.6045     96.609  37.266480     35.328      8.534   133.5863     1.8075     0.7828     0.0245     -0.001      0.306      0.444         61 3.0958e+02 0.0000e+00
      0.316    27.7179     7.6390     97.050  37.304965     35.384      8.533   135.2142     1.7914     0.7962     0.0245      0.000      0.310      0.449         62 3.7069e+02 0.0000e+00
      0.319    27.7151     7.6530     97.231  37.271897     35.333      8.531   136.1227     1.8844     0.9036     0.0245      0.002      0.312      0.452         63 5.5979e+02 0.0000e+00
      0.319    27.7124     7.6399     97.071  37.248315     35.335      8.528   136.5392     1.9127     0.7828     0.0245      0.004      0.312      0.453         64 5.8281e+02 0.0000e+00
      0.318    27.7106     7.6199     96.821  37.215676     35.284      8.528   136.9556     1.9248     0.7828     0.0245      0.005      0.312      0.453         65 4.8432e+02 0.0000e+00
      0.318    27.7096     7.5992     96.559  37.193876     35.285      8.530   137.2206     1.8803     0.8365     0.0245      0.006      0.312      0.452         66 4.4384e+02 0.0000e+00
      0.317    27.7054     7.5714     96.205  37.216126     35.287      8.528   138.1292     1.8722     0.8365     0.0245      0.005      0.311      0.452         67 4.0255e+02 0.0000e+00
      0.318    27.6980     7.5295     95.672  37.247309     35.340      8.527   138.6213     1.8925     0.8365     0.0245      0.003      0.311      0.452         68 3.6100e+02 0.0000e+00
      0.318    27.6899     7.4695     94.911  37.273711     35.343      8.525   139.4542     1.9208     0.8097     0.0245      0.001      0.311      0.452         69 3.2740e+02 0.0000e+00
      0.317    27.6820     7.3917     93.905  37.242590     35.348      8.525   139.7570     1.8682     0.8768     0.0245     -0.000      0.311      0.452         70 3.3330e+02 0.0000e+00
      0.318    27.6787     7.3236     93.004  37.167400     35.247      8.526   140.5520     1.9046     0.7962     0.0244     -0.001      0.312      0.453         71 4.3145e+02 0.0000e+00
      0.319    27.6800     7.2982     92.645  37.130008     35.253      8.532   140.2492     1.9693     0.9305     0.0244      0.000      0.314      0.455         72 4.2978e+02 0.0000e+00
      0.323    27.6818     7.3081     92.740  37.170489     35.255      8.531   140.5142     1.9491     0.8097     0.0244      0.002      0.315      0.457         73 4.0369e+02 0.0000e+00
      0.320    27.6852     7.3185     92.855  37.176345     35.307      8.530   141.2713     1.9450     0.8365     0.0245      0.002      0.315      0.457         74 4.3746e+02 0.0000e+00
      0.321    27.6879     7.3187     92.849  37.093061     35.173      8.532   142.0663     1.9531     0.7559     0.0244      0.002      0.316      0.459         75 3.5484e+02 0.0000e+00
      0.327    27.6882     7.3001     92.608  37.185154     35.304      8.533   142.3692     1.9450     0.8097     0.0245      0.004      0.320      0.465         76 3.6285e+02 0.0000e+00
      0.333    27.6877     7.2736     92.267  37.210034     35.302      8.533   143.0127     1.9612     0.8499     0.0245      0.006      0.328      0.475         77 3.2777e+02 0.0000e+00
      0.343    27.6878     7.2325     91.744  37.210395     35.302      8.534   144.5649     1.9572     0.7559     0.0245      0.011      0.338      0.490         78 3.7556e+02 0.0000e+00
      0.359    27.6878     7.1948     91.263  37.184705     35.302      8.533   154.1806     1.9652     0.8097     0.0245      0.017      0.348      0.504         79 6.3289e+02 0.0000e+00
      0.361    27.6776     7.1527     90.729  36.975069     35.063      8.522   147.3285     1.8318     0.7291     0.0244      0.022      0.350      0.508         80 6.0017e+02 0.0000e+00
      0.355    27.6564     7.1112     90.201  36.937409     35.063      8.520   164.3264     1.8358     0.8097     0.0244      0.022      0.340      0.493         81 6.2013e+02 0.0000e+00
      0.325    27.6338     7.0688     89.662  36.964635     35.070      8.526   149.1456     1.8318     0.8365     0.0244      0.014      0.306      0.444         82 7.0233e+02 0.0000e+00
      0.255    27.6160     7.0146     88.973  37.000510     35.137      8.540   149.1078     1.8278     0.8499     0.0244     -0.014      0.244      0.355         83 7.2207e+02 0.0000e+00
      0.169    27.6054     6.9479     88.126  37.011410     35.152      8.558   150.2435     1.8278     0.7962     0.0244     -0.059      0.167      0.243         84 1.0719e+03 0.0000e+00
      0.089    27.5999     6.8797     87.260  36.980739     35.138      8.573   146.4956     1.8278     0.8231     0.0244     -0.114      0.092      0.133         85 1.3531e+03 0.0000e+00
      0.021    27.5964     6.8119     86.399  36.949709     35.118      8.582   146.7606     1.8197     0.8097     0.0244     -0.169      0.033      0.048         86 1.1179e+03 0.0000e+00
     -0.009    27.5942     6.7473     85.578  36.901733     35.069      8.578   147.4799     1.8278     0.8634     0.0243     -0.208     -0.000     -0.001         87 8.1898e+02 0.0000e+00
     -0.015    27.5925     6.6956     84.922  36.892150     35.071      8.573   147.2906     1.6256     0.3934     0.0243     -0.220     -0.011     -0.016         88 6.9845e+02 0.0000e+00
     -0.012    27.5914     6.6537     84.390  36.902319     35.073      8.561   148.5399     1.6337     0.4605     0.0243     -0.207     -0.011     -0.016         89 8.0614e+02 0.0000e+00
     -0.008    27.5906     6.6230     83.999  36.918738     35.100      8.535   149.0321     1.6498     0.2860     0.0244     -0.170     -0.009     -0.013         90 1.1485e+03 0.0000e+00
     -0.008    27.5901     6.5967     83.665  36.901377     35.074      8.529   149.1835     1.6498     0.5008     0.0243     -0.119     -0.009     -0.013         91 8.8570e+02 0.0000e+00
     -0.010    27.5894     6.5705     83.332  36.894266     35.075      8.528   149.1835     1.3223     0.7291     0.0243     -0.070     -0.009     -0.013         92 7.4613e+02 0.0000e+00
     -0.010    27.5886     6.5398     82.941  36.897929     35.075      8.526   149.9028     1.2980     0.7559     0.0243     -0.031     -0.009     -0.013         93 1.2863e+03 0.0000e+00
     -0.008    27.5879     6.5009     82.446  36.896820     35.076      8.530   149.7892     1.3102     0.7559     0.0243     -0.007     -0.008     -0.011         94 1.5340e+03 0.0000e+00
     -0.005    27.5870     6.4540     81.851  36.895647     35.076      8.532   149.7513     1.3142     0.8634     0.0243      0.002     -0.005     -0.008         95 1.5464e+03 0.0000e+00
     -0.003    27.5865     6.4009     81.177  36.869730     35.050      8.533   150.2813     1.2940     0.8231     0.0243      0.004     -0.003     -0.005         96 1.5712e+03 0.0000e+00
     -0.002    27.5860     6.3512     80.546  36.840094     35.024      8.534   151.0385     1.5407     1.2662     0.0243      0.004     -0.002     -0.003         97 1.5787e+03 0.0000e+00
     -0.002    27.5853     6.3017     79.917  36.843550     35.024      8.534   151.4171     1.4881     1.3065     0.0243      0.004     -0.002     -0.003         98 1.5749e+03 0.0000e+00
     -0.003    27.5847     6.2589     79.373  36.835771     35.025      8.533   151.3792     1.5204     1.3602     0.0243      0.004     -0.002     -0.003         99 1.5629e+03 0.0000e+00
     -0.001    27.5840     6.2207     78.889  36.849775     35.025      8.533   151.9471     1.5164     1.3065     0.0243      0.004     -0.001     -0.002        100 1.5635e+03 0.0000e+00
      0.001    27.5835     6.1876     78.468  36.855781     35.052      8.532   152.5149     1.6377     0.8499     0.0243      0.004      0.001      0.001        101 1.5590e+03 0.0000e+00
      0.002    27.5828     6.1620     78.142  36.798638     34.973      8.534   153.0828     1.6377     0.7828     0.0243      0.004      0.002      0.003        102 1.5608e+03 0.0000e+00
      0.003    27.5820     6.1297     77.732  36.831911     35.026      8.532   153.4992     1.6579     0.8097     0.0243      0.004      0.003      0.004        103 1.5495e+03 0.0000e+00
      0.003    27.5814     6.0974     77.321  36.844033     35.027      8.532   153.1206     1.6175     0.7425     0.0243      0.003      0.003      0.005        104 1.5477e+03 0.0000e+00
      0.004    27.5807     6.0600     76.847  36.783553     34.974      8.530   153.6506     1.6984     0.8365     0.0243      0.004      0.004      0.006        105 1.5315e+03 0.0000e+00
      0.005    27.5801     6.0206     76.346  36.788541     34.975      8.532   153.8021     1.7186     0.7559     0.0243      0.004      0.005      0.008        106 1.5408e+03 0.0000e+00
      0.008    27.5793     5.9834     75.874  36.808168     35.002      8.534   154.4456     1.6862     0.8499     0.0243      0.005      0.007      0.011        107 1.4590e+03 0.0000e+00
      0.009    27.5787     5.9586     75.558  36.788787     34.976      8.533   154.5592     1.7064     0.7559     0.0243      0.005      0.009      0.013        108 1.0532e+03 0.0000e+00
      0.009    27.5782     5.9253     75.134  36.783000     34.976      8.532   154.9378     1.5649     0.8499     0.0243      0.004      0.009      0.013        109 7.6010e+02 0.0000e+00
      0.009    27.5779     5.8895     74.679  36.785710     34.977      8.535   155.8464     1.5649     0.7962     0.0243      0.004      0.007      0.010        110 9.9716e+02 0.0000e+00
      0.003    27.5777     5.8612     74.320  36.785414     34.977      8.536   155.8464     1.5609     0.7828     0.0243      0.002      0.003      0.005        111 1.4016e+03 0.0000e+00
     -0.002    27.5771     5.8306     73.931  36.783368     34.977      8.535   155.8842     1.5609     0.8365     0.0243     -0.001      0.001      0.001        112 1.5275e+03 0.0000e+00
      0.002    27.5762     5.8040     73.593  36.758598     34.951      8.532   156.4899     1.4962     0.7962     0.0243     -0.003      0.004      0.005        113 1.3906e+03 0.0000e+00
      0.011    27.5756     5.7814     73.306  36.786581     34.978      8.533   156.5278     1.4881     0.7962     0.0243     -0.002      0.009      0.013        114 1.1087e+03 0.0000e+00
      0.015    27.5753     5.7553     72.973  36.778204     34.978      8.531   157.3985     1.5245     0.7694     0.0243      0.000      0.012      0.018        115 8.2592e+02 0.0000e+00
      0.013    27.5749     5.7283     72.630  36.739366     34.925      8.530   157.5121     1.4962     0.7425     0.0243      0.002      0.012      0.017        116 7.0400e+02 0.0000e+00
      0.008    27.5743     5.6968     72.230  36.775597     34.979      8.529   157.9664     1.5124     0.7962     0.0243      0.003      0.009      0.013        117 7.9036e+02 0.0000e+00
      0.007    27.5735     5.6695     71.882  36.762775     34.952      8.531   158.4585     1.5326     0.8231     0.0243      0.003      0.008      0.011        118 1.0049e+03 0.0000e+00
      0.008    27.5724     5.6387     71.490  36.725663     34.926      8.530   158.5342     1.5851     0.8365     0.0243      0.004      0.008      0.012        119 1.2077e+03 0.0000e+00
      0.010    27.5715     5.6053     71.066  36.673486     34.874      8.530   159.2535     1.5771     0.8499     0.0243      0.003      0.009      0.013        120 1.3570e+03 0.0000e+00
      0.010    27.5708     5.5794     70.737  36.679412     34.874      8.532   159.3292     1.5932     0.7828     0.0243      0.001      0.009      0.014        121 1.4465e+03 0.0000e+00
      0.010    27.5701     5.5586     70.473  36.718288     34.928      8.528   159.9728     1.4881     0.8634     0.0243     -0.002      0.009      0.014        122 1.5036e+03 0.0000e+00
      0.009    27.5697     5.5305     70.116  36.684424     34.875      8.530   160.4271     1.5366     0.8499     0.0243     -0.002      0.008      0.013        123 1.5435e+03 0.0000e+00
      0.008    27.5688     5.5108     69.866  36.721556     34.929      8.529   160.6921     1.5164     0.8097     0.0243     -0.001      0.008      0.012        124 1.5653e+03 0.0000e+00
      0.008    27.5678     5.4885     69.582  36.731399     34.929      8.529   161.0328     1.5043     0.7962     0.0243      0.000      0.009      0.013        125 1.5758e+03 0.0000e+00
      0.010    27.5671     5.4758     69.421  36.672176     34.877      8.530   161.2978     1.5164     0.7828     0.0243      0.000      0.009      0.013        126 1.5829e+03 0.0000e+00
      0.008    27.5662     5.4565     69.176  36.676620     34.877      8.528   161.8278     1.5204     0.7291     0.0243     -0.000      0.009      0.012        127 1.5859e+03 0.0000e+00
      0.008    27.5654     5.4374     68.933  36.725868     34.931      8.531   161.8657     1.5083     0.8634     0.0243     -0.001      0.009      0.012        128 1.5863e+03 0.0000e+00
      0.010    27.5644     5.4145     68.642  36.729525     34.932      8.532   162.1307     1.5124     0.8634     0.0243     -0.000      0.010      0.014        129 1.5887e+03 0.0000e+00
      0.011    27.5637     5.3933     68.372  36.731387     34.932      8.531   162.4335     1.5124     0.7828     0.0243      0.000      0.010      0.015        130 1.5912e+03 0.0000e+00
      0.010    27.5632     5.3737     68.124  36.664234     34.880      8.532   162.8878     1.4800     0.7962     0.0243      0.001      0.009      0.014        131 1.5926e+03 0.0000e+00
      0.009    27.5627     5.3504     67.827  36.605483     34.800      8.529   163.5314     1.5285     0.7559     0.0242      0.001      0.008      0.013        132 1.5928e+03 0.0000e+00
      0.008    27.5625     5.3282     67.545  36.656205     34.880      8.529   163.9478     1.5245     0.7828     0.0243      0.000      0.008      0.012        133 1.5964e+03 0.0000e+00
      0.009    27.5621     5.3040     67.238  36.690087     34.881      8.531   163.7585     1.5568     0.8097     0.0243     -0.000      0.009      0.013        134 1.6007e+03 0.0000e+00
      0.010    27.5615     5.2820     66.960  36.652295     34.881      8.532   164.5157     1.5528     0.7559     0.0243      0.000      0.010      0.014        135 1.6071e+03 0.0000e+00
      0.010    27.5610     5.2725     66.839  36.614262     34.801      8.531   164.4021     1.5730     0.7828     0.0242      0.000      0.010      0.014        136 1.6099e+03 0.0000e+00
      0.009    27.5605     5.2656     66.751  36.648443     34.882      8.528   164.8564     1.5811     0.8365     0.0243     -0.000      0.009      0.014        137 1.6117e+03 0.0000e+00
      0.010    27.5599     5.2519     66.577  36.609756     34.802      8.531   165.2728     1.5690     0.8365     0.0242     -0.000      0.009      0.014        138 1.6150e+03 0.0000e+00
      0.009    27.5591     5.2402     66.428  36.662406     34.882      8.531   165.6514     1.6013     0.7291     0.0243      0.000      0.009      0.013        139 1.6160e+03 0.0000e+00
      0.009    27.5587     5.2228     66.207  36.671899     34.883      8.531   165.8407     1.6296     0.8768     0.0243      0.001      0.008      0.012        140 1.6142e+03 0.0000e+00
      0.007    27.5583     5.2054     65.986  36.597942     34.803      8.529   165.6514     1.6377     0.7425     0.0242     -0.000      0.007      0.009        141 1.6107e+03 0.0000e+00
      0.005    27.5576     5.1945     65.848  36.665466     34.883      8.531   166.1814     1.6539     0.8902     0.0243     -0.002      0.006      0.008        142 1.6128e+03 0.0000e+00
      0.007    27.5571     5.1791     65.651  36.676845     34.884      8.528   166.1435     1.6458     0.7559     0.0243     -0.002      0.008      0.011        143 1.6157e+03 0.0000e+00
      0.012    27.5569     5.1528     65.317  36.583784     34.804      8.531   166.5600     1.6256     0.7694     0.0242     -0.001      0.011      0.016        144 1.6191e+03 0.0000e+00
      0.012    27.5575     5.1309     65.038  36.603325     34.805      8.528   167.0521     1.6256     0.8365     0.0242      0.001      0.011      0.016        145 1.6228e+03 0.0000e+00
      0.008    27.5575     5.1111     64.786  36.652526     34.885      8.528   167.3171     1.6094     0.8231     0.0243      0.001      0.008      0.012        146 1.6263e+03 0.0000e+00
      0.003    27.5570     5.0958     64.593  36.611531     34.804      8.527   167.3550     1.7105     0.7828     0.0242     -0.000      0.005      0.007        147 1.6290e+03 0.0000e+00
      0.004    27.5566     5.0775     64.360  36.654343     34.884      8.527   167.5064     1.7145     0.7962     0.0243     -0.001      0.005      0.007        148 1.6293e+03 0.0000e+00
      0.008    27.5558     5.0614     64.155  36.599248     34.805      8.530   167.8850     1.6903     0.8634     0.0242     -0.001      0.008      0.011        149 1.6286e+03 0.0000e+00
      0.010    27.5554     5.0463     63.963  36.591119     34.805      8.529   168.6043     1.6984     0.8097     0.0242     -0.000      0.010      0.014        150 1.6275e+03 0.0000e+00
      0.011    27.5549     5.0299     63.755  36.664458     34.885      8.527   168.9071     1.6539     0.8634     0.0243     -0.000      0.010      0.014        151 1.6264e+03 0.0000e+00
      0.009    27.5544     5.0185     63.610  36.626614     34.833      8.529   169.2857     1.6539     0.8097     0.0242     -0.001      0.008      0.012        152 1.6248e+03 0.0000e+00
      0.006    27.5539     5.0019     63.398  36.667875     34.886      8.529   169.4371     1.6377     0.8097     0.0243     -0.000      0.006      0.009        153 1.6232e+03 0.0000e+00
      0.005    27.5533     4.9870     63.209  36.672429     34.886      8.529   169.8535     1.6175     0.8097     0.0243      0.001      0.006      0.008        154 1.6160e+03 0.0000e+00
      0.007    27.5525     4.9720     63.019  36.591289     34.807      8.527   170.1185     1.7024     0.8231     0.0242      0.001      0.007      0.010        155 1.5962e+03 0.0000e+00
      0.008    27.5519     4.9556     62.810  36.590899     34.807      8.526   170.6485     1.7267     0.8634     0.0242     -0.000      0.008      0.012        156 1.5564e+03 0.0000e+00
      0.009    27.5514     4.9420     62.638  36.613596     34.834      8.527   170.6864     1.7064     0.8097     0.0242     -0.001      0.008      0.012        157 1.5084e+03 0.0000e+00
      0.009    27.5510     4.9354     62.555  36.592700     34.808      8.527   170.9893     1.7145     0.8499     0.0242     -0.001      0.008      0.012        158 1.4830e+03 0.0000e+00
      0.008    27.5505     4.9190     62.346  36.587243     34.809      8.528   171.4435     1.6943     0.9036     0.0242     -0.000      0.007      0.011        159 1.4848e+03 0.0000e+00
      0.007    27.5499     4.9109     62.244  36.590729     34.809      8.530   171.4435     1.6943     0.7828     0.0242      0.000      0.007      0.011        160 1.5027e+03 0.0000e+00
      0.008    27.5493     4.9009     62.117  36.529046     34.756      8.529   171.7843     1.6903     0.7559     0.0242      0.001      0.008      0.012        161 1.5227e+03 0.0000e+00
      0.008    27.5487     4.8897     61.975  36.545370     34.756      8.531   172.2385     1.6822     0.7425     0.0242      0.001      0.008      0.012        162 1.5278e+03 0.0000e+00
      0.008    27.5484     4.8771     61.816  36.659390     34.890      8.529   172.6550     1.6984     0.8097     0.0243      0.000      0.008      0.013        163 1.5197e+03 0.0000e+00
      0.010    27.5480     4.8683     61.704  36.594766     34.810      8.528   172.8821     1.6701     1.0514     0.0242      0.000      0.009      0.014        164 1.5093e+03 0.0000e+00
      0.010    27.5471     4.8593     61.590  36.536819     34.757      8.526   173.1850     1.7267     1.0648     0.0242      0.001      0.009      0.014        165 1.4989e+03 0.0000e+00
      0.009    27.5471     4.8464     61.425  36.583209     34.811      8.526   173.7528     1.7145     1.0379     0.0242      0.001      0.009      0.013        166 1.4809e+03 0.0000e+00
      0.009    27.5474     4.8424     61.375  36.596351     34.811      8.525   173.8286     1.6984     1.0111     0.0242      0.001      0.009      0.013        167 1.4681e+03 0.0000e+00
      0.009    27.5475     4.8257     61.163  36.609438     34.838      8.527   174.0178     1.6013     0.8499     0.0242      0.001      0.009      0.013        168 1.4601e+03 0.0000e+00
      0.009    27.5474     4.8130     61.003  36.596581     34.811      8.527   174.4343     1.6296     0.8231     0.0242      0.000      0.009      0.013        169 1.4351e+03 0.0000e+00
      0.010    27.5473     4.8050     60.902  36.582695     34.811      8.526   174.7750     1.6418     0.8499     0.0242      0.000      0.009      0.013        170 1.4134e+03 0.0000e+00
      0.009    27.5473     4.8556     61.590  36.597061     34.811      8.525   175.0778     1.6458     0.8365     0.0242      0.000      0.010      0.014        171 1.4106e+03 0.0000e+00
      0.011    27.5473     5.3172     67.565  36.578703     34.811      8.524   174.8507     1.6498     0.7425     0.0242      0.000      0.010      0.014        172 1.4122e+03 0.0000e+00
      0.009    27.5475     6.3372     80.639  36.605542     34.811      8.526   175.2671     1.6256     0.8231     0.0242      0.000      0.009      0.012        173 1.4210e+03 0.0000e+00
      0.007    27.5475     7.4042     94.279  36.652637     34.891      8.526   175.1914     1.6256     0.7559     0.0243     -0.000      0.007      0.011        174 1.4405e+03 0.0000e+00
      0.007    27.5470     8.3901    106.849  36.549753     34.758      8.525   175.6457     1.6256     0.8231     0.0242     -0.001      0.007      0.011        175 1.4525e+03 0.0000e+00
      0.008    27.5468     9.2115    117.310  36.525967     34.758      8.527   175.8350     1.6498     0.7828     0.0242     -0.001      0.008      0.012        176 1.4653e+03 0.0000e+00
      0.009    27.5463     9.8111    124.949  36.593261     34.811      8.525   175.9107     1.6215     0.8365     0.0242     -0.001      0.009      0.013        177 1.4949e+03 0.0000e+00
      0.010    27.5464    10.2052    129.969  36.525325     34.758      8.522   176.0621     1.6377     0.8365     0.0242     -0.001      0.009      0.013        178 1.5233e+03 0.0000e+00
      0.009    27.5465    10.3785    132.164  36.551194     34.759      8.518   176.4028     1.6418     0.7828     0.0242     -0.000      0.008      0.012        179 1.5455e+03 0.0000e+00
      0.008    27.5478    10.2942    131.087  36.590726     34.839      8.518   176.4786     1.4517     0.8499     0.0242     -0.000      0.008      0.012        180 1.5547e+03 0.0000e+00
      0.008    27.5921    10.0662    128.195  36.565105     34.758      8.519   176.8950     1.4638     0.7828     0.0242      0.000      0.009      0.013        181 1.5504e+03 0.0000e+00
      0.010    27.6882     9.8502    125.445  36.998308     35.210      8.517   176.8193     1.4557     0.8499     0.0244      0.001      0.010      0.014        182 1.5483e+03 0.0000e+00
      0.011    27.7688     9.6774    123.232  37.415941     35.580      8.516   177.2736     1.4436     0.8097     0.0245      0.001      0.010      0.014        183 1.5430e+03 0.0000e+00
      0.010    27.8056     9.5423    121.510  37.439348     35.513      8.514   177.8414     1.4517     0.7559     0.0245      0.001      0.009      0.014        184 1.5342e+03 0.0000e+00
      0.008    27.8151     9.4298    120.101  37.473356     35.512      8.511   177.8793     1.4719     0.7828     0.0246      0.000      0.008      0.012        185 1.5212e+03 0.0000e+00
      0.007    27.8150     9.3446    119.034  37.492220     35.487      8.510   177.9928     1.4355     0.7828     0.0246     -0.000      0.007      0.011        186 1.5119e+03 0.0000e+00
      0.008    27.8168     9.2836    118.266  37.475170     35.481      8.510   178.1064     1.4234     0.7828     0.0246     -0.000      0.008      0.012        187 1.5125e+03 0.0000e+00
      0.010    27.8169     9.2524    117.872  37.494567     35.481      8.513   178.3714     1.4638     0.8499     0.0246     -0.000      0.009      0.014        188 1.5157e+03 0.0000e+00
      0.010    27.8119     9.2431    117.737  37.468081     35.480      8.513   178.7500     1.4396     0.8902     0.0246     -0.000      0.009      0.014        189 1.5303e+03 0.0000e+00
      0.009    27.8106     9.2429    117.718  37.448810     35.427      8.511   178.8636     1.4396     0.7694     0.0245     -0.000      0.009      0.013        190 1.5533e+03 0.0000e+00
      0.009    27.8151     9.2370    117.646  37.518549     35.537      8.513   179.2043     1.4477     0.7559     0.0246     -0.000      0.008      0.012        191 1.5698e+03 0.0000e+00
      0.008    27.8156     9.2442    117.733  37.499936     35.484      8.512   179.1664     1.4477     0.7962     0.0246     -0.000      0.008      0.012        192 1.5852e+03 0.0000e+00
      0.009    27.8100     9.2498    117.783  37.471974     35.481      8.512   179.2421     1.4274     0.8499     0.0246      0.000      0.009      0.013        193 1.5955e+03 0.0000e+00
      0.009    27.8100     9.2553    117.831  37.434705     35.428      8.510   179.6207     1.4436     0.7962     0.0245      0.000      0.009      0.014        194 1.5958e+03 0.0000e+00
      0.011    27.8205     9.2611    117.899  37.486998     35.485      8.510   180.0750     1.4436     0.7828     0.0246      0.000      0.010      0.015        195 1.5955e+03 0.0000e+00
      0.012    27.8292     9.2625    117.920  37.525539     35.538      8.510   180.0750     1.4315     0.7828     0.0246      0.001      0.012      0.017        196 1.5979e+03 0.0000e+00
      0.013    27.8332     9.2525    117.782  37.446061     35.425      8.510   180.3021     1.3668     0.7291     0.0245      0.002      0.012      0.018        197 1.6013e+03 0.0000e+00
      0.012    27.8345     9.2394    117.603  37.467262     35.472      8.509   180.3021     1.3749     0.8365     0.0246      0.002      0.012      0.018        198 1.5965e+03 0.0000e+00
      0.013    27.8273     9.2340    117.531  37.439828     35.416      8.510   180.6429     1.3870     0.8097     0.0245      0.003      0.013      0.019        199 1.5891e+03 0.0000e+00
      0.014    27.8199     9.2345    117.517  37.420877     35.415      8.511   180.9457     1.3708     0.8634     0.0245      0.003      0.013      0.019        200 1.5941e+03 0.0000e+00
      0.012    27.8206     9.2389    117.534  37.490847     35.473      8.511   181.0971     1.4274     0.8097     0.0246      0.002      0.011      0.016        201 1.5977e+03 0.0000e+00
      0.008    27.8184     9.2409    117.519  37.560378     35.558      8.512   181.0593     1.4315     0.7828     0.0246      0.000      0.009      0.012        202 1.5949e+03 0.0000e+00
      0.007    27.8083     9.2571    117.678  37.482651     35.478      8.511   181.0593     1.4517     0.8365     0.0246     -0.002      0.007      0.011        203 1.5968e+03 0.0000e+00
      0.007    27.7981     9.2769    117.898  37.439275     35.426      8.512   181.0971     1.4315     0.7828     0.0245     -0.003      0.007      0.011        204 1.6001e+03 0.0000e+00
      0.009    27.7953     9.2968    118.143  37.466059     35.486      8.513   181.4379     1.4072     0.7828     0.0246     -0.003      0.008      0.013        205 1.6031e+03 0.0000e+00
      0.011    27.7963     9.3039    118.216  37.449325     35.440      8.513   181.8543     1.4638     0.8499     0.0245     -0.002      0.012      0.018        206 1.6105e+03 0.0000e+00
      0.019    27.7915     9.3073    118.233  37.519427     35.548      8.514   182.0814     1.4355     0.8634     0.0246      0.001      0.019      0.028        207 1.6074e+03 0.0000e+00
      0.029    27.7857     9.3174    118.322  37.497461     35.494      8.515   182.0057     1.4315     0.8097     0.0246      0.006      0.028      0.040        208 1.6221e+03 0.0000e+00
      0.037    27.7837     9.3328    118.470  37.476660     35.497      8.516   181.8921     1.4436     0.7425     0.0246      0.012      0.037      0.054        209 1.5539e+03 0.0000e+00
      0.048    27.7742     9.3409    118.530  37.485994     35.501      8.514   181.7029     1.5002     0.7559     0.0246      0.020      0.048      0.069        210 1.4890e+03 0.0000e+00
      0.060    27.7560     9.3499    118.610  37.426529     35.449      8.513   182.4600     1.5164     0.7694     0.0245      0.027      0.059      0.086        211 1.3233e+03 0.0000e+00
      0.073    27.7357     9.3632    118.746  37.432027     35.456      8.511   182.4221     1.5164     0.8768     0.0245      0.033      0.072      0.104        212 1.3412e+03 0.0000e+00
      0.086    27.7135     9.3866    119.015  37.479157     35.521      8.511   182.4221     1.5326     0.8499     0.0246      0.039      0.085      0.123        213 1.0288e+03 0.0000e+00
      0.101    27.6989     9.4021    119.191  37.486525     35.535      8.510   182.3843     1.4274     0.7962     0.0246      0.044      0.100      0.144        214 7.4031e+02 0.0000e+00
      0.116    27.6939     9.4035    119.195  37.482188     35.550      8.508   182.6493     1.4274     0.7828     0.0246      0.048      0.116      0.168        215 1.2516e+03 0.0000e+00
      0.137    27.6867     9.4029    119.183  37.484566     35.560      8.502   182.9900     1.4517     0.8365     0.0246      0.053      0.136      0.197        216 1.0500e+03 0.0000e+00
      0.161    27.6738     9.3972    119.099  37.483572     35.563      8.493   183.2171     1.4557     0.8097     0.0246      0.059      0.158      0.229        217 8.4065e+02 0.0000e+00
      0.184    27.6549     9.3777    118.819  37.483427     35.568      8.486   183.9364     1.5043     1.0514     0.0246      0.066      0.179      0.260        218 1.0266e+03 0.0000e+00
      0.203    27.6328     9.3588    118.540  37.484751     35.576      8.487   183.8229     1.4921     1.0379     0.0246      0.071      0.198      0.287        219 8.3200e+02 0.0000e+00
      0.219    27.6127     9.3547    118.451  37.422612     35.536      8.489   183.7850     1.5083     0.9574     0.0245      0.075      0.215      0.312        220 8.8632e+02 0.0000e+00
      0.236    27.5961     9.3543    118.416  37.382808     35.498      8.502   191.8107     1.5124     1.0916     0.0245      0.077      0.231      0.336        221 1.0575e+03 0.0000e+00
      0.252    27.5809     9.3521    118.365  37.415657     35.565      8.510   189.3122     1.5730     0.9842     0.0245      0.076      0.247      0.359        222 9.5957e+02 0.0000e+00
      0.269    27.5679     9.3453    118.259  37.441062     35.576      8.515   185.6400     1.5649     1.0379     0.0245      0.075      0.262      0.380        223 8.7274e+02 0.0000e+00
      0.281    27.5581     9.3391    118.161  37.469843     35.639      8.522   185.2236     1.5690     1.0379     0.0246      0.070      0.276      0.400        224 6.7165e+02 0.0000e+00
      0.295    27.5515     9.3415    118.175  37.439169     35.595      8.529   193.2872     1.5690     0.9439     0.0245      0.065      0.289      0.420        225 6.2239e+02 0.0000e+00
      0.309    27.5491     9.3465    118.225  37.419921     35.602      8.539   192.7950     1.5609     1.0916     0.0246      0.061      0.304      0.442        226 7.1703e+02 0.0000e+00
      0.326    27.5434     9.3517    118.276  37.434481     35.606      8.547   193.0222     1.5568     1.0916     0.0246      0.060      0.322      0.467        227 6.3757e+02 0.0000e+00
      0.349    27.5282     9.3514    118.254  37.421051     35.608      8.552   193.2493     1.5568     1.0245     0.0246      0.061      0.344      0.499        228 6.3750e+02 0.0000e+00
      0.377    27.5096     9.3443    118.144  37.377315     35.558      8.559   194.8015     1.5487     1.0111     0.0245      0.065      0.369      0.535        229 6.2030e+02 0.0000e+00
      0.401    27.4923     9.3287    117.925  37.310953     35.516      8.561   201.5779     1.5568     0.9574     0.0245      0.071      0.392      0.569        230 6.1765e+02 0.0000e+00
      0.421    27.4777     9.3131    117.721  37.266365     35.475      8.569   190.1829     1.5771     0.8499     0.0245      0.077      0.413      0.599        231 6.2345e+02 0.0000e+00
      0.441    27.4668     9.2943    117.479  37.314175     35.540      8.569   196.9972     1.5892     0.8365     0.0245      0.082      0.431      0.625        232 7.1174e+02 0.0000e+00
      0.455    27.4572     9.2817    117.315  37.310784     35.550      8.577   202.8651     1.5649     0.8499     0.0245      0.083      0.447      0.649        233 7.5846e+02 0.0000e+00
      0.474    27.4482     9.2604    117.013  37.270593     35.504      8.578   204.7958     1.5649     0.8902     0.0245      0.083      0.465      0.674        234 7.0132e+02 0.0000e+00
      0.494    27.4402     9.2510    116.824  37.304879     35.564      8.580   208.2029     1.6215     0.8902     0.0245      0.081      0.481      0.697        235 7.2201e+02 0.0000e+00
      0.503    27.4337     9.2363    116.578  37.268120     35.517      8.580   205.5529     1.6458     0.8634     0.0245      0.075      0.493      0.715        236 6.6856e+02 0.0000e+00
      0.513    27.4268     9.2006    116.076  37.257023     35.522      8.583   200.7451     1.6498     0.7559     0.0245      0.067      0.504      0.732        237 5.9375e+02 0.0000e+00
      0.528    27.4187     9.1585    115.504  37.259372     35.526      8.584   201.6536     1.6539     0.8365     0.0245      0.062      0.519      0.752        238 5.8060e+02 0.0000e+00
      0.545    27.4086     9.1142    114.914  37.205880     35.478      8.585   192.4922     1.7105     0.8634     0.0245      0.059      0.536      0.777        239 5.5107e+02 0.0000e+00
      0.567    27.3988     9.0677    114.303  37.204958     35.483      8.581   201.8429     1.6943     0.8097     0.0245      0.059      0.556      0.806        240 4.3658e+02 0.0000e+00
      0.587    27.3950     9.0289    113.794  37.201204     35.490      8.575   197.3379     1.7024     0.8902     0.0245      0.061      0.575      0.834        241 5.0889e+02 0.0000e+00
      0.604    27.3934     9.0015    113.429  37.151238     35.444      8.575   196.2022     1.6862     0.7559     0.0244      0.063      0.593      0.860        242 6.5868e+02 0.0000e+00
      0.625    27.3903     8.9863    113.218  37.148506     35.446      8.577   200.5936     1.7509     0.7828     0.0244      0.066      0.612      0.887        243 6.0397e+02 0.0000e+00
      0.644    27.3741     8.9922    113.268  37.145287     35.447      8.579   197.1108     1.7631     0.8634     0.0244      0.071      0.631      0.915        244 5.9327e+02 0.0000e+00
      0.662    27.3422     9.0306    113.728  37.066267     35.369      8.578   198.5493     1.7995     0.8634     0.0244      0.074      0.651      0.944        245 5.8528e+02 0.0000e+00
      0.686    27.3123     9.0977    114.552  36.979911     35.300      8.579   198.7008     1.7792     0.8634     0.0244      0.077      0.672      0.975        246 5.8930e+02 0.0000e+00
      0.708    27.2878     9.1699    115.447  36.956166     35.295      8.574   201.1615     1.7469     0.8365     0.0244      0.078      0.693      1.006        247 5.9520e+02 0.0000e+00
      0.729    27.2679     9.2616    116.589  36.947533     35.315      8.566   194.5743     1.7469     0.7828     0.0244      0.079      0.713      1.035        248 5.6945e+02 0.0000e+00
      0.747    27.2526     9.3584    117.796  36.901692     35.278      8.559   197.1865     1.7550     0.8365     0.0244      0.080      0.732      1.061        249 5.5472e+02 0.0000e+00
      0.763    27.2403     9.4484    118.915  36.894589     35.291      8.546   200.4801     1.7671     0.8097     0.0244      0.080      0.749      1.085        250 5.2562e+02 0.0000e+00
      0.779    27.2306     9.5272    119.893  36.956383     35.355      8.536   201.1236     1.7711     0.7828     0.0244      0.078      0.765      1.109        251 5.4046e+02 0.0000e+00
      0.797    27.2212     9.5910    120.681  36.973097     35.390      8.527   202.7515     1.8318     0.7828     0.0244      0.076      0.781      1.133        252 5.7153e+02 0.0000e+00
      0.813    27.2111     9.6209    121.047  36.962774     35.370      8.521   199.3822     1.8480     0.8097     0.0244      0.073      0.798      1.158        253 5.4580e+02 0.0000e+00
      0.832    27.1994     9.6366    121.237  37.058215     35.484      8.511   198.7008     1.8601     0.8365     0.0244      0.070      0.816      1.184        254 5.4489e+02 0.0000e+00
      0.852    27.1877     9.6381    121.247  37.061944     35.490      8.501   200.6693     1.8480     0.8768     0.0244      0.069      0.835      1.211        255 5.3465e+02 0.0000e+00
      0.870    27.1776     9.6286    121.116  37.076776     35.498      8.490   199.0415     2.0946     0.8097     0.0244      0.069      0.853      1.237        256 4.9745e+02 0.0000e+00
      0.888    27.1702     9.6126    120.900  37.188062     35.640      8.483   200.3286     2.0785     0.8231     0.0245      0.070      0.870      1.262        257 5.2266e+02 0.0000e+00
      0.903    27.1647     9.5973    120.696  37.160734     35.594      8.474   202.7136     2.0825     0.8365     0.0245      0.070      0.885      1.284        258 5.1405e+02 0.0000e+00
      0.916    27.1590     9.5821    120.495  37.140450     35.599      8.475   202.2593     2.1189     0.9305     0.0245      0.069      0.899      1.304        259 4.7304e+02 0.0000e+00
      0.932    27.1526     9.5753    120.398  37.153991     35.602      8.486   207.0672     2.0825     0.8097     0.0245      0.067      0.914      1.325        260 4.6430e+02 0.0000e+00
      0.947    27.1459     9.5658    120.265  37.143886     35.606      8.492   206.1208     2.0785     0.8231     0.0245      0.065      0.928      1.346        261 4.5783e+02 0.0000e+00
      0.961    27.1397     9.5357    119.873  37.153029     35.611      8.505   208.3544     2.0946     0.8365     0.0245      0.062      0.941      1.366        262 4.3589e+02 0.0000e+00
      0.972    27.1346     9.5048    119.473  37.142616     35.615      8.518   210.5122     2.0866     0.8902     0.0245      0.059      0.952      1.382        263 4.1389e+02 0.0000e+00
      0.981    27.1312     9.4757    119.095  37.156848     35.619      8.533   207.9758     2.2362     0.8634     0.0245      0.055      0.962      1.396        264 3.9981e+02 0.0000e+00
      0.991    27.1270     9.4640    118.934  37.135321     35.623      8.544   204.7958     2.2038     0.7962     0.0245      0.051      0.973      1.411        265 3.9249e+02 0.0000e+00
      1.003    27.1215     9.4691    118.982  37.080430     35.545      8.555   205.3636     2.2159     0.8097     0.0244      0.049      0.985      1.429        266 3.7838e+02 0.0000e+00
      1.019    27.1153     9.4950    119.289  37.136182     35.628      8.565   205.4772     2.2079     0.8902     0.0245      0.048      0.999      1.449        267 3.6316e+02 0.0000e+00
      1.035    27.1096     9.5244    119.648  37.095600     35.578      8.575   205.3258     2.1715     0.8499     0.0244      0.048      1.015      1.473        268 3.5548e+02 0.0000e+00
      1.053    27.1048     9.5456    119.911  37.071617     35.556      8.584   203.5465     2.1917     0.8634     0.0244      0.050      1.033      1.498        269 3.4394e+02 0.0000e+00
      1.072    27.0994     9.5626    120.114  37.047393     35.560      8.589   210.7772     2.1553     0.8365     0.0244      0.054      1.051      1.524        270 3.3130e+02 0.0000e+00
      1.089    27.0934     9.5602    120.073  37.036770     35.509      8.594   205.3636     2.1512     0.7828     0.0244      0.059      1.069      1.550        271 3.1841e+02 0.0000e+00
      1.109    27.0870     9.5468    119.875  37.114499     35.647      8.596   204.6444     2.1755     0.8499     0.0245      0.064      1.087      1.575        272 3.0988e+02 0.0000e+00
      1.125    27.0813     9.5286    119.589  37.039643     35.517      8.598   206.0072     2.2079     0.8499     0.0244      0.067      1.104      1.600        273 3.0467e+02 0.0000e+00
      1.141    27.0759     9.5021    119.190  37.070612     35.602      8.604   208.2029     2.2200     0.9036     0.0244      0.069      1.120      1.625        274 2.9450e+02 0.0000e+00
      1.161    27.0695     9.4922    118.989  37.075962     35.579      8.608   206.0072     2.2159     0.7559     0.0244      0.070      1.138      1.651        275 2.8831e+02 0.0000e+00
      1.179    27.0618     9.4945    118.914  37.062648     35.583      8.606   206.0451     2.2159     0.8365     0.0244      0.070      1.155      1.676        276 2.8798e+02 0.0000e+00
      1.194    27.0533     9.5043    118.908  37.057523     35.587      8.608   208.4679     2.3453     0.8231     0.0244      0.070      1.170      1.698        277 2.8818e+02 0.0000e+00
      1.207    27.0488     9.5129    118.859  37.023023     35.539      8.608   200.8208     2.3898     0.8097     0.0244      0.068      1.184      1.717        278 2.8993e+02 0.0000e+00
      1.221    27.0463     9.5313    118.936  37.075928     35.625      8.605   205.8558     2.3898     0.8097     0.0244      0.065      1.197      1.736        279 2.9211e+02 0.0000e+00
      1.233    27.0418     9.5486    119.016  37.021348     35.548      8.607   202.7515     2.3453     0.7828     0.0244      0.062      1.209      1.754        280 2.9489e+02 0.0000e+00
      1.246    27.0364     9.5761    119.206  37.001970     35.549      8.611   201.9565     2.5394     0.8499     0.0244      0.059      1.223      1.773        281 2.9676e+02 0.0000e+00
      1.261    27.0230     9.6086    119.454  37.011067     35.552      8.613   201.8429     2.5394     0.8365     0.0244      0.057      1.239      1.797        282 2.9555e+02 0.0000e+00
      1.283    26.9964     9.6635    120.010  36.950710     35.502      8.613   200.8208     2.5556     0.7559     0.0244      0.057      1.260      1.827        283 2.9131e+02 0.0000e+00
      1.309    26.9649     9.8159    121.786  36.958449     35.511      8.610   201.8051     2.5394     0.7828     0.0244      0.060      1.283      1.860        284 2.8636e+02 0.0000e+00
      1.331    26.9286    10.0292    124.330  36.971785     35.556      8.608   202.7893     2.6082     0.7828     0.0244      0.066      1.304      1.892        285 2.8276e+02 0.0000e+00
      1.351    26.8809    10.2914    127.551  36.904466     35.497      8.608   205.2879     2.5839     0.8634     0.0244      0.071      1.324      1.921        286 2.8132e+02 0.0000e+00
      1.370    26.8202    10.5158    130.288  36.893945     35.522      8.607   200.1772     2.6284     0.9036     0.0244      0.076      1.343      1.948        287 2.8063e+02 0.0000e+00
      1.389    26.7472    10.6349    131.633  36.895921     35.555      8.603   206.8401     2.6082     0.7828     0.0244      0.080      1.361      1.974        288 2.7436e+02 0.0000e+00
      1.405    26.6761    10.6763    131.981  36.961351     35.650      8.602   209.0358     2.6041     0.7828     0.0244      0.081      1.377      1.997        289 2.7150e+02 0.0000e+00
      1.418    26.6118    10.6846    131.814  37.020166     35.782      8.602   208.0515     2.9317     0.7559     0.0244      0.078      1.392      2.018        290 2.7153e+02 0.0000e+00
      1.433    26.5411    10.6925    131.570  37.030379     35.804      8.603   206.0072     2.9276     0.8634     0.0244      0.073      1.407      2.040        291 2.6883e+02 0.0000e+00
      1.453    26.4687    10.7960    132.627  37.185954     36.038      8.598   207.9758     2.9276     0.8365     0.0245      0.069      1.422      2.064        292 2.6696e+02 0.0000e+00
      1.466    26.4101    11.0869    136.082  37.271487     36.142      8.588   209.9065     2.9276     0.7425     0.0245      0.066      1.437      2.084        293 2.6191e+02 0.0000e+00
      1.477    26.3569    11.5035    141.004  37.250229     36.193      8.582   210.8908     2.9276     1.0782     0.0245      0.062      1.449      2.102        294 2.7007e+02 0.0000e+00
      1.491    26.3130    11.9758    146.560  37.331085     36.288      8.574   211.7237     2.9681     1.0916     0.0245      0.059      1.463      2.122        295 2.7504e+02 0.0000e+00
      1.507    26.2989    12.3952    151.401  37.408177     36.434      8.558   209.3387     2.9317     1.0648     0.0246      0.058      1.478      2.143        296 2.5794e+02 0.0000e+00
      1.522    26.2787    12.7575    155.556  37.332278     36.358      8.541   204.7958     2.9559     1.0111     0.0245      0.057      1.492      2.164        297 2.4931e+02 0.0000e+00
      1.533    26.2260    13.0450    158.966  37.247600     36.312      8.524   205.2501     3.0085     1.0111     0.0245      0.056      1.507      2.185        298 2.4827e+02 0.0000e+00
      1.553    26.1555    13.2693    161.690  37.157648     36.217      8.507   201.9565     2.9964     1.0648     0.0245      0.056      1.532      2.222        299 2.4404e+02 0.0000e+00
      1.602    26.0431    13.4252    163.551  36.999337     36.119      8.474   208.9601     3.0085     1.0514     0.0244      0.066      1.574      2.282        300 2.3088e+02 0.0000e+00
      1.659    25.9029    13.5120    164.551  36.732809     35.894      8.431   209.3387     3.0045     1.0111     0.0243      0.085      1.620      2.350        301 2.1305e+02 0.0000e+00
      1.695    25.8133    13.5525    164.907  36.569932     35.809      8.422   211.5722     3.5989     1.1185     0.0243      0.104      1.653      2.397        302 2.0238e+02 0.0000e+00
      1.702    25.7625    13.5849    165.062  36.579243     35.937      8.446   209.3765     3.5746     0.9574     0.0243      0.114      1.670      2.421        303 1.9794e+02 0.0000e+00
      1.714    25.6903    13.6001    165.008  36.484009     35.891      8.470   211.9887     3.5787     0.9439     0.0242      0.117      1.683      2.439        304 1.9421e+02 0.0000e+00
      1.730    25.6017    13.5945    164.675  36.243612     35.704      8.498   209.3765     3.5867     1.0648     0.0241      0.115      1.698      2.463        305 1.8578e+02 0.0000e+00
      1.751    25.4974    13.5878    164.245  36.018344     35.509      8.528   210.5879     3.8941     1.0111     0.0240      0.109      1.717      2.490        306 1.8147e+02 0.0000e+00
      1.772    25.4042    13.6126    164.201  35.844973     35.431      8.557   211.1558     3.9102     1.0648     0.0240      0.097      1.736      2.518        307 1.7588e+02 0.0000e+00
      1.789    25.3704    13.6405    164.336  35.658641     35.284      8.583   211.4587     3.9102     1.0111     0.0239      0.080      1.753      2.543        308 1.7010e+02 0.0000e+00
      1.803    25.3663    13.7059    165.009  35.627462     35.350      8.597   210.4365     3.9143     1.0648     0.0239      0.068      1.767      2.562        309 1.6811e+02 0.0000e+00
      1.812    25.3538    13.8068    166.116  35.646551     35.373      8.611   209.9065     5.3659     1.2259     0.0239      0.063      1.777      2.577        310 1.6609e+02 0.0000e+00
      1.821    25.3344    13.9343    167.400  35.575590     35.320      8.622   209.4144     5.3619     1.1856     0.0239      0.062      1.786      2.590        311 1.6514e+02 0.0000e+00
      1.829    25.2885    14.0724    168.726  35.597149     35.329      8.629   208.6194     5.3336     1.2125     0.0239      0.058      1.794      2.602        312 1.6378e+02 0.0000e+00
      1.838    25.2113    14.1835    169.892  35.560412     35.342      8.637   208.1272     5.3215     1.2393     0.0239      0.052      1.804      2.616        313 1.6421e+02 0.0000e+00
      1.851    25.1315    14.2705    170.979  35.384059     35.152      8.643   210.6258     5.3498     1.1991     0.0238      0.046      1.816      2.634        314 1.6415e+02 0.0000e+00
      1.866    25.0441    14.3430    171.660  35.134520     35.012      8.648   208.2408     7.0562     1.9376     0.0237      0.043      1.831      2.655        315 1.6136e+02 0.0000e+00
      1.883    24.9288    14.3862    171.697  34.862650     34.733      8.650   213.4651     7.0441     1.9107     0.0236      0.043      1.846      2.677        316 1.6254e+02 0.0000e+00
      1.897    24.8178    14.3764    171.312  34.743758     34.738      8.660   209.6415     7.0157     1.8973     0.0236      0.046      1.862      2.700        317 1.6180e+02 0.0000e+00
      1.916    24.7494    14.3631    171.439  34.659733     34.678      8.671   210.3229     7.0481     1.8302     0.0235      0.051      1.879      2.725        318 1.5740e+02 0.0000e+00
      1.934    24.7132    14.3558    171.606  34.581734     34.729      8.679   212.0644     7.2584     1.8033     0.0235      0.056      1.895      2.749        319 1.5522e+02 0.0000e+00
      1.947    24.6754    14.3290    171.378  34.544311     34.691      8.690   207.7865     7.2422     1.9376     0.0235      0.060      1.910      2.770        320 1.5417e+02 0.0000e+00
      1.962    24.5966    14.3290    170.956  34.439434     34.661      8.699   206.2722     7.2341     1.8436     0.0234      0.062      1.925      2.792        321 1.4982e+02 0.0000e+00
      1.980    24.4901    14.3228    170.258  34.178465     34.376      8.704   206.0451     7.2139     1.7630     0.0233      0.064      1.938      2.811        322 1.4372e+02 0.0000e+00
      1.986    24.4409    14.2905    169.473  34.098052     34.376      8.705   204.4172     7.1007     1.9376     0.0233      0.061      1.945      2.821        323 1.4482e+02 0.0000e+00
      1.985    24.4483    14.3008    169.287  34.242984     34.591      8.710   203.2815     7.1168     1.8839     0.0234      0.054      1.948      2.825        324 1.4331e+02 0.0000e+00
      1.988    24.3927    14.3558    169.724  34.294699     34.684      8.719   203.1679     7.1128     1.8973     0.0234      0.046      1.954      2.833        325 1.3878e+02 0.0000e+00
      2.003    24.2413    14.4364    170.474  34.033718     34.420      8.722   202.3729     7.1371     1.8302     0.0233      0.040      1.965      2.849        326 1.3461e+02 0.0000e+00
      2.017    24.1669    14.4896    170.908  33.767080     34.150      8.728   202.4486     6.4375     1.9376     0.0231      0.036      1.975      2.864        327 1.3104e+02 0.0000e+00
      2.020    24.2431    14.5742    171.822  34.092756     34.623      8.731   202.2972     6.4254     1.8302     0.0233      0.033      1.981      2.873        328 1.3447e+02 0.0000e+00
      2.023    24.3315    14.6589    172.538  34.280893     34.880      8.739   202.7136     6.4375     1.9376     0.0234      0.029      1.987      2.882        329 1.3708e+02 0.0000e+00
      2.036    24.3507    14.7671    173.144  34.096428     34.590      8.742   203.0543     6.4618     1.9107     0.0233      0.028      1.999      2.898        330 1.3573e+02 0.0000e+00
      2.053    24.2245    14.8285    173.259  34.085053     34.563      8.744   203.2815     6.5143     1.9107     0.0233      0.034      2.014      2.920        331 1.3770e+02 0.0000e+00
      2.069    24.0308    14.8315    172.934  33.820526     34.260      8.746   203.0922     6.5467     1.9376     0.0232      0.040      2.030      2.944        332 1.3806e+02 0.0000e+00
      2.087    23.9012    14.8038    172.316  33.535971     34.039      8.744   203.8494     6.5629     1.9510     0.0231      0.045      2.046      2.968        333 1.3418e+02 0.0000e+00
      2.103    23.8062    14.7686    171.537  33.549575     34.233      8.743   203.9251     6.5467     1.8033     0.0231      0.048      2.061      2.990        334 1.3123e+02 0.0000e+00
      2.115    23.7375    14.7201    170.558  33.536776     34.264      8.738   204.0008     6.5467     1.8705     0.0231      0.052      2.074      3.007        335 1.2801e+02 0.0000e+00
      2.125    23.6740    14.6623    169.619  33.522306     34.361      8.736   203.8494     6.5993     1.6288     0.0231      0.056      2.085      3.023        336 1.2478e+02 0.0000e+00
      2.138    23.6154    14.5940    168.743  33.419353     34.265      8.735   203.6601     6.5871     1.6959     0.0230      0.058      2.097      3.041        337 1.2136e+02 0.0000e+00
      2.151    23.5871    14.5248    167.961  33.338732     34.252      8.736   203.3572     6.6033     1.7362     0.0230      0.056      2.110      3.060        338 1.1734e+02 0.0000e+00
      2.165    23.4975    14.4827    167.448  33.355775     34.295      8.733   203.8494     6.5790     1.7362     0.0230      0.053      2.124      3.080        339 1.1423e+02 0.0000e+00
      2.181    23.2986    14.4696    167.133  33.249895     34.227      8.729   203.5086     6.3890     1.7362     0.0230      0.052      2.139      3.102        340 1.1143e+02 0.0000e+00
      2.197    23.1140    14.4609    166.769  33.114668     34.115      8.727   203.8872     6.3890     1.6959     0.0229      0.052      2.155      3.125        341 1.0937e+02 0.0000e+00
      2.215    23.0028    14.4282    166.335  33.138602     34.317      8.721   204.4929     6.4213     1.6422     0.0229      0.054      2.172      3.149        342 1.0889e+02 0.0000e+00
      2.231    22.9128    14.3978    165.920  33.101569     34.391      8.717   204.6444     6.4011     1.7228     0.0229      0.058      2.187      3.173        343 1.0848e+02 0.0000e+00
      2.246    22.7988    14.3593    165.329  32.982909     34.353      8.712   204.7579     7.1856     1.7630     0.0228      0.060      2.202      3.194        344 1.0817e+02 0.0000e+00
      2.259    22.6732    14.3156    164.645  32.930480     34.359      8.705   205.5908     7.1451     1.6422     0.0228      0.061      2.214      3.211        345 1.0814e+02 0.0000e+00
      2.267    22.5888    14.2597    163.815  32.929629     34.440      8.703   205.6665     7.1532     1.6153     0.0228      0.060      2.222      3.223        346 1.0815e+02 0.0000e+00
      2.271    22.5633    14.2079    162.812  32.984019     34.592      8.699   205.7422     7.1977     1.6690     0.0228      0.055      2.228      3.232        347 1.0786e+02 0.0000e+00
      2.279    22.5663    14.1487    161.412  32.981461     34.652      8.703   206.0072     7.5010     1.7093     0.0228      0.049      2.236      3.244        348 1.0677e+02 0.0000e+00
      2.291    22.5602    14.0827    159.977  32.992156     34.671      8.701   206.1965     7.4767     1.7362     0.0228      0.044      2.247      3.259        349 1.0645e+02 0.0000e+00
      2.304    22.5053    13.9781    158.319  33.030030     34.726      8.695   205.8936     7.4969     1.6153     0.0229      0.040      2.260      3.278        350 1.0629e+02 0.0000e+00
      2.318    22.4300    13.8067    156.181  32.993637     34.673      8.690   206.3479     7.4646     1.6153     0.0228      0.039      2.273      3.298        351 1.0531e+02 0.0000e+00
      2.334    22.4058    13.5961    153.716  32.978146     34.711      8.684   206.7265     7.9943     1.7899     0.0229      0.040      2.288      3.319        352 1.0419e+02 0.0000e+00
      2.350    22.3882    13.3428    150.832  32.990023     34.771      8.680   207.1429     7.9903     1.6422     0.0229      0.044      2.304      3.342        353 1.0320e+02 0.0000e+00
      2.365    22.3403    13.0723    147.796  32.978883     34.784      8.667   207.2944     8.0226     1.6153     0.0229      0.050      2.319      3.364        354 1.0252e+02 0.0000e+00
      2.380    22.2845    12.8458    145.262  32.932718     34.740      8.659   207.0672     7.9943     1.6422     0.0228      0.055      2.334      3.385        355 1.0100e+02 0.0000e+00
      2.395    22.2234    12.6845    143.406  32.928871     34.774      8.653   207.2565     8.0064     1.6422     0.0228      0.058      2.348      3.406        356 9.9566e+01 0.0000e+00
      2.408    22.0909    12.5872    141.888  32.983691     34.875      8.643   210.1715     7.8043     1.6825     0.0229      0.059      2.361      3.424        357 9.8496e+01 0.0000e+00
      2.418    21.8642    12.5366    140.777  32.983137     34.920      8.632   210.9287     7.8043     1.7765     0.0229      0.058      2.372      3.440        358 9.6762e+01 0.0000e+00
      2.429    21.6424    12.4937    139.874  32.988903     35.016      8.610   212.5565     7.8043     1.6153     0.0229      0.055      2.382      3.455        359 9.5531e+01 0.0000e+00
      2.439    21.4921    12.3302    137.786  33.035888     35.249      8.590   213.0108     7.7962     1.6019     0.0229      0.052      2.392      3.469        360 9.4182e+01 0.0000e+00
      2.449    21.4246    12.0395    134.331  33.043375     35.415      8.571   213.0108     7.4242     1.3333     0.0229      0.049      2.402      3.483        361 9.2671e+01 0.0000e+00
      2.459    21.3973    11.6274    129.543  33.038987     35.532      8.552   213.0487     7.4605     1.2796     0.0229      0.045      2.411      3.497        362 9.1500e+01 0.0000e+00
      2.467    21.3911    11.1377    124.019  33.041415     35.581      8.527   213.2001     7.4484     1.2931     0.0229      0.042      2.419      3.509        363 9.0132e+01 0.0000e+00
      2.475    21.3966    10.6049    117.929  33.040388     35.602      8.506   213.2758     7.4120     1.3065     0.0229      0.039      2.427      3.521        364 8.9028e+01 0.0000e+00
      2.483    21.4098    10.1503    112.527  33.040279     35.608      8.481   213.6922     7.0521     1.2393     0.0229      0.037      2.435      3.533        365 8.8214e+01 0.0000e+00
      2.493    21.3901     9.7535    107.765  33.041556     35.602      8.446   214.8658     7.0400     1.2931     0.0229      0.036      2.445      3.547        366 8.7257e+01 0.0000e+00
      2.504    21.2458     9.4865    104.494  33.098107     35.655      8.416   214.3737     7.0804     1.2125     0.0229      0.036      2.456      3.563        367 8.6255e+01 0.0000e+00
      2.518    21.0480     9.2791    102.036  33.147827     35.724      8.382   215.0551     7.0562     1.2393     0.0229      0.037      2.469      3.582        368 8.5594e+01 0.0000e+00
      2.532    20.8958     9.1095    100.201  33.216935     35.901      8.350   216.3801     7.0400     1.2125     0.0230      0.039      2.484      3.602        369 8.4726e+01 0.0000e+00
      2.548    20.7995     8.9534     98.406  33.338362     36.206      8.322   217.7051     7.0562     1.2662     0.0230      0.043      2.498      3.622        370 8.3725e+01 0.0000e+00
      2.561    20.7199     8.7781     96.433  33.352649     36.327      8.299   217.4022     7.0764     1.2393     0.0230      0.047      2.511      3.642        371 8.3430e+01 0.0000e+00
      2.573    20.6486     8.5804     94.379  33.317844     36.372      8.277   216.8344     7.0562     1.3333     0.0230      0.050      2.524      3.661        372 8.2679e+01 0.0000e+00
      2.587    20.6173     8.4261     92.781  33.263105     36.374      8.257   215.5472     7.1694     1.2393     0.0230      0.052      2.537      3.679        373 8.1794e+01 0.0000e+00
      2.600    20.5490     8.3137     91.549  33.272533     36.433      8.238   215.6230     7.1856     1.2393     0.0230      0.053      2.549      3.698        374 8.1488e+01 0.0000e+00
      2.612    20.3950     8.2630     90.998  33.395106     36.608      8.221   215.2822     7.1977     1.2528     0.0231      0.053      2.561      3.715        375 8.0795e+01 0.0000e+00
      2.624    20.2248     8.2838     91.199  33.466448     36.724      8.203   215.5851     7.1815     1.3333     0.0231      0.052      2.573      3.732        376 8.0039e+01 0.0000e+00
      2.635    20.0693     8.3395     91.734  33.569301     36.974      8.187   215.9258     7.1896     1.2259     0.0232      0.050      2.584      3.748        377 7.9203e+01 0.0000e+00
      2.647    19.9892     8.4077     92.368  33.623031     37.175      8.164   218.1594     7.8043     1.2528     0.0232      0.049      2.596      3.765        378 7.8113e+01 0.0000e+00
      2.658    19.9947     8.4754     92.887  33.636899     37.302      8.138   218.7651     7.8043     1.3602     0.0232      0.048      2.607      3.781        379 7.6830e+01 0.0000e+00
      2.669    19.9614     8.5175     93.039  33.611420     37.373      8.112   220.2415     7.8043     1.2393     0.0232      0.047      2.618      3.797        380 7.5062e+01 0.0000e+00
      2.682    19.9368     8.4952     92.555  33.595465     37.299      8.078   221.8315     7.8407     1.2393     0.0232      0.046      2.630      3.815        381 7.3423e+01 0.0000e+00
      2.694    19.9980     8.3952     91.296  33.656765     37.456      8.046   222.2858    14.1487     1.4273     0.0232      0.046      2.642      3.832        382 7.2040e+01 0.0000e+00
      2.707    20.0500     8.2187     89.341  33.594453     37.352      8.014   223.1566    14.1285     1.4945     0.0232      0.046      2.655      3.850        383 7.0456e+01 0.0000e+00
      2.720    20.0564     7.9643     86.503  33.613704     37.362      7.977   224.7844    14.1326     1.3871     0.0232      0.047      2.666      3.867        384 6.9161e+01 0.0000e+00
      2.727    20.0582     7.6944     83.423  33.632792     37.317      7.944   226.4501    14.1851     1.4810     0.0232      0.046      2.674      3.878        385 6.8222e+01 0.0000e+00
      2.733    20.0442     7.4532     80.325  33.629989     37.314      7.915   227.6616    18.5320     1.9645     0.0232      0.044      2.680      3.888        386 6.7259e+01 0.0000e+00
      2.739    20.0004     7.2044     77.241  33.676495     37.373      7.890   228.0401    18.4876     1.8436     0.0232      0.041      2.688      3.898        387 6.6065e+01 0.0000e+00
      2.749    19.9375     6.9641     74.628  33.693537     37.385      7.869   227.3587    18.4997     1.8705     0.0232      0.039      2.699      3.914        388 6.4763e+01 0.0000e+00
      2.766    19.8133     6.7491     72.355  33.816376     37.577      7.847   228.5323    18.5280     1.8973     0.0233      0.038      2.715      3.938        389 6.3202e+01 0.0000e+00
      2.789    19.6531     6.5177     69.815  33.909165     37.723      7.818   229.1001    14.5976     1.8839     0.0233      0.041      2.736      3.968        390 6.1330e+01 0.0000e+00
      2.814    19.5165     6.3466     67.757  33.993276     37.919      7.796   229.3273    14.6178     1.7765     0.0234      0.048      2.758      4.000        391 5.9698e+01 0.0000e+00
      2.834    19.4332     6.2064     66.075  34.037973     38.123      7.771   230.6144    14.5935     1.8167     0.0234      0.056      2.777      4.028        392 5.8642e+01 0.0000e+00
      2.848    19.4019     6.0845     64.658  34.001890     38.171      7.750   230.0466    14.5976     1.9242     0.0234      0.064      2.792      4.050        393 5.7694e+01 0.0000e+00
      2.860    19.3714     5.9687     63.315  34.038241     38.314      7.732   230.6523    12.5515     1.4945     0.0234      0.069      2.806      4.070        394 5.6715e+01 0.0000e+00
      2.875    19.2685     5.8290     61.712  34.111398     38.394      7.714   230.5387    12.5515     1.4273     0.0234      0.071      2.821      4.091        395 5.5910e+01 0.0000e+00
      2.894    18.9819     5.6738     59.905  34.177771     38.524      7.697   235.3844    12.5394     1.4945     0.0235      0.071      2.838      4.116        396 5.4992e+01 0.0000e+00
      2.913    18.7295     5.5084     58.093  34.103944     38.506      7.680   230.4251    12.5313     1.3602     0.0234      0.069      2.855      4.142        397 5.4249e+01 0.0000e+00
      2.928    18.6965     5.3475     56.381  34.055055     38.704      7.663   235.2709    12.5677     1.4542     0.0234      0.065      2.870      4.164        398 5.3664e+01 0.0000e+00
      2.940    18.7212     5.1594     54.285  34.149755     39.059      7.649   237.0502    10.2143     1.2125     0.0235      0.062      2.882      4.180        399 5.3458e+01 0.0000e+00
      2.948    18.6723     4.9626     52.081  34.104814     39.016      7.637   236.4823    10.2466     1.1588     0.0235      0.059      2.891      4.193        400 5.3264e+01 0.0000e+00
      2.956    18.5180     4.7411     49.576  34.111016     38.998      7.621   239.3216    10.2183     1.1991     0.0235      0.056      2.900      4.207        401 5.2922e+01 0.0000e+00
      2.969    18.3777     4.5451     47.295  34.290322     39.259      7.610   239.6245    10.2143     1.1856     0.0236      0.053      2.913      4.225        402 5.2671e+01 0.0000e+00
      2.986    18.2866     4.3668     45.246  34.474827     39.599      7.597   239.9652     7.9175     1.0111     0.0237      0.051      2.929      4.248        403 5.2226e+01 0.0000e+00
      3.005    18.2015     4.2099     43.468  34.563564     39.853      7.581   241.1009     7.9458     1.0648     0.0237      0.050      2.946      4.273        404 5.2120e+01 0.0000e+00
      3.021    18.1016     4.0873     42.086  34.476519     39.807      7.568   239.6245     7.9458     0.9439     0.0237      0.051      2.963      4.298        405 5.1719e+01 0.0000e+00
      3.040    17.9733     4.0046     41.143  34.642516     40.081      7.555   240.6845     7.9256     1.0379     0.0238      0.055      2.979      4.320        406 5.1231e+01 0.0000e+00
      3.050    17.9182     3.9508     40.538  34.861197     40.462      7.537   240.7980     7.7921     1.1319     0.0239      0.058      2.991      4.338        407 5.1296e+01 0.0000e+00
      3.059    17.8988     3.9445     40.437  34.856879     40.523      7.524   240.6087     7.8123     1.3065     0.0239      0.059      3.001      4.353        408 5.0951e+01 0.0000e+00
      3.073    17.8038     3.9461     40.399  34.914856     40.704      7.508   240.1166     7.8366     1.2393     0.0239      0.059      3.014      4.372        409 5.0334e+01 0.0000e+00
      3.091    17.6766     3.9460     40.374  34.967022     40.718      7.495   240.6845     7.7962     1.2259     0.0239      0.058      3.031      4.396        410 4.9892e+01 0.0000e+00
      3.108    17.5013     3.9401     40.257  34.910610     40.813      7.479   240.2302     7.4242     1.1185     0.0239      0.057      3.048      4.421        411 4.9508e+01 0.0000e+00
      3.125    17.2693     3.9191     39.946  34.718185     40.638      7.467   240.2302     7.4363     1.0514     0.0238      0.056      3.065      4.445        412 4.9090e+01 0.0000e+00
      3.141    17.0618     3.8583     39.213  34.524437     40.640      7.447   241.1766     7.4120     1.0379     0.0238      0.058      3.080      4.467        413 4.8673e+01 0.0000e+00
      3.156    16.8959     3.7742     38.294  34.380727     40.635      7.433   242.2745     7.4322     1.0514     0.0237      0.059      3.095      4.488        414 4.8257e+01 0.0000e+00
      3.171    16.7619     3.6477     37.014  34.333653     40.834      7.416   241.0252     7.0562     1.0648     0.0237      0.062      3.110      4.511        415 4.7885e+01 0.0000e+00
      3.187    16.6562     3.4634     35.166  34.316206     40.930      7.402   241.5930     7.0562     1.0916     0.0237      0.063      3.125      4.532        416 4.7559e+01 0.0000e+00
      3.201    16.5966     3.2353     32.867  34.343204     41.128      7.386   242.7287     7.0602     1.0245     0.0237      0.063      3.139      4.552        417 4.7197e+01 0.0000e+00
      3.214    16.5500     2.9926     30.371  34.418744     41.300      7.372   243.3723     7.0562     1.0782     0.0237      0.061      3.152      4.572        418 4.6849e+01 0.0000e+00
      3.229    16.4925     2.7549     27.887  34.489157     41.460      7.356   243.6373     7.0602     1.0514     0.0238      0.059      3.167      4.593        419 4.6366e+01 0.0000e+00
      3.246    16.4572     2.5766     26.059  34.522522     41.536      7.335   242.4259     6.3930     0.9305     0.0238      0.058      3.184      4.617        420 4.5747e+01 0.0000e+00
      3.265    16.3945     2.4607     24.871  34.584845     41.668      7.316   244.1295     6.4092     0.9574     0.0238      0.059      3.202      4.644        421 4.5146e+01 0.0000e+00
      3.284    16.2781     2.3993     24.250  34.767503     41.933      7.300   244.9245     6.4254     1.0648     0.0239      0.061      3.221      4.672        422 4.4535e+01 0.0000e+00
      3.305    16.1444     2.3810     24.058  35.007005     42.270      7.281   247.2716     6.4213     0.9574     0.0241      0.064      3.240      4.700        423 4.4063e+01 0.0000e+00
      3.324    16.0646     2.3947     24.185  35.295184     42.759      7.266   246.7038     5.1597     0.9439     0.0242      0.068      3.258      4.726        424 4.3614e+01 0.0000e+00
      3.340    16.0692     2.4479     24.681  35.357975     42.969      7.251   248.7481     5.1597     1.0379     0.0243      0.070      3.274      4.748        425 4.3201e+01 0.0000e+00
      3.352    16.0971     2.5025     25.188  35.255157     42.917      7.235   251.7388     5.1516     1.0514     0.0242      0.071      3.286      4.767        426 4.2961e+01 0.0000e+00
      3.361    16.1226     2.5406     25.499  35.156250     42.808      7.221   249.8081     5.1638     1.1185     0.0242      0.068      3.297      4.782        427 4.2641e+01 0.0000e+00
      3.374    16.0694     2.5689     25.727  35.125170     42.710      7.209   251.4738     4.1043     1.0379     0.0242      0.064      3.309      4.799        428 4.2258e+01 0.0000e+00
      3.387    15.9597     2.5838     25.864  35.086219     42.685      7.195   252.1173     4.1084     1.0111     0.0241      0.059      3.322      4.817        429 4.1773e+01 0.0000e+00
      3.399    15.9076     2.5837     25.852  35.026773     42.598      7.184   253.8588     4.0922     0.9842     0.0241      0.054      3.333      4.833        430 4.1479e+01 0.0000e+00
      3.409    15.8872     2.5818     25.826  35.110200     42.896      7.168   255.5624     4.1124     0.9574     0.0242      0.050      3.343      4.848        431 4.1266e+01 0.0000e+00
      3.418    15.8764     2.5899     25.876  35.071409     42.835      7.157   254.5024     4.0275     0.9708     0.0241      0.046      3.352      4.862        432 4.1007e+01 0.0000e+00
      3.427    15.8704     2.5794     25.727  35.045417     42.867      7.143   254.2374     4.0518     0.9842     0.0241      0.044      3.362      4.875        433 4.0711e+01 0.0000e+00
      3.437    15.8401     2.5762     25.645  35.112902     42.937      7.129   253.4045     4.0315     0.9574     0.0242      0.042      3.372      4.890        434 4.0326e+01 0.0000e+00
      3.450    15.7711     2.5743     25.596  35.106064     42.952      7.118   256.0545     4.0235     0.8902     0.0242      0.042      3.383      4.907        435 3.9992e+01 0.0000e+00
      3.462    15.6830     2.5813     25.643  35.113249     42.975      7.106   250.9816     3.9790     0.7694     0.0242      0.042      3.397      4.926        436 3.9562e+01 0.0000e+00
      3.479    15.5541     2.5951     25.753  35.044661     42.988      7.095   250.8681     3.9709     0.8365     0.0242      0.043      3.412      4.949        437 3.9009e+01 0.0000e+00
      3.496    15.4532     2.6301     26.062  34.954190     42.936      7.084   253.2909     3.9749     0.8634     0.0241      0.046      3.428      4.971        438 3.8568e+01 0.0000e+00
      3.508    15.4277     2.6668     26.395  34.988621     43.147      7.073   252.5716     3.9588     0.7022     0.0241      0.050      3.439      4.987        439 3.8397e+01 0.0000e+00
      3.515    15.4126     2.7097     26.773  35.001866     43.255      7.060   251.8145     3.9709     0.7559     0.0242      0.051      3.447      4.999        440 3.8144e+01 0.0000e+00
      3.522    15.3947     2.7588     27.197  34.997065     43.278      7.051   251.4738     3.7525     0.7962     0.0242      0.050      3.455      5.011        441 3.7796e+01 0.0000e+00
      3.531    15.3428     2.7964     27.554  34.994615     43.299      7.040   250.6409     3.7606     0.8231     0.0242      0.047      3.465      5.026        442 3.7325e+01 0.0000e+00
      3.548    15.2591     2.8338     27.919  34.945609     43.243      7.029   251.7388     3.7970     0.9036     0.0241      0.046      3.480      5.047        443 3.6760e+01 0.0000e+00
      3.566    15.1738     2.8506     28.078  34.880119     43.234      7.016   251.9281     3.7768     0.7828     0.0241      0.046      3.495      5.071        444 3.6363e+01 0.0000e+00
      3.581    15.1148     2.8567     28.130  34.779565     43.182      7.006   253.2909     3.3684     0.8365     0.0240      0.046      3.510      5.091        445 3.6051e+01 0.0000e+00
      3.591    15.0770     2.8513     28.067  34.774208     43.278      6.991   251.7766     3.3724     0.8365     0.0241      0.047      3.521      5.107        446 3.5685e+01 0.0000e+00
      3.602    15.0252     2.8484     27.983  34.827509     43.408      6.981   252.5338     3.3805     0.7291     0.0241      0.049      3.532      5.123        447 3.5330e+01 0.0000e+00
      3.614    14.9590     2.8446     27.827  34.831892     43.450      6.971   253.2909     3.3724     0.8499     0.0241      0.052      3.544      5.141        448 3.4920e+01 0.0000e+00
      3.627    14.9048     2.8313     27.604  34.828089     43.505      6.961   253.8588     3.0489     0.9574     0.0241      0.052      3.557      5.159        449 3.4519e+01 0.0000e+00
      3.640    14.8224     2.8116     27.351  34.832267     43.579      6.953   252.0416     3.0530     1.0648     0.0241      0.051      3.570      5.177        450 3.4122e+01 0.0000e+00
      3.654    14.7258     2.7866     27.080  34.886039     43.707      6.944   253.5559     3.0853     1.0916     0.0241      0.050      3.583      5.196        451 3.3820e+01 0.0000e+00
      3.665    14.6969     2.7638     26.830  34.879833     43.795      6.936   253.3288     3.0934     0.9976     0.0241      0.048      3.594      5.211        452 3.3653e+01 0.0000e+00
      3.673    14.6934     2.7194     26.358  34.840028     43.838      6.927   252.9881     3.3846     0.9574     0.0241      0.047      3.603      5.225        453 3.3235e+01 0.0000e+00
      3.684    14.6811     2.6775     25.918  34.876297     43.935      6.919   252.4581     3.3522     1.0111     0.0242      0.047      3.612      5.238        454 3.2923e+01 0.0000e+00
      3.693    14.6680     2.6192     25.335  34.894030     43.941      6.909   250.8302     3.3886     1.0111     0.0242      0.045      3.622      5.252        455 3.2755e+01 0.0000e+00
      3.703    14.6506     2.5572     24.709  34.877280     43.953      6.901   250.8681     3.3967     1.0648     0.0242      0.043      3.632      5.267        456 3.2527e+01 0.0000e+00
      3.715    14.5558     2.5016     24.143  34.837832     43.898      6.892   251.2845     3.5746     1.0514     0.0241      0.042      3.643      5.284        457 3.2221e+01 0.0000e+00
      3.728    14.3685     2.4243     23.377  34.943130     44.058      6.887   251.8902     3.5867     0.9439     0.0242      0.041      3.656      5.302        458 3.1947e+01 0.0000e+00
      3.741    14.2098     2.3542     22.687  35.102150     44.371      6.877   252.3823     3.5746     0.9708     0.0243      0.042      3.669      5.321        459 3.1740e+01 0.0000e+00
      3.754    14.1131     2.2772     21.944  35.173825     44.662      6.872   252.3823     3.5908     1.0379     0.0243      0.044      3.682      5.341        460 3.1335e+01 0.0000e+00
      3.770    14.0608     2.2105     21.304  35.239563     44.944      6.867   254.2752     3.5706     1.0111     0.0244      0.047      3.697      5.362        461 3.1007e+01 0.0000e+00
      3.785    14.0136     2.1425     20.634  35.257678     45.060      6.856   254.2752     2.9923     1.0379     0.0244      0.050      3.711      5.383        462 3.0843e+01 0.0000e+00
      3.798    13.9435     2.0711     19.938  35.299622     45.187      6.850   253.5559     2.9762     0.8902     0.0245      0.053      3.724      5.401        463 3.0623e+01 0.0000e+00
      3.809    13.8861     1.9901     19.150  35.424662     45.387      6.844   253.7831     3.0166     1.0379     0.0245      0.054      3.735      5.417        464 3.0471e+01 0.0000e+00
      3.817    13.8493     1.8994     18.256  35.517312     45.612      6.834   253.6316     2.9762     1.0648     0.0246      0.052      3.744      5.430        465 3.0369e+01 0.0000e+00
      3.827    13.8030     1.7920     17.206  35.480938     45.609      6.829   253.7452     2.9478     1.0245     0.0246      0.050      3.753      5.443        466 3.0216e+01 0.0000e+00
      3.837    13.7491     1.6468     15.796  35.529274     45.722      6.819   254.0859     2.9276     1.0379     0.0246      0.047      3.763      5.457        467 3.0122e+01 0.0000e+00
      3.847    13.7096     1.4565     13.957  35.724107     46.029      6.810   254.3131     2.9195     1.0111     0.0247      0.044      3.772      5.471        468 2.9986e+01 0.0000e+00
      3.856    13.6826     1.2281     11.758  35.772353     46.166      6.803   254.3509     2.9357     1.0916     0.0248      0.041      3.781      5.483        469 2.9881e+01 0.0000e+00
      3.863    13.6815     0.9528      9.116  35.795507     46.213      6.797   254.5402     2.6769     1.0648     0.0248      0.038      3.788      5.495        470 2.9878e+01 0.0000e+00
      3.871    13.6837     0.6918      6.613  35.902927     46.426      6.789   254.6538     2.6891     1.0379     0.0248      0.036      3.796      5.505        471 2.9767e+01 0.0000e+00
      3.878    13.6559     0.4465      4.265  36.142890     46.681      6.781   255.4109     2.6688     0.9574     0.0250      0.034      3.803      5.516        472 2.9688e+01 0.0000e+00
      3.886    13.6360     0.2307      2.203  36.505308     47.216      6.777   255.5245     2.6850     0.9171     0.0252      0.033      3.811      5.527        473 2.9626e+01 0.0000e+00
      3.893    13.6143     0.0686      0.654  36.994230     47.797      6.770   255.9031     2.6850     1.0514     0.0254      0.032      3.818      5.537        474 2.9475e+01 0.0000e+00
      3.901    13.5637    -0.0529     -0.504  37.699680     48.832      6.762   256.6224     2.6931     1.0245     0.0259      0.031      3.826      5.548        475 2.9386e+01 0.0000e+00
      3.910    13.5143    -0.1124     -1.070  38.415582     49.691      6.757   256.5845     2.6688     1.0111     0.0262      0.030      3.834      5.561        476 2.9275e+01 0.0000e+00
      3.920    13.4709    -0.1271     -1.209  39.069560     50.701      6.751   257.0766     2.6850     0.9842     0.0267      0.031      3.844      5.576        477 2.9100e+01 0.0000e+00
      3.931    13.4276    -0.1149     -1.092  39.347891     51.055      6.744   257.0009     2.8063     1.1991     0.0268      0.032      3.855      5.592        478 2.8924e+01 0.0000e+00
      3.943    13.3890    -0.0842     -0.800  39.315107     51.113      6.736   257.3038     2.8144     1.1991     0.0268      0.035      3.867      5.608        479 2.8737e+01 0.0000e+00
      3.955    13.3544    -0.0435     -0.413  39.288367     51.098      6.729   257.0388     2.8184     1.2528     0.0268      0.037      3.879      5.625        480 2.8515e+01 0.0000e+00
      3.967    13.3191     0.0057      0.054  39.262534     51.149      6.721   257.6445     2.7982     1.2662     0.0268      0.040      3.890      5.642        481 2.8257e+01 0.0000e+00
      3.980    13.2846     0.0577      0.547  39.109965     50.977      6.710   257.4931     2.8023     1.1319     0.0267      0.043      3.902      5.659        482 2.7991e+01 0.0000e+00
      3.991    13.2523     0.1176      1.114  38.914641     50.768      6.704   257.7202     2.8184     1.2259     0.0266      0.045      3.914      5.676        483 2.7697e+01 0.0000e+00
      4.003    13.2152     0.1733      1.641  39.001341     50.924      6.694   257.9852     2.8265     1.2662     0.0266      0.046      3.926      5.694        484 2.7440e+01 0.0000e+00
      4.018    13.1742     0.2169      2.053  39.091076     51.113      6.682   258.1745     2.7982     1.1588     0.0267      0.048      3.940      5.713        485 2.7179e+01 0.0000e+00
      4.030    13.1349     0.2450      2.318  38.921642     50.906      6.670   258.5152     2.7821     1.1991     0.0266      0.048      3.952      5.732        486 2.6870e+01 0.0000e+00
      4.042    13.0997     0.2603      2.461  38.648608     50.632      6.656   258.4017     2.7901     1.5079     0.0265      0.049      3.964      5.748        487 2.6621e+01 0.0000e+00
      4.052    13.0685     0.2577      2.435  38.392659     50.317      6.646   258.7802     2.8063     1.4139     0.0263      0.049      3.974      5.763        488 2.6432e+01 0.0000e+00
      4.061    13.0385     0.2466      2.328  38.320625     50.291      6.634   258.6288     2.8144     1.4139     0.0263      0.047      3.983      5.777        489 2.6235e+01 0.0000e+00
      4.071    13.0076     0.2316      2.186  38.322989     50.332      6.621   258.8181     2.7901     1.5482     0.0263      0.046      3.993      5.791        490 2.6028e+01 0.0000e+00
      4.082    12.9743     0.2100      1.981  38.449061     50.518      6.610   259.2345     2.9034     1.4273     0.0264      0.045      4.003      5.806        491 2.5773e+01 0.0000e+00
      4.093    12.9428     0.2101      1.981  38.786675     51.037      6.602   259.5374     2.9478     1.5213     0.0266      0.043      4.013      5.821        492 2.5553e+01 0.0000e+00
      4.104    12.9169     0.2208      2.080  39.000396     51.340      6.593   259.5752     2.9236     1.4676     0.0267      0.041      4.023      5.836        493 2.5425e+01 0.0000e+00
      4.112    12.8940     0.2571      2.420  39.043349     51.457      6.584   259.6509     2.9357     1.4005     0.0267      0.040      4.031      5.848        494 2.5281e+01 0.0000e+00
      4.118    12.8720     0.3035      2.854  39.000210     51.417      6.578   260.5974     3.0166     1.4005     0.0267      0.038      4.038      5.858        495 2.5118e+01 0.0000e+00
      4.125    12.8474     0.3807      3.577  38.905777     51.338      6.568   260.6731     3.0004     1.3199     0.0267      0.037      4.045      5.868        496 2.4940e+01 0.0000e+00
      4.133    12.8210     0.4899      4.600  38.804918     51.220      6.564   262.4524     2.9923     1.4676     0.0266      0.035      4.053      5.879        497 2.4752e+01 0.0000e+00
      4.143    12.7941     0.6380      5.987  38.710448     51.143      6.556   264.4210     3.0287     1.4945     0.0266      0.034      4.063      5.892        498 2.4613e+01 0.0000e+00
      4.153    12.7673     0.8219      7.708  38.578404     50.994      6.550   265.0645     2.8912     1.7228     0.0265      0.033      4.073      5.906        499 2.4429e+01 0.0000e+00
      4.162    12.7422     1.0214      9.574  38.375991     50.771      6.544   266.1245     2.8589     1.6422     0.0264      0.033      4.082      5.920        500 2.4267e+01 0.0000e+00
      4.171    12.7189     1.2459     11.670  38.220782     50.585      6.539   266.9195     2.8710     1.6825     0.0263      0.033      4.090      5.932        501 2.4150e+01 0.0000e+00
      4.178    12.6946     1.4788     13.842  38.267304     50.693      6.532   266.8817     2.8993     1.6422     0.0263      0.034      4.099      5.945        502 2.3950e+01 0.0000e+00
      4.191    12.6635     1.7282     16.169  38.110470     50.539      6.527   266.9195     2.6891     1.9107     0.0262      0.036      4.112      5.964        503 2.3708e+01 0.0000e+00
      4.211    12.6271     1.9445     18.192  37.644747     49.904      6.522   268.1310     2.6769     1.8436     0.0260      0.040      4.129      5.988        504 2.3441e+01 0.0000e+00
      4.229    12.5899     2.1452     20.057  37.304465     49.537      6.515   267.7524     2.6527     1.8839     0.0258      0.044      4.145      6.013        505 2.3217e+01 0.0000e+00
      4.242    12.5534     2.3241     21.715  37.021208     49.177      6.510   267.8281     2.6729     1.8167     0.0256      0.049      4.160      6.034        506 2.2944e+01 0.0000e+00
      4.256    12.5174     2.4687     23.058  36.781161     48.928      6.498   267.7524     2.6769     1.8302     0.0255      0.052      4.172      6.052        507 2.2710e+01 0.0000e+00
      4.267    12.4858     2.5996     24.280  36.683730     48.827      6.497   267.0331     3.3158     2.4479     0.0254      0.055      4.184      6.069        508 2.2558e+01 0.0000e+00
      4.278    12.4644     2.6861     25.095  36.608586     48.799      6.488   267.2602     3.2996     2.3941     0.0254      0.056      4.196      6.085        509 2.2346e+01 0.0000e+00
      4.289    12.4400     2.7615     25.804  36.489109     48.654      6.483   266.8438     3.3118     2.4210     0.0253      0.055      4.207      6.101        510 2.2110e+01 0.0000e+00
      4.301    12.4094     2.8228     26.376  36.417187     48.607      6.479   267.2224     3.3239     2.3941     0.0253      0.052      4.217      6.116        511 2.1901e+01 0.0000e+00
      4.309    12.3796     2.8719     26.827  36.371839     48.563      6.475   267.0331     3.5665     3.6027     0.0253      0.047      4.226      6.129        512 2.1775e+01 0.0000e+00
      4.316    12.3613     2.9010     27.096  36.308275     48.530      6.468   266.9195     3.6029     3.4550     0.0252      0.043      4.233      6.139        513 2.1661e+01 0.0000e+00
      4.324    12.3547     2.9255     27.320  36.259026     48.492      6.464   267.5631     3.5827     3.5087     0.0252      0.040      4.240      6.149        514 2.1528e+01 0.0000e+00
      4.330    12.3296     2.9331     27.372  36.284842     48.556      6.460   268.3203     3.5827     3.5490     0.0252      0.037      4.247      6.159        515 2.1413e+01 0.0000e+00
      4.338    12.2985     2.9392     27.398  36.246497     48.523      6.456   268.5474     3.1824     5.0395     0.0252      0.034      4.254      6.169        516 2.1287e+01 0.0000e+00
      4.344    12.2835     2.9370     27.343  36.128795     48.371      6.450   268.6988     3.2066     4.9052     0.0251      0.032      4.260      6.179        517 2.1156e+01 0.0000e+00
      4.352    12.2835     2.9280     27.226  36.105073     48.411      6.448   269.2667     3.1783     4.9857     0.0251      0.030      4.267      6.189        518 2.1082e+01 0.0000e+00
      4.359    12.2946     2.9490     27.403  36.127732     48.431      6.446   269.5317     3.1986     4.9052     0.0251      0.028      4.275      6.200        519 2.1000e+01 0.0000e+00
      4.367    12.3036     3.0054     27.914  36.219242     48.581      6.441   269.5317     2.9802     5.2006     0.0252      0.028      4.282      6.211        520 2.0851e+01 0.0000e+00
      4.374    12.3010     3.0962     28.750  36.198809     48.528      6.439   269.7210     2.9964     5.2140     0.0252      0.028      4.289      6.221        521 2.0732e+01 0.0000e+00
      4.381    12.2888     3.2260     29.948  36.123498     48.404      6.434   270.0995     3.0368     5.2140     0.0251      0.028      4.297      6.232        522 2.0620e+01 0.0000e+00
      4.389    12.2828     3.3939     31.483  36.105343     48.407      6.435   270.3645     2.9923     5.1334     0.0251      0.029      4.305      6.244        523 2.0418e+01 0.0000e+00
      4.400    12.2762     3.5796     33.174  36.073103     48.349      6.432   270.4024     2.9802     5.1872     0.0251      0.030      4.315      6.258        524 2.0250e+01 0.0000e+00
      4.410    12.2446     3.7833     35.034  36.104305     48.431      6.429   270.8188     2.9964     6.3151     0.0251      0.031      4.326      6.274        525 2.0008e+01 0.0000e+00
      4.425    12.1952     3.9839     36.869  36.007198     48.289      6.425   270.4403     2.9802     6.3017     0.0251      0.034      4.340      6.294        526 1.9681e+01 0.0000e+00
      4.441    12.1393     4.1536     38.421  35.838043     48.105      6.420   271.0838     2.9923     6.3017     0.0250      0.039      4.355      6.315        527 1.9416e+01 0.0000e+00
      4.455    12.0881     4.3170     39.913  35.721642     48.020      6.418   271.1974     2.9883     6.2614     0.0249      0.043      4.369      6.335        528 1.9103e+01 0.0000e+00
      4.467    12.0565     4.4645     41.260  35.588554     47.903      6.414   271.3110     3.0449     9.6318     0.0249      0.048      4.381      6.354        529 1.8844e+01 0.0000e+00
      4.480    12.0364     4.5976     42.476  35.588467     47.971      6.410   271.3110     3.0409     9.5915     0.0249      0.051      4.393      6.372        530 1.8626e+01 0.0000e+00
      4.492    12.0257     4.7303     43.692  35.573479     48.010      6.408   271.6517     3.0570     9.6587     0.0249      0.052      4.405      6.389        531 1.8423e+01 0.0000e+00
      4.505    12.0136     4.8446     44.739  35.429271     47.811      6.405   271.1974     3.0772     9.6452     0.0248      0.053      4.418      6.407        532 1.8193e+01 0.0000e+00
      4.518    11.9815     4.9405     45.636  35.352719     47.748      6.402   271.9545     2.3979    11.2700     0.0247      0.052      4.430      6.426        533 1.7959e+01 0.0000e+00
      4.530    11.9402     5.0317     46.484  35.253531     47.613      6.398   271.8031     2.4060    11.2969     0.0247      0.051      4.442      6.443        534 1.7821e+01 0.0000e+00
      4.541    11.9057     5.1076     47.175  35.167154     47.541      6.398   272.2574     2.4222    11.3237     0.0246      0.049      4.453      6.459        535 1.7620e+01 0.0000e+00
      4.551    11.8788     5.1612     47.655  35.163643     47.595      6.395   272.2195     2.4343    11.4177     0.0246      0.048      4.464      6.474        536 1.7387e+01 0.0000e+00
      4.563    11.8564     5.2100     48.079  35.139286     47.601      6.394   272.4467     2.5516    10.0346     0.0246      0.047      4.475      6.489        537 1.7184e+01 0.0000e+00
      4.573    11.8369     5.2215     48.158  35.049191     47.523      6.390   273.0146     2.5233    10.0078     0.0246      0.046      4.485      6.504        538 1.7011e+01 0.0000e+00
      4.584    11.8179     5.2267     48.180  35.008854     47.475      6.390   275.7781     2.5435    10.0346     0.0246      0.045      4.495      6.519        539 1.6847e+01 0.0000e+00
      4.593    11.8035     5.2300     48.191  34.981889     47.501      6.386   276.1188     2.5597    10.1421     0.0246      0.043      4.504      6.533        540 1.6703e+01 0.0000e+00
      4.602    11.7925     5.2422     48.286  34.964126     47.449      6.386   275.8917     2.3373    10.4375     0.0245      0.041      4.513      6.546        541 1.6582e+01 0.0000e+00
      4.612    11.7857     5.2874     48.685  34.971651     47.544      6.384   276.0431     2.3251    10.3838     0.0246      0.040      4.522      6.559        542 1.6459e+01 0.0000e+00
      4.620    11.7947     5.3706     49.446  34.972529     47.481      6.379   276.1567     2.3413    10.4375     0.0245      0.039      4.530      6.571        543 1.6363e+01 0.0000e+00
      4.627    11.8007     5.4598     50.274  35.022355     47.644      6.379   276.0810     2.3373    10.5181     0.0246      0.037      4.538      6.582        544 1.6217e+01 0.0000e+00
      4.636    11.7913     5.5791     51.375  34.968964     47.478      6.379   277.0653     1.8318    11.2969     0.0245      0.036      4.546      6.594        545 1.6074e+01 0.0000e+00
      4.645    11.7766     5.7112     52.587  34.920340     47.471      6.375   278.3146     1.8318    11.2297     0.0245      0.035      4.556      6.608        546 1.5983e+01 0.0000e+00
      4.656    11.7540     5.8490     53.849  34.904917     47.407      6.373   277.1410     1.8439    11.3909     0.0245      0.034      4.567      6.624        547 1.5850e+01 0.0000e+00
      4.669    11.7283     5.9768     55.010  34.810212     47.350      6.374   277.4817     1.8358    11.3237     0.0245      0.036      4.580      6.643        548 1.5657e+01 0.0000e+00
      4.686    11.7053     6.0659     55.822  34.682310     47.151      6.370   277.8981     1.8278    11.2700     0.0244      0.039      4.595      6.665        549 1.5405e+01 0.0000e+00
      4.701    11.6870     6.1293     56.412  34.619233     47.146      6.367   277.8603     1.6498    12.0086     0.0244      0.043      4.609      6.686        550 1.5200e+01 0.0000e+00
      4.714    11.6715     6.1833     56.911  34.532831     47.024      6.367   278.0117     1.6458    11.9683     0.0243      0.047      4.623      6.705        551 1.5003e+01 0.0000e+00
      4.727    11.6571     6.2124     57.156  34.522929     47.047      6.363   278.3524     1.6337    11.9683     0.0243      0.051      4.635      6.723        552 1.4833e+01 0.0000e+00
      4.738    11.6519     6.2390     57.372  34.572251     47.143      6.362   278.2767     1.6377    11.9414     0.0243      0.052      4.646      6.738        553 1.4728e+01 0.0000e+00
      4.747    11.6571     6.2775     57.697  34.530775     47.086      6.361   279.1474     1.7064    11.9280     0.0243      0.052      4.655      6.752        554 1.4621e+01 0.0000e+00
      4.756    11.6594     6.3016     57.906  34.544893     47.130      6.358   279.2610     1.7145    11.8877     0.0243      0.050      4.664      6.764        555 1.4495e+01 0.0000e+00
      4.765    11.6560     6.3427     58.278  34.525025     47.085      6.355   280.1317     1.6943    11.9011     0.0243      0.046      4.673      6.777        556 1.4340e+01 0.0000e+00
      4.774    11.6501     6.3860     58.671  34.525842     47.082      6.355   279.7153     1.6862    11.9280     0.0243      0.042      4.681      6.789        557 1.4188e+01 0.0000e+00
      4.782    11.6386     6.4449     59.206  34.573533     47.163      6.352   280.2074     1.6377    11.7803     0.0243      0.039      4.689      6.801        558 1.4021e+01 0.0000e+00
      4.790    11.6319     6.5095     59.777  34.524990     47.094      6.349   280.4346     1.6296    11.8608     0.0243      0.036      4.698      6.813        559 1.3892e+01 0.0000e+00
      4.798    11.6374     6.5922     60.517  34.497284     47.071      6.349   280.7753     1.6094    11.7266     0.0243      0.034      4.705      6.824        560 1.3686e+01 0.0000e+00
      4.805    11.6380     6.6603     61.133  34.519045     47.118      6.346   281.0781     1.6458    11.7266     0.0243      0.033      4.713      6.835        561 1.3411e+01 0.0000e+00
      4.814    11.6218     6.7122     61.598  34.468254     47.035      6.347   281.1160     1.7550    11.6729     0.0243      0.033      4.721      6.847        562 1.3273e+01 0.0000e+00
      4.823    11.5986     6.7849     62.256  34.412205     46.956      6.343   280.8510     1.7833    11.7937     0.0242      0.032      4.730      6.860        563 1.3127e+01 0.0000e+00
      4.834    11.5780     6.8422     62.776  34.410855     46.979      6.341   281.4567     1.7954    11.7937     0.0242      0.033      4.740      6.875        564 1.2901e+01 0.0000e+00
      4.844    11.5681     6.9006     63.301  34.410626     47.007      6.341   281.5324     1.7631    11.6997     0.0242      0.034      4.751      6.890        565 1.2661e+01 0.0000e+00
      4.856    11.5640     6.9477     63.724  34.382841     46.997      6.339   281.4189     1.8803    11.5117     0.0242      0.036      4.762      6.905        566 1.2386e+01 0.0000e+00
      4.866    11.5605     6.9670     63.894  34.356470     46.971      6.337   281.3810     1.8884    11.3774     0.0242      0.037      4.772      6.920        567 1.2250e+01 0.0000e+00
      4.875    11.5549     6.9886     64.089  34.354478     46.976      6.333   281.3810     1.9167    11.5923     0.0242      0.039      4.782      6.935        568 1.1971e+01 0.0000e+00
      4.888    11.5392     7.0079     64.268  34.355665     46.981      6.333   282.2139     1.8965    11.5654     0.0242      0.041      4.794      6.953        569 1.1580e+01 0.0000e+00
      4.902    11.5252     7.0166     64.345  34.354996     46.987      6.330   282.2896     1.8682    11.4849     0.0242      0.042      4.806      6.972        570 1.1405e+01 0.0000e+00
      4.913    11.5184     7.0214     64.379  34.355315     47.008      6.328   282.4031     1.5771    11.4849     0.0242      0.044      4.818      6.989        571 1.1126e+01 0.0000e+00
      4.926    11.5106     7.0303     64.452  34.384931     47.065      6.329   283.2360     1.5568    11.5251     0.0242      0.045      4.830      7.006        572 1.0841e+01 0.0000e+00
      4.938    11.5044     7.0295     64.450  34.347802     47.034      6.325   282.9332     1.5730    11.4983     0.0242      0.046      4.842      7.023        573 1.0634e+01 0.0000e+00
      4.950    11.4998     7.0232     64.398  34.312554     46.968      6.326   283.1603     1.6094    11.4446     0.0242      0.047      4.855      7.041        574 1.0336e+01 0.0000e+00
      4.964    11.4926     7.0284     64.445  34.339829     47.053      6.321   283.5010     1.4194    10.8806     0.0242      0.048      4.868      7.060        575 1.0056e+01 0.0000e+00
      4.977    11.4861     7.0273     64.426  34.313862     46.982      6.321   283.4632     1.4517    10.9612     0.0242      0.049      4.881      7.079        576 9.8372e+00 0.0000e+00
      4.990    11.4818     7.0334     64.470  34.344872     47.068      6.317   283.6146     1.4598    10.9075     0.0242      0.049      4.893      7.096        577 9.6439e+00 0.0000e+00
      5.001    11.4803     7.0366     64.493  34.301239     47.000      6.317   284.0689     1.4315    10.9209     0.0242      0.049      4.903      7.112        578 9.4964e+00 0.0000e+00
      5.011    11.4810     7.0427     64.543  34.308851     47.005      6.313   283.5767     1.5932    11.1223     0.0242      0.049      4.913      7.126        579 9.3117e+00 0.0000e+00
      5.019    11.4787     7.0449     64.563  34.335403     47.084      6.312   284.0689     1.5568    11.0955     0.0242      0.047      4.923      7.140        580 9.1183e+00 0.0000e+00
      5.030    11.4719     7.0464     64.580  34.238539     46.891      6.312   283.9174     1.5649    11.0686     0.0241      0.045      4.933      7.155        581 8.9517e+00 0.0000e+00
      5.041    11.4668     7.0509     64.619  34.281110     47.009      6.310   284.2203     1.5649    11.0149     0.0242      0.044      4.942      7.169        582 8.8031e+00 0.0000e+00
      5.049    11.4697     7.0471     64.579  34.312083     47.018      6.307   284.2582     1.6175    10.6926     0.0242      0.041      4.951      7.181        583 8.6754e+00 0.0000e+00
      5.057    11.4740     7.0518     64.617  34.318626     47.063      6.308   284.2960     1.6458    10.6792     0.0242      0.039      4.959      7.193        584 8.4790e+00 0.0000e+00
      5.066    11.4731     7.0493     64.595  34.302626     47.021      6.303   285.5832     1.6418    10.7732     0.0242      0.037      4.969      7.206        585 8.2855e+00 0.0000e+00
      5.076    11.4670     7.0460     64.576  34.302337     47.015      6.309   285.8482     1.6539    10.6792     0.0242      0.037      4.978      7.219        586 8.0698e+00 0.0000e+00
      5.086    11.4596     7.0424     64.546  34.348643     47.093      6.304   286.1889     1.3547    10.0615     0.0242      0.037      4.988      7.234        587 7.8453e+00 0.0000e+00
      5.097    11.4548     7.0387     64.515  34.304314     47.024      6.303   286.5674     1.3830    10.0481     0.0242      0.037      4.999      7.250        588 7.6708e+00 0.0000e+00
      5.109    11.4513     7.0418     64.553  34.357506     47.111      6.301   286.7567     1.3749    10.0749     0.0242      0.038      5.012      7.268        589 7.4615e+00 0.0000e+00
      5.125    11.4511     7.0265     64.413  34.430735     47.232      6.301   287.7410     1.3749    10.0884     0.0243      0.041      5.026      7.288        590 7.1857e+00 0.0000e+00
      5.139    11.4531     7.0170     64.314  34.361470     47.122      6.299   288.1575     1.3870    10.0749     0.0242      0.044      5.039      7.308        591 7.0319e+00 0.0000e+00
      5.149    11.4516     6.9975     64.124  34.354737     47.122      6.299   288.8767     1.5124     9.1753     0.0242      0.046      5.049      7.323        592 6.9370e+00 0.0000e+00
      5.158    11.4481     6.9861     64.019  34.350144     47.119      6.299   288.9146     1.5002     9.1350     0.0242      0.047      5.058      7.337        593 6.7885e+00 0.0000e+00
      5.167    11.4447     6.9664     63.835  34.307871     47.044      6.298   289.0282     1.4638     9.2827     0.0242      0.047      5.068      7.350        594 6.6569e+00 0.0000e+00
      5.178    11.4458     6.9499     63.669  34.318374     47.087      6.296   289.1796     1.4881     9.2558     0.0242      0.046      5.078      7.365        595 6.4739e+00 0.0000e+00
      5.189    11.4525     6.9383     63.551  34.307418     47.053      6.296   289.8610     1.3587     7.7519     0.0242      0.044      5.088      7.380        596 6.3233e+00 0.0000e+00
      5.199    11.4553     6.9269     63.443  34.351163     47.129      6.296   289.3310     1.3910     7.8190     0.0242      0.042      5.097      7.393        597 6.1826e+00 0.0000e+00
      5.206    11.4572     6.9250     63.424  34.352903     47.119      6.293   289.9367     1.3668     7.6982     0.0242      0.039      5.105      7.404        598 6.0655e+00 0.0000e+00
      5.213    11.4630     6.9325     63.493  34.305250     47.040      6.293   290.2396     1.3668     7.6982     0.0242      0.037      5.112      7.415        599 5.9646e+00 0.0000e+00
      5.221    11.4637     6.9365     63.530  34.351151     47.114      6.293   290.1639     1.4315     8.6113     0.0242      0.036      5.120      7.426        600 5.8370e+00 0.0000e+00
      5.230    11.4556     6.9451     63.609  34.325437     47.068      6.291   290.0125     1.4477     8.5979     0.0242      0.035      5.129      7.439        601 5.7540e+00 0.0000e+00
      5.238    11.4483     6.9619     63.758  34.307594     47.028      6.291   289.5960     1.4396     8.6516     0.0242      0.034      5.137      7.450        602 5.6709e+00 0.0000e+00
      5.245    11.4477     6.9722     63.847  34.343700     47.116      6.289   288.9525     1.4517     8.5307     0.0242      0.032      5.144      7.460        603 5.6143e+00 0.0000e+00
      5.252    11.4450     6.9789     63.913  34.310161     47.049      6.289   288.6875     1.5043     8.3562     0.0242      0.031      5.150      7.470        604 5.5159e+00 0.0000e+00
      5.259    11.4353     6.9848     63.974  34.349334     47.126      6.289   289.2553     1.5124     8.3696     0.0242      0.030      5.157      7.481        605 5.4083e+00 0.0000e+00
      5.267    11.4273     6.9888     64.014  34.354267     47.129      6.285   288.6875     1.4962     8.3293     0.0242      0.030      5.165      7.492        606 5.3512e+00 0.0000e+00
      5.274    11.4245     6.9990     64.108  34.333682     47.104      6.285   288.5360     1.5043     8.3830     0.0242      0.030      5.173      7.503        607 5.2529e+00 0.0000e+00
      5.284    11.4235     7.0155     64.261  34.345298     47.153      6.285   288.9146     1.3223     8.7724     0.0242      0.030      5.181      7.515        608 5.1348e+00 0.0000e+00
      5.292    11.4235 -9.990e-29 -9.990e-29  34.310157     47.079      6.283   288.9525     1.2778     8.7724     0.0242      0.030      5.189      7.526        609 5.0682e+00 0.0000e+00
      5.298    11.4241 -9.990e-29 -9.990e-29  34.347758     47.157      6.284   288.7632     1.3183     8.8261     0.0242      0.030      5.196      7.536        610 5.0373e+00 0.0000e+00
      5.305    11.4244 -9.990e-29 -9.990e-29  34.357819     47.157      6.282   289.1796     1.3102     8.8530     0.0242      0.030      5.203      7.546        611 4.9695e+00 0.0000e+00
      5.313    11.4206 -9.990e-29 -9.990e-29  34.356951     47.157      6.281   289.2553     1.3021     8.8530     0.0242      0.030      5.211      7.557        612 4.8666e+00 0.0000e+00
      5.322    11.4177 -9.990e-29 -9.990e-29  34.378496     47.194      6.278   289.7096     0.9826     6.8925     0.0242      0.031      5.218      7.568        613 4.8022e+00 0.0000e+00
      5.328    11.4205 -9.990e-29 -9.990e-29  34.360665     47.161      6.281   289.4067     0.9584     6.9059     0.0242      0.030      5.224      7.577        614 4.7593e+00 0.0000e+00
      5.331    11.4249 -9.990e-29 -9.990e-29  34.349485     47.165      6.277   289.2553     1.0150     6.9059     0.0242      0.029      5.228      7.583        615 4.7037e+00 0.0000e+00
      5.335    11.4272 -9.990e-29 -9.990e-29  34.362752     47.161      6.278   289.2553     0.9786     6.8388     0.0242      0.026      5.231      7.587        616 4.6736e+00 0.0000e+00
      5.336    11.4279 -9.990e-29 -9.990e-29  34.344153     47.156      6.276   288.8010     0.9988     6.5837     0.0242      0.023      5.233      7.590        617 4.6501e+00 0.0000e+00
      5.338    11.4285 -9.990e-29 -9.990e-29  34.313315     47.075      6.275   288.9903     0.9745     6.6642     0.0242      0.020      5.235      7.593        618 4.6318e+00 0.0000e+00
      5.340 -9.990e-29 -9.990e-29 -9.990e-29  34.371472     47.190      6.274   289.0660     0.9745     6.7179     0.0242      0.016      5.237      7.595        619 4.6129e+00 0.0000e+00
      5.341 -9.990e-29 -9.990e-29 -9.990e-29  34.420064     47.227      6.274   289.1039     0.9907     6.6911     0.0243      0.013      5.237      7.596        620 4.5989e+00 0.0000e+00
