* Sea-Bird SBE19plus  Data File:
* FileName = C:\DATA\071618_fcr_0002.hex
* Software version 2.6.3.104
* Temperature SN = 7809
* Conductivity SN = 7809
* System UpLoad Time = Jul 16 2018 16:09:28
* <ApplicationData>
* <Seaterm232>
* <SoftwareVersion>2.6.3.104</SoftwareVersion>
* <BuildDate>30-Jun-2017</BuildDate>
* </Seaterm232>
* </ApplicationData>
* <InstrumentState>
* <HardwareData DeviceType='SBE19plus' SerialNumber='01907809'>
*
*    <Manufacturer>Sea-Bird Electronics, Inc.</Manufacturer>
*
*    <FirmwareVersion>3.1.8</FirmwareVersion>
*
*    <FirmwareDate>Mar  9 2016 16:22:29</FirmwareDate>
*
*    <CommandSetVersion>1.4</CommandSetVersion>
*
*    <PCBAssembly PCBSerialNum='120721' AssemblyNum='41054J'/>
*
*    <PCBAssembly PCBSerialNum='120715' AssemblyNum='41967A'/>
*
*    <PCBAssembly PCBSerialNum='116699' AssemblyNum='41606'/>
*
*    <PCBAssembly PCBSerialNum='120719' AssemblyNum='41059D'/>
*
*    <MfgDate>28-Apr-2017</MfgDate>
*
*    <InternalSensors>
*
*       <Sensor id='Main Temperature'>
*
*          <type>temperature0</type>
*
*          <SerialNumber>01907809</SerialNumber>
*
*       </Sensor>
*
*       <Sensor id='Main Conductivity'>
*
*          <type>conductivity-0</type>
*
*          <SerialNumber>01907809</SerialNumber>
*
*       </Sensor>
*
*       <Sensor id='Main Pressure'>
*
*          <type>strain-0</type>
*
*          <SerialNumber>10586018</SerialNumber>
*
*       </Sensor>
*
*    </InternalSensors>
*
*    <ExternalSensors>
*
*       <Sensor id='volt 0'>
*
*          <type>pH</type>
*
*          <SerialNumber>27-0363</SerialNumber>
*
*       </Sensor>
*
*       <Sensor id='volt 1'>
*
*          <type>ORP</type>
*
*          <SerialNumber>27-0363</SerialNumber>
*
*       </Sensor>
*
*       <Sensor id='volt 2'>
*
*          <type>OXY</type>
*
*          <SerialNumber>43-0434</SerialNumber>
*
*       </Sensor>
*
*       <Sensor id='volt 3'>
*
*          <type>PAR</type>
*
*          <SerialNumber>1122</SerialNumber>
*
*       </Sensor>
*
*       <Sensor id='volt 4'>
*
*          <type>ECO AFL/FL</type>
*
*          <SerialNumber>FLNTURT-2496</SerialNumber>
*
*       </Sensor>
*
*       <Sensor id='volt 5'>
*
*          <type>ECO-NTU</type>
*
*          <SerialNumber>FLNTURT-2496</SerialNumber>
*
*       </Sensor>
*
*       <Sensor id='serial'>
*
*          <type>not assigned</type>
*
*          <SerialNumber>not assigned</SerialNumber>
*
*       </Sensor>
*
*    </ExternalSensors>
*
* </HardwareData>
* <StatusData DeviceType='SBE19plus' SerialNumber='01907809'>
*
*    <DateTime>2018-07-16T20:08:52</DateTime>
*
*    <LoggingState>not logging</LoggingState>
*
*    <EventSummary numEvents='0'/>
*
*    <Power>
*
*       <vMain>12.6</vMain>
*
*       <vLith>8.8</vLith>
*
*       <iMain>63.3</iMain>
*
*       <iPump>41.7</iPump>
*
*       <iExt01>13.9</iExt01>
*
*       <iExt2345>42.6</iExt2345>
*
*    </Power>
*
*    <MemorySummary>
*
*       <Bytes>61801</Bytes>
*
*       <Samples>2687</Samples>
*
*       <SamplesFree>2858101</SamplesFree>
*
*       <SampleLength>23</SampleLength>
*
*       <Profiles>4</Profiles>
*
*    </MemorySummary>
*
* </StatusData>
* <ConfigurationData DeviceType='SBE19plus' SerialNumber='01907809'>
*
*    <ProfileMode>
*
*       <ScansToAverage>1</ScansToAverage>
*
*       <MinimumCondFreq>5</MinimumCondFreq>
*
*       <PumpDelay>45</PumpDelay>
*
*       <AutoRun>no</AutoRun>
*
*       <IgnoreSwitch>no</IgnoreSwitch>
*
*    </ProfileMode>
*
*    <Battery>
*
*       <Type>alkaline</Type>
*
*       <CutOff>7.5</CutOff>
*
*    </Battery>
*
*    <DataChannels>
*
*       <ExtVolt0>yes</ExtVolt0>
*
*       <ExtVolt1>yes</ExtVolt1>
*
*       <ExtVolt2>yes</ExtVolt2>
*
*       <ExtVolt3>yes</ExtVolt3>
*
*       <ExtVolt4>yes</ExtVolt4>
*
*       <ExtVolt5>yes</ExtVolt5>
*
*       <SBE38>no</SBE38>
*
*       <WETLABS>no</WETLABS>
*
*       <OPTODE>no</OPTODE>
*
*       <SBE63>no</SBE63>
*
*       <SeaFET>no</SeaFET>
*
*       <GTD>no</GTD>
*
*    </DataChannels>
*
*    <EchoCharacters>yes</EchoCharacters>
*
*    <OutputExecutedTag>yes</OutputExecutedTag>
*
*    <OutputFormat>raw HEX</OutputFormat>
*
* </ConfigurationData>
* <CalibrationCoefficients DeviceType='SBE19plus' SerialNumber='01907809'>
*
*    <Calibration format='TEMP1' id='Main Temperature'>
*
*       <SerialNum>01907809</SerialNum>
*
*       <CalDate>09-Mar-18</CalDate>
*
*       <TA0>1.210932e-03</TA0>
*
*       <TA1>2.843566e-04</TA1>
*
*       <TA2>-1.945074e-06</TA2>
*
*       <TA3>2.128067e-07</TA3>
*
*       <TOFFSET>0.000000e+00</TOFFSET>
*
*    </Calibration>
*
*    <Calibration format='WBCOND0' id='Main Conductivity'>
*
*       <SerialNum>01907809</SerialNum>
*
*       <CalDate>09-Mar-18</CalDate>
*
*       <G>-1.006721e+00</G>
*
*       <H>1.269065e-01</H>
*
*       <I>-1.405844e-04</I>
*
*       <J>2.478371e-05</J>
*
*       <CPCOR>-9.570000e-08</CPCOR>
*
*       <CTCOR>3.250000e-06</CTCOR>
*
*       <CSLOPE>1.000000e+00</CSLOPE>
*
*    </Calibration>
*
*    <Calibration format='STRAIN0' id='Main Pressure'>
*
*       <SerialNum>10586018</SerialNum>
*
*       <CalDate>07-Mar-18</CalDate>
*
*       <PA0>-4.081764e-02</PA0>
*
*       <PA1>4.851884e-04</PA1>
*
*       <PA2>-3.511682e-12</PA2>
*
*       <PTCA0>5.252134e+05</PTCA0>
*
*       <PTCA1>1.795324e+00</PTCA1>
*
*       <PTCA2>-2.843535e-01</PTCA2>
*
*       <PTCB0>2.516687e+01</PTCB0>
*
*       <PTCB1>3.750000e-04</PTCB1>
*
*       <PTCB2>0.000000e+00</PTCB2>
*
*       <PTEMPA0>-5.378069e+01</PTEMPA0>
*
*       <PTEMPA1>5.366207e+01</PTEMPA1>
*
*       <PTEMPA2>4.872143e-02</PTEMPA2>
*
*       <POFFSET>5.000000e-01</POFFSET>
*
*       <PRANGE>1.600000e+02</PRANGE>
*
*    </Calibration>
*
*    <Calibration format='VOLT0' id='Volt 0'>
*
*       <OFFSET>-4.920000e-02</OFFSET>
*
*       <SLOPE>1.248122e+00</SLOPE>
*
*    </Calibration>
*
*    <Calibration format='VOLT0' id='Volt 1'>
*
*       <OFFSET>-4.784000e-02</OFFSET>
*
*       <SLOPE>1.248871e+00</SLOPE>
*
*    </Calibration>
*
*    <Calibration format='VOLT0' id='Volt 2'>
*
*       <OFFSET>-4.864632e-02</OFFSET>
*
*       <SLOPE>1.248714e+00</SLOPE>
*
*    </Calibration>
*
*    <Calibration format='VOLT0' id='Volt 3'>
*
*       <OFFSET>-4.743790e-02</OFFSET>
*
*       <SLOPE>1.248571e+00</SLOPE>
*
*    </Calibration>
*
*    <Calibration format='VOLT0' id='Volt 4'>
*
*       <OFFSET>-4.671263e-02</OFFSET>
*
*       <SLOPE>1.248951e+00</SLOPE>
*
*    </Calibration>
*
*    <Calibration format='VOLT0' id='Volt 5'>
*
*       <OFFSET>-4.871053e-02</OFFSET>
*
*       <SLOPE>1.249136e+00</SLOPE>
*
*    </Calibration>
*
*    <Calibration format='FREQ0' id='external frequency channel'>
*
*       <EXTFREQSF>1.000014e+00</EXTFREQSF>
*
*    </Calibration>
*
* </CalibrationCoefficients>
* <EventCounters DeviceType='SBE19plus' SerialNumber='01907809'>
*
*    <EventSummary numEvents='0'/>
*
* </EventCounters></InstrumentState>
* <Headers>
*
* cast   2 16 Jul 2018 15:44:10 samples 483 to 1025, avg = 1, stop = mag switch
*
# nquan = 17
# nvalues = 440                         
# units = specified
# name 0 = depFM: Depth [fresh water, m]
# name 1 = tv290C: Temperature [ITS-90, deg C]
# name 2 = sbeox0Mg/L: Oxygen, SBE 43 [mg/l]
# name 3 = sbeox0PS: Oxygen, SBE 43 [% saturation]
# name 4 = c0uS/cm: Conductivity [uS/cm]
# name 5 = specc: Specific Conductance [uS/cm]
# name 6 = ph: pH
# name 7 = orp: Oxidation Reduction Potential [mV]
# name 8 = flECO-AFL: Fluorescence, WET Labs ECO-AFL/FL [mg/m^3]
# name 9 = turbWETntu0: Turbidity, WET Labs ECO [NTU]
# name 10 = sal00: Salinity, Practical [PSU]
# name 11 = dz/dtM: Descent Rate [m/s]
# name 12 = prdM: Pressure, Strain Gauge [db]
# name 13 = prdE: Pressure, Strain Gauge [psi]
# name 14 = scan: Scan Count
# name 15 = par/sat/log: PAR/Logarithmic, Satlantic
# name 16 = flag:  0.000e+00
# span 0 =     -0.532,      3.395       
# span 1 =    15.6275,    27.9653       
# span 2 =    -0.6378,    15.6800       
# span 3 =     -6.831,    183.865       
# span 4 =   1.303190,  88.508291       
# span 5 =      1.652,    108.675       
# span 6 =      6.748,      8.644       
# span 7 =    86.4919,   247.4609       
# span 8 =    -0.1900,    12.0905       
# span 9 =    -0.8286,     8.6650       
# span 10 =     0.0127,     0.0533      
# span 11 =     -0.079,      0.224      
# span 12 =     -0.521,      3.326      
# span 13 =     -0.756,      4.824      
# span 14 =          1,        440      
# span 15 = 2.5816e+01, 2.5667e+03      
# span 16 = 0.0000e+00, 0.0000e+00      
# interval = seconds: 0.25
# start_time = Jul 16 2018 15:44:10 [Instrument's time stamp, header]
# bad_flag = -9.990e-29
# <Sensors count="9" >
#   <sensor Channel="1" >
#     <!-- Count, Temperature -->
#     <TemperatureSensor SensorID="58" >
#       <SerialNumber>7809</SerialNumber>
#       <CalibrationDate>09-Mar-18</CalibrationDate>
#       <A0>1.21093245e-003</A0>
#       <A1>2.84356597e-004</A1>
#       <A2>-1.94507398e-006</A2>
#       <A3>2.12806664e-007</A3>
#       <Slope>1.00000000</Slope>
#       <Offset>0.0000</Offset>
#     </TemperatureSensor>
#   </sensor>
#   <sensor Channel="2" >
#     <!-- Frequency 0, Conductivity -->
#     <ConductivitySensor SensorID="3" >
#       <SerialNumber>7809</SerialNumber>
#       <CalibrationDate>09-Mar-18</CalibrationDate>
#       <UseG_J>1</UseG_J>
#       <!-- Cell const and series R are applicable only for wide range sensors. -->
#       <SeriesR>0.0000</SeriesR>
#       <CellConst>2000.0000</CellConst>
#       <ConductivityType>0</ConductivityType>
#       <Coefficients equation="0" >
#         <A>0.00000000e+000</A>
#         <B>0.00000000e+000</B>
#         <C>0.00000000e+000</C>
#         <D>0.00000000e+000</D>
#         <M>0.0</M>
#         <CPcor>-9.57000000e-008</CPcor>
#       </Coefficients>
#       <Coefficients equation="1" >
#         <G>-1.00672082e+000</G>
#         <H>1.26906489e-001</H>
#         <I>-1.40584351e-004</I>
#         <J>2.47837121e-005</J>
#         <CPcor>-9.57000000e-008</CPcor>
#         <CTcor>3.2500e-006</CTcor>
#         <!-- WBOTC not applicable unless ConductivityType = 1. -->
#         <WBOTC>0.00000000e+000</WBOTC>
#       </Coefficients>
#       <Slope>1.00000000</Slope>
#       <Offset>0.00000</Offset>
#     </ConductivitySensor>
#   </sensor>
#   <sensor Channel="3" >
#     <!-- Count, Pressure, Strain Gauge -->
#     <PressureSensor SensorID="46" >
#       <SerialNumber>7809</SerialNumber>
#       <CalibrationDate>07-Mar-18</CalibrationDate>
#       <PA0>-4.08176359e-002</PA0>
#       <PA1>4.85188419e-004</PA1>
#       <PA2>-3.51168169e-012</PA2>
#       <PTEMPA0>-5.37806900e+001</PTEMPA0>
#       <PTEMPA1>5.36620721e+001</PTEMPA1>
#       <PTEMPA2>4.87214332e-002</PTEMPA2>
#       <PTCA0>5.25213435e+005</PTCA0>
#       <PTCA1>1.79532409e+000</PTCA1>
#       <PTCA2>-2.84353509e-001</PTCA2>
#       <PTCB0>2.51668750e+001</PTCB0>
#       <PTCB1>3.75000000e-004</PTCB1>
#       <PTCB2>0.00000000e+000</PTCB2>
#       <Offset>0.000000</Offset>
#     </PressureSensor>
#   </sensor>
#   <sensor Channel="4" >
#     <!-- A/D voltage 0, pH -->
#     <pH_Sensor SensorID="43" >
#       <SerialNumber>0363</SerialNumber>
#       <CalibrationDate>16-Mar-18</CalibrationDate>
#       <Slope>4.6194</Slope>
#       <Offset>2.5947</Offset>
#     </pH_Sensor>
#   </sensor>
#   <sensor Channel="5" >
#     <!-- A/D voltage 1, Oxidation Reduction Potential -->
#     <OxidationReductionPotentialSensor SensorID="41" >
#       <SerialNumber>0363</SerialNumber>
#       <CalibrationDate>16-Mar-18</CalibrationDate>
#       <B>2.499480</B>
#       <M>-0.496195</M>
#       <Offset>0.0</Offset>
#     </OxidationReductionPotentialSensor>
#   </sensor>
#   <sensor Channel="6" >
#     <!-- A/D voltage 2, Oxygen, SBE 43 -->
#     <OxygenSensor SensorID="38" >
#       <SerialNumber>0434</SerialNumber>
#       <CalibrationDate>13-Mar-18</CalibrationDate>
#       <Use2007Equation>1</Use2007Equation>
#       <CalibrationCoefficients equation="0" >
#         <!-- Coefficients for Owens-Millard equation. -->
#         <Boc>0.0000</Boc>
#         <Soc>0.0000e+000</Soc>
#         <offset>0.0000</offset>
#         <Pcor>0.00e+000</Pcor>
#         <Tcor>0.0000</Tcor>
#         <Tau>0.0</Tau>
#       </CalibrationCoefficients>
#       <CalibrationCoefficients equation="1" >
#         <!-- Coefficients for Sea-Bird equation - SBE calibration in 2007 and later. -->
#         <Soc>4.5718e-001</Soc>
#         <offset>-0.6113</offset>
#         <A>-4.0649e-003</A>
#         <B> 2.0945e-004</B>
#         <C>-3.3182e-006</C>
#         <D0> 2.5826e+000</D0>
#         <D1> 1.92634e-004</D1>
#         <D2>-4.64803e-002</D2>
#         <E> 3.6000e-002</E>
#         <Tau20> 1.2200</Tau20>
#         <H1>-3.3000e-002</H1>
#         <H2> 5.0000e+003</H2>
#         <H3> 1.4500e+003</H3>
#       </CalibrationCoefficients>
#     </OxygenSensor>
#   </sensor>
#   <sensor Channel="7" >
#     <!-- A/D voltage 3, PAR/Logarithmic, Satlantic -->
#     <PARLog_SatlanticSensor SensorID="76" >
#       <SerialNumber>1122</SerialNumber>
#       <CalibrationDate>22-Jun-2017</CalibrationDate>
#       <a0>9.6090e-001</a0>
#       <a1>8.0780e-001</a1>
#       <Im>1.3589e+000</Im>
#       <Multiplier>1.0000e+000</Multiplier>
#     </PARLog_SatlanticSensor>
#   </sensor>
#   <sensor Channel="8" >
#     <!-- A/D voltage 4, Fluorometer, WET Labs ECO-AFL/FL -->
#     <FluoroWetlabECO_AFL_FL_Sensor SensorID="20" >
#       <SerialNumber>FLNTURT-2496</SerialNumber>
#       <CalibrationDate>25-Jan-2017</CalibrationDate>
#       <ScaleFactor>5.30000000e+001</ScaleFactor>
#       <!-- Dark output -->
#       <Vblank>0.0560</Vblank>
#     </FluoroWetlabECO_AFL_FL_Sensor>
#   </sensor>
#   <sensor Channel="9" >
#     <!-- A/D voltage 5, Turbidity Meter, WET Labs, ECO-NTU -->
#     <TurbidityMeter SensorID="67" >
#       <SerialNumber>FLNTURT-2496</SerialNumber>
#       <CalibrationDate>25-Jan-2017</CalibrationDate>
#       <ScaleFactor>176.000000</ScaleFactor>
#       <!-- Dark output -->
#       <DarkVoltage>0.072000</DarkVoltage>
#     </TurbidityMeter>
#   </sensor>
# </Sensors>
# datcnv_date = Jul 16 2018 16:18:50, 7.26.7.114 [datcnv_vars = 16]
# datcnv_in = C:\DATA\071618_fcr20.hex C:\DATA\SBE19plusV2_7809.xmlcon
# datcnv_skipover = 0
# datcnv_ox_hysteresis_correction = yes
# datcnv_ox_tau_correction = yes
# filter_date = Jul 16 2018 16:19:08, 7.26.7.114
# filter_in = C:\DATA\071618_fcr20.cnv
# filter_low_pass_tc_A = 0.030
# filter_low_pass_tc_B = 0.150
# filter_low_pass_A_vars = tv290C c0uS/cm par/sat/log
# filter_low_pass_B_vars = prdM prdE
# alignctd_date = Jul 16 2018 16:19:23, 7.26.7.114
# alignctd_in = C:\DATA\071618_fcr20.cnv
# alignctd_adv = tv290C 0.500, sbeox0Mg/L 3.000, sbeox0PS 3.000                                                                                                                                                                      
# file_type = ascii
*END*
     -0.531    27.5709     7.4949     94.991  22.737848     21.007      7.023   169.2100    -0.1496    -0.6003     0.0188      0.000     -0.521     -0.756          1 2.1590e+02 0.0000e+00
     -0.531    27.5703     7.6007     96.332  18.687014     18.908      7.034   163.6828    -0.1617    -0.6809     0.0180 1.0527e-16     -0.521     -0.756          2 2.4229e+02 0.0000e+00
     -0.531    27.5684     7.7350     98.033   5.371095      3.961      7.038   167.5442    -0.1496    -0.7748     0.0132      0.000     -0.521     -0.756          3 2.5575e+02 0.0000e+00
     -0.531    27.5660     7.8504     99.497   1.303190      1.891      7.042   158.0421    -0.1658    -0.7077     0.0128      0.000     -0.521     -0.755          4 2.5121e+02 0.0000e+00
     -0.531    27.5624     7.9343    100.556   2.186231      1.652      7.041   155.8464    -0.1658    -0.6271     0.0127      0.000     -0.521     -0.755          5 2.4679e+02 0.0000e+00
     -0.531    27.5549     7.9933    101.288   1.814575      1.997      7.031   153.4235    -0.1577    -0.8286     0.0128      0.000     -0.521     -0.755          6 2.3857e+02 0.0000e+00
     -0.531    27.5492     8.0280    101.703   2.150613      1.891      7.010   152.4392    -0.1738    -0.7748     0.0128      0.000     -0.521     -0.755          7 2.4713e+02 0.0000e+00
     -0.531    27.5478     8.0294    101.681   1.856860      1.838      6.998   149.4106    -0.1779    -0.7077     0.0128      0.000     -0.521     -0.755          8 2.5076e+02 0.0000e+00
     -0.531    27.5475     8.0028    101.327   1.795241      1.706      6.981   147.2528    -0.1496    -0.7211     0.0127      0.000     -0.521     -0.756          9 2.6891e+02 0.0000e+00
     -0.531    27.5475     7.9604    100.837   2.197691      1.998      6.983   145.0192    -0.1738    -0.7211     0.0128      0.000     -0.521     -0.756         10 2.7653e+02 0.0000e+00
     -0.531    27.5470     7.9297    100.511   4.613097      4.467      6.983   143.5049    -0.1900    -0.6003     0.0133     -0.000     -0.521     -0.756         11 2.7961e+02 0.0000e+00
     -0.531    27.5465     7.9050    100.275   9.272075      8.636      6.990   141.6120    -0.1536    -0.7346     0.0145     -0.000     -0.521     -0.756         12 2.6655e+02 0.0000e+00
     -0.531    27.5456     7.8999    100.289  16.036282     15.435      6.997   139.6056    -0.1738    -0.6137     0.0168     -0.000     -0.521     -0.755         13 2.9068e+02 0.0000e+00
     -0.531    27.5449     7.8964    100.346  19.004849     18.119      6.999   136.6906    -0.1536    -0.7211     0.0177     -0.000     -0.521     -0.755         14 2.9829e+02 0.0000e+00
     -0.531    27.5425     7.8833    100.325  25.489334     23.806      6.996   137.5234    -0.1617    -0.7480     0.0199     -0.000     -0.521     -0.755         15 4.0307e+02 0.0000e+00
     -0.531    27.5342     7.8972    100.621  35.177886     34.148      7.000   134.4949    -0.1738    -0.7211     0.0240      0.000     -0.521     -0.755         16 7.7946e+02 0.0000e+00
     -0.531    27.5198     7.9093    100.859  37.484731     35.160      7.001   131.8827    -0.1819    -0.7480     0.0244      0.000     -0.521     -0.755         17 9.8887e+02 0.0000e+00
     -0.531    27.4980     7.9007    100.811  36.109801     34.900      6.998   130.6713    -0.1334    -0.7211     0.0243      0.000     -0.521     -0.755         18 1.1197e+03 0.0000e+00
     -0.532    27.4916     7.9080    100.944  37.422812     34.909      6.992   127.7563    -0.1779    -0.7748     0.0243      0.000     -0.521     -0.756         19 1.3789e+03 0.0000e+00
     -0.532    27.5163     7.9294    101.239  35.880379     35.217      6.991    86.4919    -0.1617    -0.8017     0.0244     -0.000     -0.521     -0.756         20 1.5712e+03 0.0000e+00
     -0.532    27.5524     7.9325    101.284  25.991328     23.831      7.304   110.1527    -0.1860    -0.7614     0.0199     -0.000     -0.518     -0.752         21 1.6750e+03 0.0000e+00
     -0.525    27.5937     7.9973    102.116  19.339897     19.033      7.686   115.7177    -0.1779    -0.6809     0.0181      0.001     -0.503     -0.729         22 1.8379e+03 0.0000e+00
     -0.484    27.6371     8.1188    103.670  23.939169     21.837      7.960   114.8470    -0.1536    -0.7077     0.0191      0.013     -0.451     -0.654         23 2.0218e+03 0.0000e+00
     -0.367    27.6955     8.2423    105.247  34.260800     33.505      8.297   118.0270    -0.1738    -0.7480     0.0237      0.053     -0.356     -0.516         24 2.3036e+03 0.0000e+00
     -0.236    27.7751     8.3068    106.068  37.476306     35.044      8.467   119.0491     0.2224    -0.2377     0.0243      0.116     -0.254     -0.369         25 2.2914e+03 0.0000e+00
     -0.179    27.8425     8.2896    105.846  37.253425     35.695      8.550   120.8663     0.1982    -0.2512     0.0246      0.175     -0.193     -0.280         26 2.4176e+03 0.0000e+00
     -0.175    27.8894     8.2098    104.823  38.008255     35.799      8.589   123.4027     0.2103    -0.2914     0.0247      0.211     -0.175     -0.254         27 2.1479e+03 0.0000e+00
     -0.179    27.9240     8.0800    103.154  37.663981     35.754      8.609   124.8034     0.2629    -0.3049     0.0247      0.224     -0.172     -0.249         28 8.8310e+02 0.0000e+00
     -0.169    27.9464     7.9327    101.269  37.919117     35.775      8.612   125.1820     0.2224    -0.3720     0.0247      0.215     -0.167     -0.241         29 6.2953e+02 0.0000e+00
     -0.161    27.9579     7.7729     99.227  37.750037     35.699      8.607   127.6806     1.6781     1.4139     0.0247      0.186     -0.162     -0.235         30 7.8934e+02 0.0000e+00
     -0.167    27.9619     7.6190     97.260  37.815059     35.684      8.605   129.2327     1.6862     1.3871     0.0247      0.132     -0.163     -0.237         31 7.1527e+02 0.0000e+00
     -0.172    27.9639     7.4751     95.421  37.778868     35.676      8.611   130.7849     1.7186     1.4676     0.0247      0.068     -0.165     -0.240         32 7.6041e+02 0.0000e+00
     -0.168    27.9653     7.3463     93.772  37.795070     35.673      8.612   131.5799     1.6943     1.4139     0.0247      0.022     -0.165     -0.239         33 7.0827e+02 0.0000e+00
     -0.165    27.9653     7.2285     92.261  37.735570     35.619      8.616   133.6241     1.6943     0.6888     0.0247      0.006     -0.162     -0.234         34 7.0911e+02 0.0000e+00
     -0.161    27.9640     7.1393     91.117  37.734270     35.618      8.616   135.0249     1.6862     0.8097     0.0247      0.006     -0.157     -0.227         35 6.8585e+02 0.0000e+00
     -0.153    27.9631     7.0766     90.306  37.678045     35.565      8.620   135.4792     1.6781     0.8768     0.0246      0.008     -0.149     -0.216         36 6.9741e+02 0.0000e+00
     -0.140    27.9603     7.0447     89.886  37.627580     35.514      8.620   135.9334     1.6862     0.8231     0.0246      0.010     -0.139     -0.202         37 7.0774e+02 0.0000e+00
     -0.134    27.9545     7.0166     89.521  37.619111     35.514      8.624   137.2963     1.6903     0.7828     0.0246      0.015     -0.134     -0.194         38 7.1101e+02 0.0000e+00
     -0.137    27.9515     6.9817     89.069  37.629263     35.516      8.622   137.5234     1.6620     0.7559     0.0246      0.020     -0.132     -0.191         39 7.0868e+02 0.0000e+00
     -0.132    27.9505     6.9466     88.617  37.674267     35.573      8.625   138.3942     1.6579     0.8365     0.0246      0.022     -0.126     -0.182         40 7.1657e+02 0.0000e+00
     -0.116    27.9494     6.8854     87.837  37.681749     35.575      8.623   139.6435     1.6822     0.8365     0.0246      0.024     -0.112     -0.162         41 7.2902e+02 0.0000e+00
     -0.095    27.9482     6.8416     87.277  37.619956     35.523      8.621   140.4006     1.7064     1.0111     0.0246      0.030     -0.095     -0.138         42 7.4890e+02 0.0000e+00
     -0.081    27.9453     6.8228     87.037  37.543546     35.444      8.616   140.9306     1.6741     0.9305     0.0246      0.036     -0.082     -0.118         43 7.6349e+02 0.0000e+00
     -0.073    27.9411     6.8217     87.022  37.539556     35.445      8.617   142.1799     1.6781     0.9842     0.0246      0.039     -0.073     -0.106         44 7.6733e+02 0.0000e+00
     -0.069    27.9369     6.8253     87.071  37.624922     35.526      8.617   142.8613     1.6862     0.9574     0.0246      0.040     -0.068     -0.100         45 7.6936e+02 0.0000e+00
     -0.068    27.9307     6.8482     87.368  37.674596     35.582      8.619   143.5427     1.6296     1.0916     0.0246      0.041     -0.068     -0.098         46 7.7409e+02 0.0000e+00
     -0.070    27.9230     6.9219     88.314  37.626043     35.532      8.620   144.3756     1.6094     0.9842     0.0246      0.038     -0.068     -0.098         47 7.7353e+02 0.0000e+00
     -0.069    27.9180     6.9990     89.300  37.626027     35.536      8.622   144.9813     1.6134     0.9439     0.0246      0.030     -0.067     -0.097         48 7.7271e+02 0.0000e+00
     -0.065    27.9144     7.0638     90.088  37.615297     35.541      8.624   145.9278     1.6134     1.0648     0.0246      0.020     -0.066     -0.095         49 7.7262e+02 0.0000e+00
     -0.066    27.9118     7.1747     91.471  37.639398     35.544      8.623   146.5713     1.6175     1.0514     0.0246      0.011     -0.068     -0.099         50 7.7081e+02 0.0000e+00
     -0.078    27.9118     7.3658     93.888  37.655357     35.600      8.620   147.2528     1.6094     1.0648     0.0246      0.003     -0.077     -0.113         51 7.6257e+02 0.0000e+00
     -0.092    27.9114     7.5642     96.409  37.565777     35.469      8.617   148.1235     1.6013     0.9976     0.0246     -0.006     -0.091     -0.133         52 7.4600e+02 0.0000e+00
     -0.109    27.9107     7.6847     97.940  37.543256     35.496      8.616   148.6156     1.6134     0.9708     0.0246     -0.016     -0.111     -0.161         53 7.3545e+02 0.0000e+00
     -0.139    27.9108     7.7219     98.417  37.564743     35.470      8.623   149.2592     1.6256     1.0648     0.0246     -0.030     -0.137     -0.199         54 7.3775e+02 0.0000e+00
     -0.173    27.9127     7.6876     97.988  37.598358     35.549      8.626   150.2435     1.7509     0.7559     0.0246     -0.048     -0.167     -0.243         55 7.5014e+02 0.0000e+00
     -0.204    27.9147     7.5890     96.742  37.560743     35.470      8.628   151.0763     1.7469     0.7291     0.0246     -0.068     -0.191     -0.276         56 7.7063e+02 0.0000e+00
     -0.207    27.9205     7.4762     95.310  37.611553     35.548      8.622   152.3256     1.7550     0.7962     0.0246     -0.079     -0.194     -0.281         57 7.9570e+02 0.0000e+00
     -0.181    27.9195     7.3577     93.789  37.624107     35.546      8.619   152.5906     1.7307     0.7694     0.0246     -0.074     -0.181     -0.262         58 7.9674e+02 0.0000e+00
     -0.167    27.8974     7.2420     92.307  37.485799     35.411      8.617   153.1963     1.6579     1.1051     0.0246     -0.058     -0.170     -0.247         59 7.8542e+02 0.0000e+00
     -0.173    27.8766     7.1359     90.957  37.427749     35.358      8.614   153.9156     1.6781     1.0379     0.0245     -0.040     -0.169     -0.246         60 7.6306e+02 0.0000e+00
     -0.175    27.8663     7.0639     90.041  37.429409     35.374      8.614   154.7106     1.6741     1.0782     0.0245     -0.022     -0.170     -0.248         61 7.8393e+02 0.0000e+00
     -0.174    27.8605     7.0357     89.687  37.424422     35.387      8.611   154.7864     1.6862     0.9842     0.0245     -0.003     -0.168     -0.244         62 7.6403e+02 0.0000e+00
     -0.166    27.8583     7.0223     89.523  37.433965     35.394      8.614   154.9756     1.6539     1.0648     0.0245      0.012     -0.161     -0.234         63 8.0517e+02 0.0000e+00
     -0.155    27.8597     7.0167     89.454  37.476860     35.451      8.616   154.8999     1.6215     1.1051     0.0246      0.021     -0.148     -0.215         64 7.2937e+02 0.0000e+00
     -0.134    27.8645     7.0169     89.459  37.489684     35.452      8.619   155.9221     1.6377     0.9842     0.0246      0.024     -0.127     -0.184         65 8.4960e+02 0.0000e+00
     -0.099    27.8709     7.0548     89.946  37.418007     35.399      8.617   156.7171     1.6458     0.9842     0.0245      0.031     -0.097     -0.140         66 6.8728e+02 0.0000e+00
     -0.064    27.8741     7.1427     91.069  37.388099     35.342      8.607   156.9064     1.6054     0.9842     0.0245      0.048     -0.064     -0.093         67 1.0274e+03 0.0000e+00
     -0.034    27.8682     7.2529     92.474  37.408260     35.391      8.604   157.3228     1.6215     1.0245     0.0245      0.070     -0.037     -0.053         68 2.4853e+03 0.0000e+00
     -0.013    27.8637     7.3757     94.035  37.392915     35.336      8.604   158.0799     1.6498     0.9708     0.0245      0.087     -0.019     -0.027         69 2.5667e+03 0.0000e+00
     -0.011    27.8644     7.4586     95.084  37.407196     35.393      8.609   192.2272     1.6013     1.0514     0.0245      0.093     -0.010     -0.016         70 2.2034e+03 0.0000e+00
     -0.008    27.8663     7.4856     95.422  37.390489     35.343      8.611   160.3892     1.6620     0.7425     0.0245      0.090     -0.004     -0.007         71 1.7494e+03 0.0000e+00
      0.007    27.8699     7.4625     95.125  37.413709     35.395      8.613   160.2757     1.6862     0.7559     0.0245      0.082      0.006      0.008         72 1.4419e+03 0.0000e+00
      0.016    27.8734     7.4454     94.903  37.437620     35.394      8.615   166.2950     1.6984     0.8634     0.0245      0.069      0.017      0.025         73 1.7508e+03 0.0000e+00
      0.029    27.8755     7.4689     95.197  37.479372     35.445      8.615   171.4435     1.6781     0.7291     0.0246      0.055      0.029      0.043         74 1.1739e+03 0.0000e+00
      0.044    27.8772     7.5215     95.865  37.539710     35.495      8.611   174.2071     1.7024     0.8231     0.0246      0.046      0.041      0.060         75 7.4889e+02 0.0000e+00
      0.052    27.8789     7.5925     96.766  37.481169     35.441      8.605   175.4186     1.6701     1.0111     0.0246      0.041      0.049      0.072         76 7.5034e+02 0.0000e+00
      0.054    27.8807     7.6536     97.541  37.492904     35.440      8.605   175.3050     1.7064     0.9574     0.0246      0.038      0.054      0.079         77 7.8835e+02 0.0000e+00
      0.061    27.8811     7.6840     97.919  37.614087     35.571      8.605   177.9171     1.6984     0.9036     0.0246      0.039      0.061      0.088         78 7.6459e+02 0.0000e+00
      0.070    27.8780     7.6782     97.840  37.626960     35.569      8.611   184.6557     1.6943     1.0648     0.0246      0.038      0.068      0.098         79 8.9366e+02 0.0000e+00
      0.076    27.8734     7.6466     97.434  37.625185     35.569      8.609   180.7564     1.7631     0.9171     0.0246      0.034      0.072      0.105         80 1.3673e+03 0.0000e+00
      0.075    27.8701     7.5877     96.682  37.616297     35.571      8.608   167.8092     1.7590     0.9171     0.0246      0.029      0.069      0.101         81 8.2763e+02 0.0000e+00
      0.061    27.8676     7.5088     95.676  37.489719     35.442      8.606   166.8250     1.7469     0.9976     0.0246      0.019      0.054      0.077         82 8.8155e+02 0.0000e+00
      0.024    27.8653     7.4030     94.327  37.486108     35.444      8.606   166.1057     1.7711     1.0648     0.0246      0.000      0.029      0.042         83 1.8875e+03 0.0000e+00
      0.004    27.8629     7.2909     92.899  37.531813     35.499      8.611   166.3328     1.6256     0.7828     0.0246     -0.018      0.012      0.017         84 1.4968e+03 0.0000e+00
      0.008    27.8605     7.1721     91.386  37.551482     35.500      8.607   166.6357     1.6013     0.8097     0.0246     -0.030      0.008      0.012         85 8.1441e+02 0.0000e+00
      0.011    27.8590     7.0452     89.769  37.550613     35.529      8.606   166.9385     1.6458     0.7559     0.0246     -0.038      0.011      0.015         86 8.5717e+02 0.0000e+00
      0.014    27.8566     6.9332     88.341  37.443915     35.398      8.606   167.4685     1.6134     0.7022     0.0245     -0.040      0.012      0.017         87 8.1174e+02 0.0000e+00
      0.013    27.8515     6.8274     86.993  37.417323     35.399      8.603   167.7335     1.6296     1.1185     0.0245     -0.036      0.012      0.017         88 1.1932e+03 0.0000e+00
      0.011    27.8479     6.7251     85.689  37.435406     35.400      8.603   167.5821     1.6175     0.9842     0.0245     -0.027      0.011      0.016         89 2.0296e+03 0.0000e+00
      0.010    27.8468     6.6368     84.563  37.421412     35.404      8.603   167.8092     1.6337     0.9574     0.0245     -0.015      0.011      0.015         90 2.1585e+03 0.0000e+00
      0.011    27.8458     6.5556     83.528  37.494060     35.459      8.607   167.8471     1.6175     1.1051     0.0246     -0.002      0.011      0.016         91 2.0954e+03 0.0000e+00
      0.012    27.8449     6.4928     82.728  37.522959     35.513      8.608   168.1121     1.6094     0.9574     0.0246      0.002      0.012      0.017         92 2.1319e+03 0.0000e+00
      0.013    27.8446     6.4362     82.006  37.444769     35.408      8.611   168.3014     1.6498     1.0514     0.0245      0.001      0.012      0.018         93 2.1087e+03 0.0000e+00
      0.013    27.8445     6.3837     81.337  37.413408     35.408      8.615   168.1500     1.6175     1.0111     0.0245      0.000      0.012      0.018         94 2.1189e+03 0.0000e+00
      0.013    27.8446     6.3300     80.652  37.384029     35.356      8.615   168.3392     1.6418     1.0111     0.0245      0.000      0.013      0.019         95 2.1167e+03 0.0000e+00
      0.013    27.8447     6.2774     79.982  37.362690     35.356      8.613   169.3235     1.6134     0.9842     0.0245      0.001      0.013      0.019         96 2.1247e+03 0.0000e+00
      0.014    27.8445     6.2247     79.310  37.439962     35.409      8.612   169.4750     1.6903     1.0916     0.0245      0.002      0.013      0.019         97 2.1511e+03 0.0000e+00
      0.013    27.8442     6.1832     78.781  37.465825     35.461      8.612   169.9671     1.6984     0.9574     0.0246      0.002      0.013      0.019         98 2.0976e+03 0.0000e+00
      0.012    27.8440     6.1519     78.380  37.389824     35.356      8.613   170.0807     1.6620     1.0245     0.0245      0.001      0.012      0.017         99 2.1419e+03 0.0000e+00
      0.009    27.8439     6.1393     78.220  37.415904     35.409      8.615   170.3078     1.6984     0.9842     0.0245     -0.001      0.009      0.014        100 2.0171e+03 0.0000e+00
      0.007    27.8436     6.1194     77.965  37.433369     35.409      8.613   170.0428     1.6701     1.0379     0.0245     -0.002      0.008      0.012        101 1.4070e+03 0.0000e+00
      0.008    27.8431     6.0906     77.598  37.427409     35.409      8.617   171.0271     1.6862     1.0379     0.0245     -0.003      0.009      0.013        102 1.0231e+03 0.0000e+00
      0.011    27.8429     6.0708     77.341  37.423321     35.409      8.618   171.1028     1.7105     1.0648     0.0245     -0.003      0.010      0.015        103 1.0703e+03 0.0000e+00
      0.011    27.8428     6.0421     76.973  37.319816     35.304      8.616   171.4435     1.7024     1.0245     0.0245     -0.002      0.011      0.017        104 1.6332e+03 0.0000e+00
      0.012    27.8422     6.0096     76.557  37.318939     35.304      8.618   171.7464     1.6418     0.8634     0.0245     -0.001      0.012      0.018        105 1.8073e+03 0.0000e+00
      0.015    27.8419     5.9694     76.045  37.365093     35.357      8.618   172.4657     1.6134     0.8097     0.0245      0.001      0.013      0.019        106 1.2841e+03 0.0000e+00
      0.012    27.8418     5.9326     75.575  37.321699     35.305      8.619   171.9357     1.6377     0.7962     0.0245      0.002      0.011      0.016        107 8.8523e+02 0.0000e+00
      0.006    27.8413     5.8869     74.993  37.313622     35.305      8.621   172.3521     1.6054     0.8634     0.0245      0.001      0.007      0.011        108 1.0206e+03 0.0000e+00
      0.006    27.8408     5.8436     74.441  37.375144     35.358      8.618   173.0335     1.5609     0.8902     0.0245     -0.000      0.007      0.010        109 1.6652e+03 0.0000e+00
      0.011    27.8403     5.8109     74.023  37.423096     35.411      8.614   173.1471     1.5366     1.0111     0.0245     -0.001      0.011      0.015        110 1.9998e+03 0.0000e+00
      0.016    27.8401     5.7820     73.656  37.372587     35.358      8.607   174.1693     1.5649     1.0379     0.0245     -0.000      0.014      0.020        111 2.0003e+03 0.0000e+00
      0.014    27.8390     5.7542     73.302  37.319361     35.306      8.606   174.1693     1.5649     0.9842     0.0245      0.000      0.014      0.020        112 2.0038e+03 0.0000e+00
      0.012    27.8366     5.7281     72.968  37.311375     35.306      8.606   174.1314     1.4840     0.9842     0.0245      0.001      0.012      0.018        113 1.9808e+03 0.0000e+00
      0.012    27.8344     5.7033     72.653  37.323206     35.306      8.608   174.6236     1.4921     0.9574     0.0245      0.001      0.012      0.018        114 1.9807e+03 0.0000e+00
      0.013    27.8332     5.6803     72.359  37.304638     35.308      8.607   174.8886     1.5043     0.9574     0.0245      0.002      0.013      0.019        115 1.9897e+03 0.0000e+00
      0.014    27.8325     5.6571     72.063  37.275165     35.257      8.613   175.1536     1.5124     1.0379     0.0245      0.003      0.014      0.020        116 1.9906e+03 0.0000e+00
      0.015    27.8321     5.6382     71.821  37.300566     35.311      8.614   175.4186     1.5002     0.9574     0.0245      0.002      0.014      0.021        117 1.9910e+03 0.0000e+00
      0.015    27.8318     5.6115     71.481  37.273026     35.258      8.612   176.2136     1.5407     0.9439     0.0245      0.001      0.014      0.021        118 1.9897e+03 0.0000e+00
      0.015    27.8315     5.5845     71.136  37.309437     35.311      8.607   176.4028     1.5649     1.0379     0.0245      0.000      0.014      0.020        119 1.9857e+03 0.0000e+00
      0.011    27.8313     5.5616     70.843  37.314573     35.311      8.607   176.1378     1.5568     0.9842     0.0245      0.000      0.011      0.017        120 1.9798e+03 0.0000e+00
      0.009    27.8313     5.5332     70.481  37.266636     35.259      8.610   176.8193     1.5447     1.0514     0.0245     -0.001      0.010      0.014        121 1.9775e+03 0.0000e+00
      0.010    27.8313     5.5111     70.198  37.309775     35.312      8.611   176.8950     1.6215     0.9708     0.0245     -0.002      0.010      0.014        122 1.9714e+03 0.0000e+00
      0.010    27.8309     5.4908     69.939  37.320207     35.312      8.612   177.7657     1.6256     1.0916     0.0245     -0.003      0.010      0.014        123 1.9579e+03 0.0000e+00
      0.010    27.8306     5.4667     69.633  37.312974     35.312      8.607   177.8036     1.6418     0.9574     0.0245     -0.003      0.010      0.015        124 1.9459e+03 0.0000e+00
      0.011    27.8304     5.4428     69.327  37.318777     35.312      8.606   178.2578     1.6175     1.0111     0.0245     -0.003      0.011      0.016        125 1.9363e+03 0.0000e+00
      0.012    27.8299     5.4244     69.093  37.312985     35.312      8.605   178.3336     1.5043     1.0111     0.0245     -0.002      0.012      0.017        126 1.9259e+03 0.0000e+00
      0.012    27.8293     5.4067     68.866  37.260861     35.260      8.606   178.6743     1.5083     0.9574     0.0245     -0.000      0.012      0.017        127 1.9138e+03 0.0000e+00
      0.012    27.8290     5.3874     68.621  37.265004     35.260      8.607   178.5986     1.4881     1.0648     0.0245      0.001      0.012      0.017        128 1.9074e+03 0.0000e+00
      0.013    27.8283     5.3686     68.381  37.307830     35.313      8.607   179.0529     1.4800     0.9976     0.0245      0.002      0.013      0.018        129 1.9055e+03 0.0000e+00
      0.013    27.8275     5.3512     68.158  37.266885     35.260      8.611   178.9014     1.4881     0.7559     0.0245      0.002      0.013      0.018        130 1.9083e+03 0.0000e+00
      0.013    27.8272     5.3289     67.873  37.256639     35.261      8.616   179.4693     1.5043     0.8231     0.0245      0.002      0.013      0.019        131 1.9128e+03 0.0000e+00
      0.013    27.8268     5.3119     67.656  37.261261     35.261      8.620   179.8857     1.4638     0.7828     0.0245      0.001      0.013      0.019        132 1.9144e+03 0.0000e+00
      0.013    27.8262     5.2954     67.446  37.261134     35.262      8.622   179.9614     1.4962     0.7022     0.0245      0.001      0.013      0.019        133 1.9183e+03 0.0000e+00
      0.013    27.8258     5.2798     67.247  37.256797     35.262      8.620   180.4157     1.6256     1.0245     0.0245      0.001      0.013      0.019        134 1.9128e+03 0.0000e+00
      0.014    27.8255     5.2660     67.070  37.266660     35.262      8.623   180.5293     1.6458     0.8768     0.0245      0.001      0.014      0.020        135 1.9025e+03 0.0000e+00
      0.015    27.8248     5.2530     66.905  37.308181     35.315      8.621   181.0214     1.6418     1.0648     0.0245      0.001      0.014      0.020        136 1.8976e+03 0.0000e+00
      0.015    27.8243     5.2420     66.764  37.264444     35.263      8.622   180.7186     1.6054     1.0648     0.0245      0.001      0.014      0.020        137 1.8909e+03 0.0000e+00
      0.013    27.8241     5.2268     66.570  37.202450     35.210      8.623   181.0214     1.6215     0.8365     0.0245      0.001      0.013      0.019        138 1.8799e+03 0.0000e+00
      0.012    27.8236     5.2135     66.401  37.207372     35.211      8.623   181.5893     1.6377     0.8365     0.0245     -0.000      0.013      0.018        139 1.8705e+03 0.0000e+00
      0.013    27.8230     5.1976     66.198  37.258320     35.264      8.622   181.7029     1.6296     0.7291     0.0245     -0.000      0.013      0.018        140 1.8640e+03 0.0000e+00
      0.013    27.8226     5.1781     65.949  37.257687     35.264      8.621   182.0436     1.6256     0.7425     0.0245     -0.000      0.013      0.018        141 1.8603e+03 0.0000e+00
      0.013    27.8225     5.1662     65.797  37.208159     35.211      8.624   182.3843     1.6094     0.7559     0.0245     -0.001      0.013      0.018        142 1.8584e+03 0.0000e+00
      0.013    27.8220     5.1450     65.526  37.201317     35.212      8.620   182.6871     1.5690     1.0245     0.0245     -0.001      0.012      0.017        143 1.8557e+03 0.0000e+00
      0.010    27.8218     5.1220     65.233  37.206883     35.212      8.620   182.6114     1.5649     1.0514     0.0245     -0.002      0.009      0.014        144 1.8621e+03 0.0000e+00
      0.007    27.8215     5.1057     65.025  37.201232     35.212      8.622   183.0657     1.5568     1.0245     0.0245     -0.003      0.008      0.012        145 1.8712e+03 0.0000e+00
      0.007    27.8212     5.0899     64.823  37.208349     35.212      8.620   183.0279     1.5568     1.0245     0.0245     -0.003      0.008      0.012        146 1.8665e+03 0.0000e+00
      0.010    27.8212     5.0700     64.569  37.257346     35.265      8.623   183.2171     1.5568     0.7962     0.0245     -0.003      0.009      0.014        147 1.8682e+03 0.0000e+00
      0.011    27.8205     5.0544     64.370  37.258895     35.266      8.621   183.4064     1.5568     0.8097     0.0245     -0.002      0.011      0.016        148 1.8695e+03 0.0000e+00
      0.012    27.8202     5.0350     64.122  37.206421     35.213      8.623   183.8607     1.5730     0.8231     0.0245     -0.001      0.011      0.016        149 1.8589e+03 0.0000e+00
      0.012    27.8200     5.0190     63.918  37.204009     35.213      8.621   183.9364     1.5892     0.8365     0.0245     -0.000      0.011      0.016        150 1.8618e+03 0.0000e+00
      0.011    27.8194     5.0051     63.740  37.202577     35.213      8.621   183.9364     1.4800     0.7828     0.0245      0.001      0.011      0.016        151 1.8544e+03 0.0000e+00
      0.011    27.8189     4.9875     63.516  37.208205     35.214      8.623   184.2393     1.5245     0.7962     0.0245      0.002      0.011      0.016        152 1.8483e+03 0.0000e+00
      0.011    27.8185     4.9720     63.318  37.256325     35.267      8.623   184.4286     1.5083     0.8097     0.0245      0.002      0.011      0.016        153 1.8478e+03 0.0000e+00
      0.011    27.8179     4.9555     63.107  37.202012     35.214      8.624   184.9964     1.5204     0.8097     0.0245      0.001      0.011      0.015        154 1.8358e+03 0.0000e+00
      0.011    27.8174     4.9442     62.963  37.157157     35.162      8.624   185.0722     1.4719     0.7559     0.0244      0.000      0.011      0.015        155 1.8348e+03 0.0000e+00
      0.010    27.8171     4.9294     62.774  37.193508     35.215      8.623   185.3372     1.5002     0.7559     0.0245     -0.000      0.011      0.015        156 1.8394e+03 0.0000e+00
      0.011    27.8167     4.9168     62.613  37.216095     35.215      8.625   185.6400     1.5043     0.7828     0.0245     -0.000      0.011      0.015        157 1.8433e+03 0.0000e+00
      0.011    27.8161     4.9066     62.483  37.247686     35.268      8.626   185.9050     1.4719     0.7694     0.0245     -0.000      0.011      0.015        158 1.8446e+03 0.0000e+00
      0.011    27.8157     4.8891     62.260  37.213513     35.216      8.626   185.9050     1.4840     0.7022     0.0245     -0.000      0.011      0.015        159 1.8423e+03 0.0000e+00
      0.011    27.8155     4.8837     62.192  37.199304     35.216      8.625   185.9807     1.4921     0.7828     0.0245     -0.000      0.011      0.015        160 1.8399e+03 0.0000e+00
      0.012    27.8152     4.8701     62.017  37.206049     35.216      8.625   186.2457     1.4638     0.8231     0.0245      0.000      0.011      0.016        161 1.8375e+03 0.0000e+00
      0.012    27.8147     4.8624     61.919  37.145799     35.164      8.623   186.7000     1.5002     0.7962     0.0244      0.000      0.011      0.016        162 1.8351e+03 0.0000e+00
      0.012    27.8144     4.8462     61.712  37.155645     35.164      8.623   186.8136     1.5204     0.8634     0.0244      0.001      0.012      0.017        163 1.8282e+03 0.0000e+00
      0.012    27.8140     4.8344     61.561  37.193796     35.217      8.624   186.9650     1.5083     1.0648     0.0245      0.001      0.012      0.017        164 1.8216e+03 0.0000e+00
      0.012    27.8136     4.8260     61.455  37.157641     35.164      8.625   187.2300     1.4881     1.0111     0.0244      0.001      0.012      0.017        165 1.8209e+03 0.0000e+00
      0.012    27.8133     4.8138     61.299  37.141321     35.165      8.623   187.4950     1.4800     1.0379     0.0244      0.001      0.012      0.017        166 1.8198e+03 0.0000e+00
      0.013    27.8129     4.8041     61.175  37.154786     35.165      8.625   187.4193     1.4921     1.0648     0.0244      0.001      0.012      0.017        167 1.8195e+03 0.0000e+00
      0.012    27.8125     4.7968     61.082  37.200202     35.218      8.625   187.6086     1.5043     1.0111     0.0245      0.000      0.012      0.017        168 1.8199e+03 0.0000e+00
      0.013    27.8123     4.7870     60.956  37.203441     35.218      8.623   188.1386     1.5083     0.9842     0.0245      0.000      0.012      0.018        169 1.8232e+03 0.0000e+00
      0.013    27.8121     4.7795     60.863  37.150757     35.166      8.626   188.2522     1.4962     0.9842     0.0244      0.000      0.012      0.018        170 1.8257e+03 0.0000e+00
      0.013    27.8116     4.8664     61.985  37.147129     35.166      8.624   188.4793     1.5043     0.9574     0.0244      0.000      0.012      0.018        171 1.8218e+03 0.0000e+00
      0.012    27.8115     5.4361     69.263  37.148637     35.166      8.622   188.6686     1.5083     1.0916     0.0244      0.000      0.012      0.017        172 1.8220e+03 0.0000e+00
      0.011    27.8112     6.4648     82.380  37.148881     35.166      8.624   188.8579     1.4921     1.0379     0.0244     -0.000      0.011      0.016        173 1.8224e+03 0.0000e+00
      0.011    27.8107     7.6680     97.697  37.146826     35.166      8.624   188.8579     1.4800     0.9976     0.0244     -0.000      0.011      0.015        174 1.8168e+03 0.0000e+00
      0.011    27.8104     8.6846    110.633  37.151194     35.166      8.625   189.0472     1.4719     1.0379     0.0244     -0.001      0.011      0.015        175 1.8090e+03 0.0000e+00
      0.011    27.8103     9.5173    121.222  37.143445     35.167      8.623   188.8957     1.4194     0.9708     0.0244     -0.001      0.011      0.015        176 1.8033e+03 0.0000e+00
      0.011    27.8099    10.1184    128.852  37.156470     35.167      8.625   189.5015     1.4355     1.0514     0.0244     -0.001      0.011      0.016        177 1.8006e+03 0.0000e+00
      0.012    27.8101    10.4809    133.424  37.134984     35.167      8.622   189.6529     1.4194     1.0782     0.0244     -0.001      0.011      0.016        178 1.7981e+03 0.0000e+00
      0.011    27.8090    10.6252    135.169  37.081204     35.088      8.623   189.8043     1.4194     0.9842     0.0244     -0.000      0.011      0.016        179 1.7988e+03 0.0000e+00
      0.011    27.8106    10.5475    134.096  37.134419     35.167      8.624   189.8043     1.4881     1.0514     0.0244     -0.000      0.011      0.016        180 1.7973e+03 0.0000e+00
      0.011    27.8250    10.3259    131.224  37.276378     35.274      8.624   190.2586     1.4962     0.9842     0.0245      0.000      0.011      0.016        181 1.7954e+03 0.0000e+00
      0.012    27.8429    10.0941    128.254  37.527399     35.538      8.624   190.5236     1.5043     0.9574     0.0246      0.000      0.012      0.017        182 1.7998e+03 0.0000e+00
      0.013    27.8485     9.9134    125.951  37.741490     35.713      8.625   190.6750     1.4921     0.9842     0.0247      0.001      0.012      0.017        183 1.7992e+03 0.0000e+00
      0.012    27.8410     9.7752    124.215  37.781106     35.754      8.623   190.8265     1.4962     0.9305     0.0247      0.001      0.012      0.017        184 1.7979e+03 0.0000e+00
      0.013    27.8322     9.6681    122.886  37.745034     35.697      8.626   191.0157     1.6175     1.0782     0.0247      0.001      0.013      0.018        185 1.7953e+03 0.0000e+00
      0.015    27.8233     9.5661    121.642  37.727059     35.702      8.626   191.2429     1.6296     0.9842     0.0247      0.001      0.015      0.022        186 1.7879e+03 0.0000e+00
      0.019    27.8121     9.4937    120.770  37.744158     35.708      8.628   191.1672     1.6175     1.0648     0.0247      0.003      0.019      0.028        187 1.7827e+03 0.0000e+00
      0.024    27.7924     9.4401    120.118  37.723758     35.714      8.627   191.5836     1.6377     0.9976     0.0247      0.005      0.023      0.034        188 1.7771e+03 0.0000e+00
      0.029    27.7559     9.4107    119.754  37.633808     35.616      8.625   191.7350     1.6862     1.0379     0.0246      0.008      0.028      0.041        189 1.7722e+03 0.0000e+00
      0.032    27.7192     9.3971    119.581  37.618820     35.628      8.626   191.8486     1.6862     0.9976     0.0246      0.011      0.032      0.046        190 1.7665e+03 0.0000e+00
      0.036    27.6964     9.4021    119.627  37.623780     35.654      8.625   192.1515     1.6903     1.0245     0.0246      0.013      0.035      0.051        191 1.7625e+03 0.0000e+00
      0.039    27.6848     9.4056    119.638  37.627654     35.678      8.626   192.2650     1.6943     0.9708     0.0246      0.015      0.037      0.054        192 1.7581e+03 0.0000e+00
      0.038    27.6828     9.4143    119.699  37.673339     35.747      8.625   191.9622     1.7388     1.0111     0.0246      0.014      0.037      0.054        193 1.7542e+03 0.0000e+00
      0.038    27.6906     9.4284    119.833  37.685581     35.755      8.625   192.2272     1.7711     1.0648     0.0246      0.012      0.037      0.054        194 1.7501e+03 0.0000e+00
      0.037    27.7065     9.4457    120.038  37.671745     35.757      8.622   193.0222     1.7469     1.0379     0.0246      0.009      0.035      0.051        195 1.7549e+03 0.0000e+00
      0.031    27.7294     9.4472    120.057  37.631236     35.698      8.619   192.9465     1.7307     0.9842     0.0246      0.004      0.031      0.045        196 1.7531e+03 0.0000e+00
      0.028    27.7527     9.4534    120.138  37.676668     35.740      8.624   192.9086     1.6175     0.9574     0.0246     -0.001      0.028      0.041        197 1.7579e+03 0.0000e+00
      0.028    27.7668     9.4534    120.141  37.733840     35.777      8.623   193.1357     1.6094     1.0648     0.0247     -0.004      0.028      0.040        198 1.7481e+03 0.0000e+00
      0.029    27.7714     9.4614    120.229  37.738039     35.762      8.627   193.3250     1.6498     1.0111     0.0247     -0.006      0.029      0.042        199 1.7658e+03 0.0000e+00
      0.032    27.7710     9.4728    120.248  37.671431     35.699      8.625   193.0600     1.6256     1.0648     0.0246     -0.005      0.033      0.048        200 1.7484e+03 0.0000e+00
      0.039    27.7635     9.4811    120.167  37.638761     35.643      8.627   193.2872     1.5447     0.7559     0.0246     -0.002      0.041      0.059        201 1.5690e+03 0.0000e+00
      0.054    27.7471     9.4734    119.886  37.719373     35.749      8.630   193.8550     1.5649     0.7291     0.0247      0.005      0.054      0.078        202 1.5482e+03 0.0000e+00
      0.070    27.7237     9.4400    119.325  37.689754     35.701      8.621   193.8172     1.5568     0.7559     0.0246      0.015      0.068      0.098        203 1.6416e+03 0.0000e+00
      0.083    27.7036     9.4145    118.929  37.616303     35.660      8.615   194.0065     1.5528     0.8902     0.0246      0.026      0.081      0.117        204 1.4133e+03 0.0000e+00
      0.094    27.6954     9.4093    118.816  37.632826     35.675      8.613   193.7793     1.5487     0.7559     0.0246      0.035      0.093      0.135        205 1.4921e+03 0.0000e+00
      0.108    27.6959     9.4203    118.900  37.609882     35.689      8.607   192.6436     1.6741     1.0111     0.0246      0.042      0.106      0.153        206 1.5565e+03 0.0000e+00
      0.120    27.6965     9.4353    119.030  37.555886     35.615      8.603   192.2650     1.6701     1.0111     0.0246      0.048      0.119      0.172        207 1.0287e+03 0.0000e+00
      0.135    27.6993     9.4581    119.273  37.670369     35.747      8.602   192.2650     1.6781     0.9708     0.0246      0.051      0.133      0.194        208 1.1488e+03 0.0000e+00
      0.153    27.6903     9.4955    119.716  37.675035     35.746      8.590   192.3786     1.6984     1.0245     0.0246      0.054      0.151      0.219        209 1.1686e+03 0.0000e+00
      0.174    27.6332     9.5377    120.228  37.550080     35.613      8.581   192.7950     1.8884     1.1185     0.0246      0.056      0.170      0.245        210 6.1360e+02 0.0000e+00
      0.189    27.5456     9.5656    120.563  37.529269     35.617      8.577   192.4543     1.8763     0.9574     0.0246      0.058      0.186      0.269        211 5.3387e+02 0.0000e+00
      0.204    27.4608     9.5689    120.601  37.433998     35.551      8.581   192.9086     1.8763     0.9574     0.0245      0.061      0.201      0.292        212 5.5653e+02 0.0000e+00
      0.223    27.3959     9.5613    120.501  37.312747     35.504      8.578   192.9843     1.8803     1.0379     0.0245      0.064      0.218      0.317        213 5.2973e+02 0.0000e+00
      0.241    27.3606     9.5380    120.198  37.324283     35.561      8.583   193.0222     1.7550     0.9976     0.0245      0.066      0.237      0.344        214 5.3161e+02 0.0000e+00
      0.262    27.3378     9.5270    120.049  37.360364     35.659      8.588   193.2115     1.7388     1.1319     0.0245      0.069      0.256      0.372        215 5.1922e+02 0.0000e+00
      0.280    27.3118     9.5182    119.921  37.327198     35.629      8.594   193.9686     1.7590     0.9574     0.0245      0.070      0.273      0.397        216 5.0286e+02 0.0000e+00
      0.294    27.2842     9.5056    119.739  37.306259     35.645      8.599   193.9686     1.7469     1.0379     0.0245      0.069      0.288      0.418        217 5.1541e+02 0.0000e+00
      0.308    27.2633     9.5098    119.778  37.267798     35.609      8.601   194.3472     1.8237     1.0379     0.0245      0.068      0.301      0.437        218 5.1908e+02 0.0000e+00
      0.319    27.2502     9.5245    119.951  37.256436     35.628      8.607   194.6879     1.8237     1.0782     0.0245      0.066      0.313      0.454        219 6.4953e+02 0.0000e+00
      0.331    27.2402     9.5320    120.037  37.320410     35.696      8.615   194.6500     1.8075     1.0648     0.0245      0.063      0.326      0.472        220 8.8424e+02 0.0000e+00
      0.346    27.2334     9.5479    120.227  37.306833     35.705      8.619   195.0286     1.8278     0.9842     0.0245      0.059      0.340      0.493        221 9.3081e+02 0.0000e+00
      0.363    27.2313     9.5576    120.340  37.273341     35.658      8.625   195.2936     1.9693     1.0111     0.0245      0.057      0.357      0.517        222 1.0191e+03 0.0000e+00
      0.382    27.2293     9.5591    120.352  37.302776     35.716      8.629   195.9372     1.9652     1.0245     0.0245      0.056      0.373      0.541        223 9.8767e+02 0.0000e+00
      0.394    27.2249     9.5543    120.286  37.270206     35.664      8.623   196.3158     1.9572     1.0648     0.0245      0.056      0.387      0.561        224 8.9139e+02 0.0000e+00
      0.407    27.2201     9.5524    120.257  37.254555     35.665      8.625   197.1108     1.9288     0.9842     0.0245      0.057      0.403      0.585        225 9.7175e+02 0.0000e+00
      0.434    27.2117     9.5328    120.005  37.262932     35.668      8.623   198.0193     1.9288     1.0245     0.0245      0.061      0.426      0.617        226 9.1059e+02 0.0000e+00
      0.460    27.2015     9.5005    119.592  37.259783     35.672      8.620   198.7765     2.1391     1.0111     0.0245      0.067      0.449      0.651        227 8.2612e+02 0.0000e+00
      0.479    27.1946     9.4790    119.314  37.258479     35.677      8.617   199.2686     2.1593     0.9574     0.0245      0.072      0.469      0.680        228 8.1877e+02 0.0000e+00
      0.496    27.1895     9.4662    119.145  37.264561     35.685      8.622   199.4958     2.1229     1.0648     0.0245      0.075      0.485      0.704        229 7.3579e+02 0.0000e+00
      0.509    27.1848     9.4611    119.075  37.252219     35.689      8.626   200.1015     2.1553     1.0111     0.0245      0.075      0.503      0.728        230 7.3351e+02 0.0000e+00
      0.533    27.1804     9.4536    118.978  37.214521     35.639      8.631   200.3286     2.4667     1.1722     0.0245      0.077      0.525      0.762        231 7.3582e+02 0.0000e+00
      0.566    27.1764     9.4386    118.786  37.252156     35.696      8.629   200.7072     2.4667     1.3199     0.0245      0.082      0.550      0.798        232 6.4835e+02 0.0000e+00
      0.582    27.1733     9.4207    118.552  37.264705     35.699      8.630   201.2751     2.4626     1.2393     0.0245      0.083      0.569      0.825        233 6.2474e+02 0.0000e+00
      0.594    27.1701     9.4127    118.441  37.198909     35.648      8.631   201.6536     2.4424     1.2393     0.0245      0.079      0.583      0.845        234 6.1848e+02 0.0000e+00
      0.607    27.1676     9.3957    118.213  37.215402     35.650      8.634   201.9186     2.4060     1.1453     0.0245      0.076      0.597      0.865        235 4.8688e+02 0.0000e+00
      0.623    27.1655     9.3864    118.084  37.244181     35.706      8.639   201.5401     2.3979     1.1856     0.0245      0.074      0.613      0.889        236 3.7653e+02 0.0000e+00
      0.646    27.1624     9.3815    118.009  37.222415     35.654      8.641   201.8051     2.3898     1.2393     0.0245      0.073      0.634      0.919        237 3.6598e+02 0.0000e+00
      0.671    27.1591     9.3896    118.087  37.242491     35.709      8.637   202.4486     2.4060     1.2259     0.0245      0.073      0.657      0.953        238 3.5724e+02 0.0000e+00
      0.693    27.1557     9.4023    118.216  37.219198     35.658      8.635   202.5622     2.3736     1.1588     0.0245      0.073      0.679      0.984        239 3.5618e+02 0.0000e+00
      0.711    27.1526     9.4031    118.197  37.192085     35.660      8.638   202.6758     2.3817     1.3333     0.0245      0.072      0.698      1.012        240 3.4812e+02 0.0000e+00
      0.730    27.1513     9.4117    118.284  37.216916     35.662      8.637   202.9786     2.3898     1.1856     0.0245      0.076      0.716      1.039        241 3.3744e+02 0.0000e+00
      0.751    27.1496     9.4023    118.149  37.188298     35.664      8.643   203.0922     2.3858     1.2125     0.0245      0.080      0.735      1.066        242 3.2946e+02 0.0000e+00
      0.768    27.1460     9.3838    117.902  37.168381     35.612      8.642   203.4708     2.4181     1.1991     0.0245      0.081      0.753      1.091        243 3.2340e+02 0.0000e+00
      0.783    27.1407     9.3736    117.765  37.182383     35.666      8.644   203.9629     2.3696     1.1856     0.0245      0.079      0.769      1.115        244 3.1818e+02 0.0000e+00
      0.801    27.1342     9.3603    117.593  37.170874     35.615      8.643   203.9251     2.3736     1.2931     0.0245      0.075      0.785      1.139        245 3.1654e+02 0.0000e+00
      0.817    27.1287     9.3503    117.450  37.182706     35.672      8.642   203.9629     2.4060     1.2393     0.0245      0.071      0.802      1.164        246 3.1550e+02 0.0000e+00
      0.836    27.1222     9.3456    117.359  37.167660     35.623      8.636   204.3036     2.5394     1.2259     0.0245      0.070      0.821      1.191        247 3.1343e+02 0.0000e+00
      0.857    27.1107     9.3475    117.350  37.130283     35.627      8.633   204.6444     2.5556     1.2259     0.0245      0.070      0.844      1.224        248 3.0920e+02 0.0000e+00
      0.890    27.0965     9.3425    117.254  37.080926     35.551      8.624   205.9315     2.5192     1.1588     0.0244      0.074      0.872      1.265        249 3.0250e+02 0.0000e+00
      0.920    27.0830     9.3304    117.069  37.051128     35.559      8.619   206.6129     2.5314     1.2662     0.0244      0.080      0.897      1.302        250 2.9828e+02 0.0000e+00
      0.934    27.0730     9.2969    116.627  37.019074     35.515      8.613   206.8779     2.5677     1.2125     0.0244      0.084      0.917      1.330        251 2.9191e+02 0.0000e+00
      0.953    27.0650     9.2590    116.140  37.031847     35.551      8.616   206.1208     2.6082     1.3065     0.0244      0.088      0.935      1.357        252 2.8408e+02 0.0000e+00
      0.973    27.0580     9.2292    115.748  37.005581     35.531      8.617   206.0451     2.5718     1.2931     0.0244      0.089      0.954      1.384        253 2.7719e+02 0.0000e+00
      0.991    27.0541     9.2020    115.387  36.962788     35.483      8.617   206.6508     2.5799     1.2662     0.0244      0.088      0.973      1.412        254 2.7004e+02 0.0000e+00
      1.013    27.0514     9.1875    115.189  36.996126     35.541      8.615   206.7265     2.6001     1.2931     0.0244      0.086      0.992      1.439        255 2.6366e+02 0.0000e+00
      1.030    27.0431     9.1853    115.148  36.964095     35.490      8.610   207.2186     2.6769     1.2259     0.0244      0.081      1.010      1.464        256 2.5522e+02 0.0000e+00
      1.045    27.0281     9.1884    115.174  36.943333     35.492      8.608   207.4458     2.6850     1.2125     0.0244      0.075      1.025      1.486        257 2.4970e+02 0.0000e+00
      1.060    27.0121     9.1934    115.225  36.932989     35.471      8.607   207.6729     2.6527     1.2662     0.0244      0.071      1.040      1.508        258 2.4588e+02 0.0000e+00
      1.076    26.9965     9.1998    115.295  36.887996     35.454      8.601   207.7865     2.6688     1.1588     0.0244      0.070      1.056      1.531        259 2.4170e+02 0.0000e+00
      1.093    26.9810     9.1952    115.225  36.910355     35.465      8.599   207.9001     2.7214     1.2393     0.0244      0.068      1.073      1.555        260 2.3901e+02 0.0000e+00
      1.112    26.9706     9.1822    115.056  36.934831     35.529      8.595   208.3165     2.7416     1.1991     0.0244      0.066      1.091      1.581        261 2.3732e+02 0.0000e+00
      1.130    26.9649     9.1529    114.690  36.916862     35.486      8.591   208.5437     2.7133     1.1856     0.0244      0.066      1.109      1.608        262 2.3631e+02 0.0000e+00
      1.150    26.9560     9.1145    114.210  36.903065     35.521      8.582   208.8465     2.7376     1.1991     0.0244      0.066      1.128      1.637        263 2.3329e+02 0.0000e+00
      1.172    26.9463     9.0764    113.727  36.863030     35.443      8.568   210.7772     2.6648     1.0111     0.0243      0.069      1.148      1.664        264 2.3252e+02 0.0000e+00
      1.186    26.9387     9.0418    113.289  36.818392     35.450      8.556   209.1115     2.6607     1.0379     0.0243      0.071      1.164      1.688        265 2.3090e+02 0.0000e+00
      1.203    26.9321     9.0129    112.910  36.810322     35.402      8.545   211.1937     2.6607     1.0379     0.0243      0.072      1.180      1.711        266 2.2737e+02 0.0000e+00
      1.219    26.9261     8.9785    112.456  36.873077     35.515      8.537   210.8908     2.6729     1.0111     0.0244      0.071      1.196      1.734        267 2.2618e+02 0.0000e+00
      1.236    26.9203     8.9480    112.059  36.858936     35.466      8.527   210.0201     2.6810     1.0111     0.0243      0.070      1.212      1.759        268 2.2319e+02 0.0000e+00
      1.254    26.9148     8.9196    111.700  36.857582     35.497      8.516   211.0801     2.7214     0.9708     0.0244      0.069      1.230      1.784        269 2.1997e+02 0.0000e+00
      1.273    26.9097     8.8905    111.332  36.845106     35.474      8.509   211.7237     2.7295     1.0379     0.0243      0.068      1.248      1.810        270 2.1756e+02 0.0000e+00
      1.291    26.9062     8.8628    110.982  36.785489     35.424      8.499   211.9508     2.7335     1.0514     0.0243      0.068      1.266      1.836        271 2.1497e+02 0.0000e+00
      1.311    26.9068     8.8344    110.612  36.842801     35.481      8.493   212.0644     2.7052     0.9842     0.0243      0.068      1.285      1.862        272 2.1263e+02 0.0000e+00
      1.327    26.9070     8.8217    110.441  36.833104     35.484      8.489   212.4429     2.9317     1.2931     0.0243      0.070      1.301      1.886        273 2.1177e+02 0.0000e+00
      1.342    26.9048     8.8202    110.420  36.797556     35.430      8.477   214.2601     2.8872     1.2259     0.0243      0.070      1.316      1.909        274 2.1093e+02 0.0000e+00
      1.358    26.9021     8.8362    110.617  36.798060     35.456      8.471   217.4022     2.9276     1.3199     0.0243      0.069      1.331      1.931        275 2.1017e+02 0.0000e+00
      1.373    26.8941     8.8536    110.828  36.743500     35.377      8.460   218.3865     2.9357     1.3602     0.0243      0.068      1.346      1.952        276 2.1106e+02 0.0000e+00
      1.387    26.8829     8.8687    111.012  36.776480     35.432      8.449   219.6358     3.0409     1.0379     0.0243      0.065      1.360      1.972        277 2.1035e+02 0.0000e+00
      1.399    26.8757     8.8817    111.169  36.786678     35.438      8.442   220.7337     3.0166     1.0916     0.0243      0.062      1.372      1.991        278 2.0986e+02 0.0000e+00
      1.413    26.8734     8.8859    111.206  36.730812     35.392      8.431   221.8694     3.0772     1.0111     0.0243      0.059      1.385      2.010        279 2.0908e+02 0.0000e+00
      1.426    26.8727     8.8688    110.964  36.757032     35.424      8.419   220.6201     3.0570     1.0245     0.0243      0.057      1.399      2.030        280 2.0576e+02 0.0000e+00
      1.442    26.8701     8.8421    110.601  36.783710     35.452      8.410   222.2480     3.2269     0.8902     0.0243      0.056      1.414      2.051        281 2.0252e+02 0.0000e+00
      1.458    26.8631     8.8159    110.245  36.786591     35.453      8.396   222.7780     3.2107     0.9171     0.0243      0.056      1.429      2.072        282 1.9932e+02 0.0000e+00
      1.471    26.8571     8.7880    109.875  36.783108     35.454      8.385   221.3015     3.2390     0.9708     0.0243      0.055      1.442      2.092        283 1.9575e+02 0.0000e+00
      1.483    26.8558     8.7667    109.598  36.788047     35.459      8.372   226.2987     3.2511     1.0111     0.0243      0.055      1.454      2.109        284 1.9359e+02 0.0000e+00
      1.493    26.8540     8.7506    109.391  36.780448     35.463      8.362   225.5037     3.1945     0.9976     0.0243      0.054      1.465      2.124        285 1.9075e+02 0.0000e+00
      1.504    26.8508     8.7366    109.198  36.762908     35.437      8.346   225.6551     3.1783     1.0245     0.0243      0.053      1.476      2.141        286 1.8690e+02 0.0000e+00
      1.518    26.8484     8.7232    108.992  36.780217     35.465      8.336   225.1251     3.1500     0.9842     0.0243      0.051      1.489      2.160        287 1.8402e+02 0.0000e+00
      1.533    26.8455     8.7246    108.828  36.788568     35.468      8.322   225.5794     3.1622     1.0379     0.0243      0.050      1.503      2.180        288 1.8020e+02 0.0000e+00
      1.547    26.8370     8.7268    108.570  36.841496     35.523      8.306   226.6773     3.9709     1.1856     0.0243      0.050      1.516      2.199        289 1.7753e+02 0.0000e+00
      1.558    26.8238     8.7174    108.200  36.892307     35.579      8.294   220.6201     3.9345     1.1453     0.0244      0.049      1.528      2.216        290 1.7624e+02 0.0000e+00
      1.570    26.8089     8.7107    107.889  36.873632     35.558      8.281   220.3173     3.9628     1.1856     0.0244      0.050      1.540      2.233        291 1.7460e+02 0.0000e+00
      1.583    26.7951     8.7006    107.587  36.894400     35.594      8.273   220.2415     3.9628     1.1856     0.0244      0.050      1.552      2.251        292 1.7358e+02 0.0000e+00
      1.595    26.7841     8.6918    107.301  36.955448     35.658      8.264   220.0144     3.9426     1.1453     0.0244      0.050      1.564      2.268        293 1.7232e+02 0.0000e+00
      1.606    26.7793     8.6810    107.021  36.945965     35.668      8.252   219.7115     4.5330     1.2528     0.0244      0.050      1.574      2.283        294 1.7105e+02 0.0000e+00
      1.616    26.7752     8.6779    106.920  36.906208     35.621      8.244   220.2037     4.5087     1.2259     0.0244      0.048      1.584      2.298        295 1.7036e+02 0.0000e+00
      1.624    26.7675     8.6849    106.971  36.886292     35.625      8.238   219.7494     4.5370     1.1856     0.0244      0.045      1.594      2.311        296 1.6970e+02 0.0000e+00
      1.634    26.7451     8.7226    107.338  36.881774     35.600      8.228   219.4087     4.5289     1.1991     0.0244      0.043      1.604      2.326        297 1.6792e+02 0.0000e+00
      1.649    26.6531     8.7696    107.769  36.882173     35.633      8.221   222.0208     4.4804     1.3602     0.0244      0.043      1.617      2.346        298 1.6618e+02 0.0000e+00
      1.665    26.5102     8.8026    108.101  36.856142     35.593      8.209   220.9987     4.4925     1.2393     0.0243      0.044      1.631      2.366        299 1.6537e+02 0.0000e+00
      1.676    26.3787     8.8037    108.096  36.884529     35.711      8.198   221.3394     4.4683     1.1588     0.0244      0.045      1.644      2.385        300 1.6289e+02 0.0000e+00
      1.690    26.2645     8.7759    107.731  36.965530     35.866      8.186   223.3837     4.4521     1.1588     0.0244      0.047      1.657      2.404        301 1.6003e+02 0.0000e+00
      1.704    26.1709     8.7319    107.190  37.022338     36.038      8.176   225.1630     4.8201     1.4810     0.0244      0.049      1.671      2.424        302 1.5739e+02 0.0000e+00
      1.719    26.0814     8.6791    106.559  36.962195     36.038      8.164   225.4280     4.8120     1.4139     0.0244      0.052      1.686      2.446        303 1.5450e+02 0.0000e+00
      1.735    26.0068     8.6299    105.941  36.832817     35.993      8.150   227.6237     4.8443     1.5348     0.0244      0.055      1.700      2.466        304 1.5299e+02 0.0000e+00
      1.747    25.9733     8.5850    105.357  36.857141     36.057      8.139   226.9801     4.8322     1.5079     0.0244      0.055      1.713      2.484        305 1.5177e+02 0.0000e+00
      1.758    25.9546     8.5502    104.833  36.931969     36.220      8.125   231.9394     5.2810     1.4408     0.0244      0.054      1.724      2.500        306 1.4962e+02 0.0000e+00
      1.770    25.9045     8.5227    104.311  36.977008     36.243      8.116   230.2737     5.2770     1.4676     0.0244      0.053      1.736      2.517        307 1.4797e+02 0.0000e+00
      1.781    25.8319     8.4983    103.801  37.186688     36.503      8.106   228.6080     5.2689     1.4676     0.0245      0.052      1.747      2.534        308 1.4652e+02 0.0000e+00
      1.793    25.7931     8.4475    103.072  37.323557     36.648      8.099   233.2266     5.3012     1.4273     0.0246      0.050      1.757      2.549        309 1.4484e+02 0.0000e+00
      1.802    25.7832     8.4203    102.648  37.370242     36.757      8.093   230.3873     5.3821     1.6690     0.0246      0.048      1.767      2.563        310 1.4338e+02 0.0000e+00
      1.812    25.7714     8.4433    102.800  37.484544     36.894      8.083   228.6837     5.4023     1.6019     0.0246      0.045      1.777      2.578        311 1.4160e+02 0.0000e+00
      1.823    25.7715     8.5247    103.618  37.537256     36.956      8.078   229.5166     5.3740     1.7362     0.0247      0.043      1.786      2.592        312 1.4016e+02 0.0000e+00
      1.831    25.7786     8.6185    104.555  37.630917     37.048      8.072   231.6366     5.4023     1.6556     0.0247      0.042      1.795      2.604        313 1.3924e+02 0.0000e+00
      1.839    25.7734     8.7761    106.244  37.723916     37.158      8.066   231.0309     5.3902     1.5885     0.0247      0.040      1.803      2.615        314 1.3776e+02 0.0000e+00
      1.848    25.7539     8.9991    108.757  37.807110     37.207      8.057   230.0466     5.7056     1.4408     0.0248      0.038      1.813      2.630        315 1.3574e+02 0.0000e+00
      1.861    25.7044     9.3018    112.302  37.942634     37.377      8.047   230.0087     5.6935     1.4408     0.0248      0.038      1.826      2.649        316 1.3397e+02 0.0000e+00
      1.879    25.6060     9.7522    117.627  38.296791     37.693      8.036   231.5987     5.7380     1.4139     0.0250      0.040      1.843      2.674        317 1.3152e+02 0.0000e+00
      1.899    25.4992    10.3728    124.934  38.256220     37.786      8.021   232.2423     5.7218     1.5885     0.0250      0.045      1.862      2.701        318 1.2916e+02 0.0000e+00
      1.919    25.4382    10.9813    131.982  37.874509     37.333      8.001   234.1730     5.6207     1.6690     0.0248      0.051      1.879      2.726        319 1.2801e+02 0.0000e+00
      1.931    25.3907    11.5102    138.147  37.971014     37.664      7.983   237.9587     5.5600     1.6690     0.0249      0.056      1.892      2.745        320 1.2699e+02 0.0000e+00
      1.940    25.3210    11.9826    143.730  37.780235     37.403      7.972   237.1637     5.5924     1.5616     0.0248      0.058      1.902      2.759        321 1.2635e+02 0.0000e+00
      1.949    25.2316    12.4912    149.692  37.222144     36.967      7.958   236.1037     5.5883     1.7630     0.0246      0.059      1.912      2.773        322 1.2611e+02 0.0000e+00
      1.959    25.1257    12.9878    155.547  36.707995     36.435      7.948   229.0623     5.6773     1.6019     0.0243      0.056      1.922      2.787        323 1.2527e+02 0.0000e+00
      1.970    25.0119    13.4240    160.565  36.165981     36.027      7.931   228.7216     5.6369     1.5079     0.0241      0.052      1.932      2.803        324 1.2455e+02 0.0000e+00
      1.982    24.9201    13.7308    163.875  35.494346     35.378      7.921   229.2894     5.6369     1.6422     0.0238      0.047      1.943      2.820        325 1.2367e+02 0.0000e+00
      1.995    24.8633    13.9921    166.860  35.052603     35.040      7.908   229.7816     5.6611     1.6288     0.0237      0.044      1.955      2.836        326 1.2286e+02 0.0000e+00
      2.005    24.8128    14.3236    170.522  34.995633     35.049      7.896   229.5923     5.7703     1.9645     0.0237      0.042      1.966      2.851        327 1.2182e+02 0.0000e+00
      2.015    24.7333    14.6912    174.480  34.942488     35.032      7.887   229.7437     5.7703     1.8973     0.0236      0.042      1.976      2.866        328 1.2050e+02 0.0000e+00
      2.026    24.6215    14.9995    177.557  34.762890     34.900      7.875   229.7437     5.7744     1.8705     0.0236      0.043      1.987      2.881        329 1.1927e+02 0.0000e+00
      2.037    24.5461    15.2491    179.913  34.388785     34.561      7.865   229.7816     5.7663     1.8436     0.0234      0.043      1.998      2.897        330 1.1761e+02 0.0000e+00
      2.049    24.5114    15.4167    181.494  34.310810     34.556      7.855   230.5009     5.7137     1.9376     0.0234      0.044      2.009      2.914        331 1.1623e+02 0.0000e+00
      2.060    24.4637    15.5592    182.878  34.444787     34.778      7.846   231.1444     5.7339     1.8570     0.0234      0.043      2.020      2.930        332 1.1471e+02 0.0000e+00
      2.071    24.4305    15.6730    183.865  34.311058     34.631      7.844   232.1666     5.7097     1.8167     0.0234      0.043      2.031      2.947        333 1.1286e+02 0.0000e+00
      2.085    24.3562    15.6800    183.586  34.210354     34.581      7.835   233.3402     5.7137     1.7765     0.0233      0.044      2.045      2.967        334 1.1084e+02 0.0000e+00
      2.102    24.2495    15.6097    182.441  34.095637     34.492      7.833   233.1130     5.7097     1.7899     0.0233      0.047      2.061      2.990        335 1.0882e+02 0.0000e+00
      2.120    24.1946    15.4924    180.755  33.979351     34.398      7.834   233.2644     5.6773     2.1122     0.0232      0.050      2.079      3.016        336 1.0636e+02 0.0000e+00
      2.140    24.1109    15.3644    178.895  33.910270     34.452      7.841   232.9994     5.6530     2.0719     0.0232      0.055      2.098      3.044        337 1.0410e+02 0.0000e+00
      2.160    23.9775    15.2340    176.954  33.588544     34.113      7.854   232.9616     5.6369     2.1122     0.0231      0.060      2.117      3.070        338 1.0266e+02 0.0000e+00
      2.175    23.8057    15.0761    174.822  33.341843     33.949      7.894   232.2423     5.6288     2.0584     0.0230      0.064      2.132      3.092        339 1.0155e+02 0.0000e+00
      2.188    23.6286    14.9155    172.792  33.149753     33.838      7.959   232.2801     5.7218     2.8238     0.0229      0.066      2.145      3.111        340 1.0078e+02 0.0000e+00
      2.199    23.5128    14.7681    170.724  32.997331     33.788      8.030   233.9080     5.6975     2.7970     0.0228      0.066      2.156      3.128        341 9.9891e+01 0.0000e+00
      2.212    23.4258    14.6184    168.466  33.027483     33.969      8.087   236.9366     5.7582     2.9178     0.0229      0.063      2.169      3.146        342 9.9120e+01 0.0000e+00
      2.224    23.3259    14.4942    166.413  32.993688     33.992      8.122   235.6116     5.7501     2.8776     0.0228      0.060      2.181      3.162        343 9.8339e+01 0.0000e+00
      2.235    23.2216    14.3562    164.234  32.920829     33.995      8.162   235.9144     5.4711     3.4281     0.0228      0.055      2.191      3.177        344 9.7834e+01 0.0000e+00
      2.243    23.1283    14.1711    161.651  32.880967     34.008      8.216   238.1102     5.4792     3.4952     0.0228      0.050      2.200      3.190        345 9.7435e+01 0.0000e+00
      2.251    23.0363    13.9376    158.655  32.865417     34.081      8.270   241.1387     5.4792     3.5490     0.0228      0.045      2.207      3.202        346 9.6990e+01 0.0000e+00
      2.259    22.9283    13.6774    155.468  32.880920     34.147      8.326   241.1387     5.4468     3.3610     0.0228      0.042      2.216      3.215        347 9.6171e+01 0.0000e+00
      2.271    22.8031    13.3636    151.707  32.802409     34.154      8.380   241.1766     5.6530     3.6832     0.0228      0.040      2.228      3.231        348 9.5207e+01 0.0000e+00
      2.285    22.7158    13.0391    147.848  32.755587     34.144      8.426   240.5330     5.6530     3.6564     0.0227      0.040      2.242      3.251        349 9.4412e+01 0.0000e+00
      2.300    22.6602    12.7096    143.994  32.850276     34.380      8.461   242.9180     5.6450     3.6967     0.0228      0.041      2.257      3.273        350 9.2714e+01 0.0000e+00
      2.318    22.5525    12.3606    140.103  32.803238     34.356      8.484   239.5866     5.6692     3.6698     0.0228      0.044      2.274      3.299        351 9.1225e+01 0.0000e+00
      2.339    22.3878    12.0321    136.482  32.873474     34.481      8.500   238.2616     6.0938     3.2938     0.0228      0.050      2.295      3.329        352 8.8957e+01 0.0000e+00
      2.366    22.1947    11.7158    132.837  32.970480     34.679      8.494   237.4666     6.0776     3.1864     0.0228      0.059      2.320      3.365        353 8.6078e+01 0.0000e+00
      2.394    22.0069    11.4055    129.181  32.949450     34.739      8.461   235.7630     6.0695     3.3341     0.0228      0.069      2.344      3.400        354 8.4697e+01 0.0000e+00
      2.410    21.8575    11.1941    126.327  33.077643     35.060      8.435   233.4916     6.0736     3.3475     0.0229      0.077      2.361      3.423        355 8.3876e+01 0.0000e+00
      2.418    21.7495    11.0155    123.903  33.166884     35.260      8.409   231.7880     6.0938     3.2535     0.0229      0.078      2.371      3.438        356 8.3372e+01 0.0000e+00
      2.425    21.6739    10.8339    121.609  33.194326     35.432      8.388   230.6901     6.5871     2.1793     0.0230      0.075      2.379      3.450        357 8.2926e+01 0.0000e+00
      2.433    21.6080    10.5701    118.537  33.280796     35.574      8.368   230.0466     6.5993     2.2196     0.0230      0.069      2.386      3.461        358 8.2131e+01 0.0000e+00
      2.441    21.5466    10.2027    114.386  33.385525     35.780      8.354   229.4030     6.6195     2.1793     0.0230      0.060      2.394      3.473        359 8.1243e+01 0.0000e+00
      2.451    21.5054     9.7362    109.033  33.508851     35.921      8.340   230.3116     6.6114     2.2733     0.0231      0.050      2.403      3.486        360 8.0469e+01 0.0000e+00
      2.459    21.5298     9.3171    104.157  33.542519     36.058      8.323   230.5387     6.5507     2.2196     0.0231      0.041      2.412      3.498        361 8.0047e+01 0.0000e+00
      2.467    21.5619     8.9437     99.804  33.432617     35.910      8.310   230.8794     6.5184     2.1793     0.0231      0.034      2.420      3.509        362 7.9322e+01 0.0000e+00
      2.476    21.5489     8.5771     95.476  33.497360     36.013      8.296   231.0309     6.5629     2.1659     0.0231      0.033      2.429      3.523        363 7.8708e+01 0.0000e+00
      2.487    21.4820     8.1492     90.493  33.521253     35.983      8.280   231.3716     6.5265     2.2599     0.0231      0.034      2.440      3.538        364 7.8055e+01 0.0000e+00
      2.500    21.3069     7.5787     83.941  33.640115     36.120      8.268   232.3937     6.7812     2.2733     0.0231      0.036      2.452      3.557        365 7.6606e+01 0.0000e+00
      2.516    21.1327     6.9737     76.966  34.001862     36.584      8.247   233.1887     6.7974     2.2599     0.0233      0.039      2.467      3.578        366 7.5177e+01 0.0000e+00
      2.530    21.0295     6.2833     69.089  34.168355     36.882      8.233   233.7944     6.7812     2.2464     0.0234      0.043      2.481      3.598        367 7.3842e+01 0.0000e+00
      2.543    20.9809     5.4907     60.104  34.144724     37.017      8.218   234.2109     6.7772     2.2867     0.0234      0.046      2.493      3.616        368 7.2876e+01 0.0000e+00
      2.554    20.9651     4.5856     50.058  34.061000     36.981      8.205   235.1952     6.9349     2.2599     0.0234      0.048      2.506      3.634        369 7.1735e+01 0.0000e+00
      2.569    20.9078     3.5605     38.803  34.035351     37.019      8.186   235.0059     6.9106     2.2464     0.0234      0.051      2.520      3.654        370 7.0433e+01 0.0000e+00
      2.584    20.8203     2.6150     28.436  34.443577     37.426      8.164   235.8009     6.9227     2.1927     0.0235      0.053      2.535      3.676        371 6.9166e+01 0.0000e+00
      2.602    20.7264     1.7393     18.895  34.828210     37.990      8.140   237.7694     6.9066     2.2464     0.0237      0.055      2.551      3.701        372 6.7559e+01 0.0000e+00
      2.620    20.6020     0.9922     10.775  35.247138     38.369      8.112   237.2016     7.6829     2.1256     0.0239      0.057      2.568      3.725        373 6.6512e+01 0.0000e+00
      2.635    20.4800     0.3650      3.957  35.731370     39.179      8.083   236.9744     7.6789     2.1390     0.0242      0.059      2.584      3.748        374 6.5456e+01 0.0000e+00
      2.651    20.3447    -0.1503     -1.625  36.450000     39.808      8.058   237.0123     7.6668     2.0719     0.0244      0.061      2.600      3.771        375 6.4296e+01 0.0000e+00
      2.667    20.1710    -0.4423     -4.768  37.585742     41.483      8.031   237.2016     7.6749     2.0047     0.0251      0.063      2.615      3.792        376 6.3590e+01 0.0000e+00
      2.680    19.9765    -0.5840     -6.273  38.648443     42.435      7.994   237.3152     7.6829     2.0853     0.0254      0.063      2.629      3.811        377 6.3004e+01 0.0000e+00
      2.693    19.7590    -0.6378     -6.831  40.081130     44.523      7.975   237.6180    10.5822     2.1390     0.0263      0.062      2.641      3.829        378 6.2295e+01 0.0000e+00
      2.703    19.6174    -0.6135     -6.552  41.854360     46.355      7.947   237.9587    10.5984     2.1659     0.0270      0.059      2.651      3.845        379 6.1755e+01 0.0000e+00
      2.713    19.5310    -0.5352     -5.698  43.769399     49.056      7.924   238.3373    10.5984     2.0182     0.0281      0.055      2.660      3.858        380 6.1451e+01 0.0000e+00
      2.721    19.4245    -0.4620     -4.902  45.233861     50.555      7.899   238.7537    10.5984     2.0987     0.0287      0.050      2.668      3.870        381 6.1093e+01 0.0000e+00
      2.728    19.3733    -0.3556     -3.768  47.153062     53.005      7.876   239.8516    12.0784     2.0047     0.0297      0.045      2.676      3.881        382 6.0675e+01 0.0000e+00
      2.738    19.3539    -0.2496     -2.646  48.651168     54.774      7.848   240.9495    12.0460     2.1122     0.0304      0.041      2.686      3.895        383 6.0173e+01 0.0000e+00
      2.748    19.2722    -0.1851     -1.963  51.144811     57.451      7.823   241.5173    12.0865     1.9913     0.0316      0.038      2.696      3.910        384 5.9612e+01 0.0000e+00
      2.760    19.1362    -0.1105     -1.173  55.031701     62.265      7.793   242.0852    12.0905     2.0719     0.0337      0.037      2.707      3.926        385 5.8916e+01 0.0000e+00
      2.773    18.9772    -0.0403     -0.428  59.101648     66.427      7.763   241.9337    11.5648     2.2599     0.0355      0.038      2.721      3.945        386 5.7903e+01 0.0000e+00
      2.789    18.8135     0.0208      0.221  66.389137     75.382      7.733   241.2523    11.5446     2.1793     0.0394      0.041      2.736      3.967        387 5.6788e+01 0.0000e+00
      2.806    18.6654     0.0803      0.850  72.513864     82.465      7.703   242.6909    11.5689     2.1390     0.0425      0.045      2.752      3.992        388 5.5870e+01 0.0000e+00
      2.824    18.5244     0.1471      1.555  74.738887     85.300      7.673   243.4859    11.5689     2.1927     0.0437      0.051      2.769      4.016        389 5.4883e+01 0.0000e+00
      2.841    18.3625     0.1911      2.019  79.011649     90.269      7.634   245.1895     9.4945     2.5016     0.0459      0.056      2.785      4.039        390 5.3965e+01 0.0000e+00
      2.854    18.2016     0.2350      2.481  85.445608     98.382      7.584   245.7952     9.5147     2.4210     0.0495      0.059      2.798      4.058        391 5.3349e+01 0.0000e+00
      2.865    18.1395     0.2720      2.864  87.807794    101.234      7.530   246.3630     9.5269     2.4479     0.0507      0.060      2.809      4.074        392 5.2796e+01 0.0000e+00
      2.875    18.1538     0.2968      3.118  84.812223     98.279      7.467   246.5523     9.4824     2.5150     0.0493      0.059      2.819      4.089        393 5.2156e+01 0.0000e+00
      2.884    18.1749     0.3105      3.258  82.097780     94.881      7.412   246.7038     6.2677     2.8507     0.0478      0.056      2.829      4.103        394 5.1542e+01 0.0000e+00
      2.895    18.2035     0.3147      3.302  82.920894     96.235      7.360   247.1959     6.2798     2.8776     0.0484      0.051      2.839      4.118        395 5.1056e+01 0.0000e+00
      2.906    18.2025     0.3111      3.267  82.539174     95.584      7.298   246.2116     6.2717     2.8641     0.0481      0.047      2.849      4.133        396 5.0372e+01 0.0000e+00
      2.916    18.1589     0.3076      3.229  80.551432     93.141      7.248   246.2116     6.3041     2.9178     0.0470      0.043      2.860      4.148        397 4.9696e+01 0.0000e+00
      2.927    18.0825     0.2926      3.065  80.489784     93.152      7.204   245.8330     5.6005     3.4281     0.0470      0.041      2.870      4.162        398 4.9169e+01 0.0000e+00
      2.936    18.0239     0.2838      2.966  79.940606     92.687      7.161   246.0980     5.5924     3.5221     0.0468      0.040      2.879      4.176        399 4.8494e+01 0.0000e+00
      2.945    18.0038     0.2727      2.843  78.114029     90.551      7.128   246.5523     5.5600     3.4818     0.0458      0.040      2.888      4.189        400 4.7965e+01 0.0000e+00
      2.954    17.9489     0.2674      2.784  77.353572     89.925      7.099   246.7795     5.5843     3.4684     0.0455      0.039      2.897      4.202        401 4.7409e+01 0.0000e+00
      2.964    17.8419     0.2655      2.760  77.261033     89.801      7.068   247.4609     5.5641     3.4818     0.0455      0.039      2.907      4.216        402 4.6919e+01 0.0000e+00
      2.975    17.7278     0.2571      2.666  76.891837     89.523      7.044   247.0823     4.6057     5.3617     0.0453      0.039      2.917      4.231        403 4.6451e+01 0.0000e+00
      2.985    17.6560     0.2560      2.647  76.683760     89.457      7.023   246.2116     4.6260     5.4154     0.0453      0.038      2.928      4.246        404 4.5724e+01 0.0000e+00
      2.997    17.6693     0.2522      2.603  76.777105     89.858      7.007   245.7195     4.5936     5.3617     0.0454      0.039      2.938      4.261        405 4.5324e+01 0.0000e+00
      3.005    17.7124     0.2503      2.580  76.716340     89.916      6.993   243.1452     4.5936     5.3886     0.0454      0.039      2.948      4.275        406 4.4760e+01 0.0000e+00
      3.016    17.6755     0.2442      2.516  76.283948     89.393      6.991   220.1280     4.5855     8.1816     0.0452      0.039      2.958      4.291        407 4.3851e+01 0.0000e+00
      3.031    17.5815     0.2418      2.487  75.977881     88.904      6.984   203.0922     4.6219     8.1547     0.0450      0.041      2.973      4.313        408 4.3017e+01 0.0000e+00
      3.050    17.4687     0.2389      2.451  77.097232     90.260      6.969   190.7507     4.6179     8.1144     0.0456      0.045      2.992      4.339        409 4.1850e+01 0.0000e+00
      3.072    17.3551     0.2359      2.413  78.041206     91.783      6.950   182.5736     4.5855     8.1413     0.0462      0.050      3.011      4.367        410 4.0941e+01 0.0000e+00
      3.087    17.2863     0.2344      2.386  77.953478     91.587      6.932   177.5007     5.0869     8.6516     0.0461      0.055      3.027      4.390        411 4.0380e+01 0.0000e+00
      3.100    17.2088     0.2385      2.420  77.860359     92.113      6.917   173.9421     5.0829     8.6650     0.0463      0.059      3.040      4.409        412 3.9910e+01 0.0000e+00
      3.112    17.0956     0.2352      2.388  77.503357     91.420      6.900   167.6578     5.0788     8.5710     0.0460      0.061      3.053      4.428        413 3.9447e+01 0.0000e+00
      3.128    16.9685     0.2338      2.379  77.446799     91.928      6.888   162.0928     5.0708     8.5576     0.0462      0.062      3.068      4.450        414 3.8729e+01 0.0000e+00
      3.147    16.8601     0.2240      2.281  78.436081     92.902      6.867   154.7864     4.4480     5.4289     0.0466      0.063      3.085      4.475        415 3.8130e+01 0.0000e+00
      3.162    16.8044     0.2166      2.210  80.522581     96.157      6.854   150.9628     4.4844     5.3886     0.0480      0.062      3.100      4.496        416 3.7530e+01 0.0000e+00
      3.173    16.7753     0.2145      2.190  80.884033     96.508      6.843   145.9278     4.4804     5.4020     0.0481      0.059      3.112      4.513        417 3.7082e+01 0.0000e+00
      3.184    16.7024     0.1976      2.019  80.810063     96.635      6.832   142.2177     4.4642     5.4289     0.0482      0.056      3.122      4.527        418 3.6729e+01 0.0000e+00
      3.192    16.5818     0.1882      1.916  82.665813     98.914      6.824   138.8863     3.3199     2.7970     0.0492      0.054      3.132      4.541        419 3.6175e+01 0.0000e+00
      3.202    16.4315     0.1764      1.788  83.241711     99.920      6.818   136.2742     3.2996     2.8641     0.0496      0.051      3.142      4.556        420 3.5433e+01 0.0000e+00
      3.217    16.2119     0.1799      1.817  84.433675    101.234      6.815   132.3749     3.2835     2.8104     0.0502      0.050      3.155      4.576        421 3.4557e+01 0.0000e+00
      3.233    16.0543     0.1840      1.856  87.485563    105.878      6.811   129.4599     3.2875     2.7970     0.0523      0.048      3.168      4.595        422 3.3920e+01 0.0000e+00
      3.241    16.1016     0.1941      1.955  88.185177    106.798      6.806   128.8541     3.2390     2.5419     0.0526      0.045      3.177      4.608        423 3.3433e+01 0.0000e+00
      3.246    16.1782     0.1921      1.933  86.655393    105.746      6.800   126.5827     3.2754     2.5016     0.0521      0.043      3.183      4.616        424 3.2952e+01 0.0000e+00
      3.250    16.2226     0.1958      1.969  84.929480    103.097      6.796   124.2356     3.2511     2.4344     0.0509      0.041      3.190      4.626        425 3.2442e+01 0.0000e+00
      3.261    16.3115     0.2009      2.019  83.613513    101.694      6.796   120.7905     3.2673     2.4210     0.0503      0.039      3.200      4.641        426 3.1502e+01 0.0000e+00
      3.278    16.3681     0.1949      1.962  83.803618    101.384      6.787   117.3077     2.9276     2.0853     0.0501      0.039      3.214      4.661        427 3.0522e+01 0.0000e+00
      3.292    16.3631     0.1909      1.922  83.711736    101.666      6.786   115.7934     2.9317     2.0719     0.0503      0.040      3.228      4.683        428 2.9801e+01 0.0000e+00
      3.307    16.2235 -9.990e-29 -9.990e-29  83.460228    100.412      6.784   113.5977     2.9317     2.0719     0.0498      0.041      3.243      4.703        429 2.9110e+01 0.0000e+00
      3.321    16.0114 -9.990e-29 -9.990e-29  85.989683    104.283      6.778   111.2127     2.9115     1.9645     0.0515      0.044      3.256      4.722        430 2.8609e+01 0.0000e+00
      3.331    15.8667 -9.990e-29 -9.990e-29  87.550786    105.985      6.778   109.0548     2.9195     2.0719     0.0522      0.048      3.266      4.737        431 2.8193e+01 0.0000e+00
      3.340    15.7763 -9.990e-29 -9.990e-29  87.255875    106.531      6.773   106.9348     2.9236     2.1524     0.0524      0.050      3.275      4.751        432 2.7721e+01 0.0000e+00
      3.350    15.7020 -9.990e-29 -9.990e-29  87.278654    106.636      6.769   104.7769     2.9317     2.1390     0.0524      0.051      3.285      4.765        433 2.7243e+01 0.0000e+00
      3.359    15.6616 -9.990e-29 -9.990e-29  87.730767    107.659      6.765   102.7705     2.9478     2.1122     0.0529      0.048      3.293      4.776        434 2.7095e+01 0.0000e+00
      3.364    15.6275 -9.990e-29 -9.990e-29  88.120629    108.199      6.761   101.0669     2.9236     2.0719     0.0531      0.043      3.299      4.784        435 2.7134e+01 0.0000e+00
      3.368    15.6344 -9.990e-29 -9.990e-29  88.191117    108.452      6.760    99.4012     3.3037     2.0853     0.0532      0.037      3.304      4.791        436 2.7062e+01 0.0000e+00
      3.373    15.6883 -9.990e-29 -9.990e-29  88.118874    108.456      6.759    98.6819     3.3279     2.0450     0.0532      0.032      3.309      4.799        437 2.6644e+01 0.0000e+00
      3.382    15.7013 -9.990e-29 -9.990e-29  88.032151    108.266      6.754    96.8648     3.3522     2.0853     0.0531      0.029      3.317      4.809        438 2.6128e+01 0.0000e+00
      3.390 -9.990e-29 -9.990e-29 -9.990e-29  88.388242    108.656      6.751    96.0319     3.3199     2.1793     0.0533      0.027      3.323      4.819        439 2.5910e+01 0.0000e+00
      3.395 -9.990e-29 -9.990e-29 -9.990e-29  88.508291    108.675      6.748    94.4419     2.8791     2.1122     0.0533      0.026      3.326      4.824        440 2.5816e+01 0.0000e+00
