* Sea-Bird SBE19plus  Data File:
* FileName = C:\R\Reservoirs\Data\DataNotYetUploadedToEDI\Raw_CTD\RawDownloads\073123_fcr50_S7809_0004.hex
* Software version 2.8.0.119
* Temperature SN = 7809
* Conductivity SN = 7809
* System UpLoad Time = Aug 03 2023 12:35:02
* <ApplicationData>
* <Seaterm232>
* <SoftwareVersion>2.8.0.119</SoftwareVersion>
* <BuildDate>07-Nov-2018</BuildDate>
* </Seaterm232>
* </ApplicationData>
* <InstrumentState>
* <HardwareData DeviceType='SBE19plus' SerialNumber='01907809'>
*
*    <Manufacturer>Sea-Bird Electronics, Inc.</Manufacturer>
*
*    <FirmwareVersion>3.1.8</FirmwareVersion>
*
*    <FirmwareDate>Mar  9 2016 16:22:29</FirmwareDate>
*
*    <CommandSetVersion>1.4</CommandSetVersion>
*
*    <PCBAssembly PCBSerialNum='120721' AssemblyNum='41054J'/>
*
*    <PCBAssembly PCBSerialNum='120715' AssemblyNum='41967A'/>
*
*    <PCBAssembly PCBSerialNum='116699' AssemblyNum='41606'/>
*
*    <PCBAssembly PCBSerialNum='120719' AssemblyNum='41059D'/>
*
*    <MfgDate>28-Apr-2017</MfgDate>
*
*    <InternalSensors>
*
*       <Sensor id='Main Temperature'>
*
*          <type>temperature0</type>
*
*          <SerialNumber>01907809</SerialNumber>
*
*       </Sensor>
*
*       <Sensor id='Main Conductivity'>
*
*          <type>conductivity-0</type>
*
*          <SerialNumber>01907809</SerialNumber>
*
*       </Sensor>
*
*       <Sensor id='Main Pressure'>
*
*          <type>strain-0</type>
*
*          <SerialNumber>10586018</SerialNumber>
*
*       </Sensor>
*
*    </InternalSensors>
*
*    <ExternalSensors>
*
*       <Sensor id='volt 0'>
*
*          <type>pH</type>
*
*          <SerialNumber>27-0363</SerialNumber>
*
*       </Sensor>
*
*       <Sensor id='volt 1'>
*
*          <type>ORP</type>
*
*          <SerialNumber>27-0363</SerialNumber>
*
*       </Sensor>
*
*       <Sensor id='volt 2'>
*
*          <type>OXY</type>
*
*          <SerialNumber>43-0434</SerialNumber>
*
*       </Sensor>
*
*       <Sensor id='volt 3'>
*
*          <type>PAR</type>
*
*          <SerialNumber>1122</SerialNumber>
*
*       </Sensor>
*
*       <Sensor id='volt 4'>
*
*          <type>ECO AFL/FL</type>
*
*          <SerialNumber>FLNTURT-2496</SerialNumber>
*
*       </Sensor>
*
*       <Sensor id='volt 5'>
*
*          <type>ECO-NTU</type>
*
*          <SerialNumber>FLNTURT-2496</SerialNumber>
*
*       </Sensor>
*
*       <Sensor id='serial'>
*
*          <type>not assigned</type>
*
*          <SerialNumber>not assigned</SerialNumber>
*
*       </Sensor>
*
*    </ExternalSensors>
*
* </HardwareData>
* <StatusData DeviceType='SBE19plus' SerialNumber='01907809'>
*
*    <DateTime>2023-08-03T08:32:04</DateTime>
*
*    <LoggingState>not logging</LoggingState>
*
*    <EventSummary numEvents='0'/>
*
*    <Power>
*
*       <vMain>13.2</vMain>
*
*       <vLith>8.4</vLith>
*
*       <iMain>63.1</iMain>
*
*       <iPump>60.8</iPump>
*
*       <iExt01>19.3</iExt01>
*
*       <iExt2345>35.5</iExt2345>
*
*    </Power>
*
*    <MemorySummary>
*
*       <Bytes>494661</Bytes>
*
*       <Samples>21507</Samples>
*
*       <SamplesFree>2839281</SamplesFree>
*
*       <SampleLength>23</SampleLength>
*
*       <Profiles>10</Profiles>
*
*    </MemorySummary>
*
* </StatusData>
* <ConfigurationData DeviceType='SBE19plus' SerialNumber='01907809'>
*
*    <ProfileMode>
*
*       <ScansToAverage>1</ScansToAverage>
*
*       <MinimumCondFreq>0</MinimumCondFreq>
*
*       <PumpDelay>45</PumpDelay>
*
*       <AutoRun>no</AutoRun>
*
*       <IgnoreSwitch>no</IgnoreSwitch>
*
*    </ProfileMode>
*
*    <Battery>
*
*       <Type>alkaline</Type>
*
*       <CutOff>7.5</CutOff>
*
*    </Battery>
*
*    <DataChannels>
*
*       <ExtVolt0>yes</ExtVolt0>
*
*       <ExtVolt1>yes</ExtVolt1>
*
*       <ExtVolt2>yes</ExtVolt2>
*
*       <ExtVolt3>yes</ExtVolt3>
*
*       <ExtVolt4>yes</ExtVolt4>
*
*       <ExtVolt5>yes</ExtVolt5>
*
*       <SBE38>no</SBE38>
*
*       <WETLABS>no</WETLABS>
*
*       <OPTODE>no</OPTODE>
*
*       <SBE63>no</SBE63>
*
*       <SeaFET>no</SeaFET>
*
*       <GTD>no</GTD>
*
*    </DataChannels>
*
*    <EchoCharacters>yes</EchoCharacters>
*
*    <OutputExecutedTag>yes</OutputExecutedTag>
*
*    <OutputFormat>raw HEX</OutputFormat>
*
* </ConfigurationData>
* <CalibrationCoefficients DeviceType='SBE19plus' SerialNumber='01907809'>
*
*    <Calibration format='TEMP1' id='Main Temperature'>
*
*       <SerialNum>01907809</SerialNum>
*
*       <CalDate>31-Jan-23</CalDate>
*
*       <TA0>1.218232e-03</TA0>
*
*       <TA1>2.815090e-04</TA1>
*
*       <TA2>-1.578887e-06</TA2>
*
*       <TA3>1.972343e-07</TA3>
*
*       <TOFFSET>0.000000e+00</TOFFSET>
*
*    </Calibration>
*
*    <Calibration format='WBCOND0' id='Main Conductivity'>
*
*       <SerialNum>01907809</SerialNum>
*
*       <CalDate>31-Jan-23</CalDate>
*
*       <G>-1.005652e+00</G>
*
*       <H>1.267963e-01</H>
*
*       <I>-1.561708e-04</I>
*
*       <J>2.645944e-05</J>
*
*       <CPCOR>-9.570000e-08</CPCOR>
*
*       <CTCOR>3.250000e-06</CTCOR>
*
*       <CSLOPE>1.000000e+00</CSLOPE>
*
*    </Calibration>
*
*    <Calibration format='STRAIN0' id='Main Pressure'>
*
*       <SerialNum>10586018</SerialNum>
*
*       <CalDate>20-Jan-23</CalDate>
*
*       <PA0>4.416439e-02</PA0>
*
*       <PA1>4.850502e-04</PA1>
*
*       <PA2>-3.090426e-12</PA2>
*
*       <PTCA0>5.254757e+05</PTCA0>
*
*       <PTCA1>1.050255e+01</PTCA1>
*
*       <PTCA2>-2.922435e-01</PTCA2>
*
*       <PTCB0>2.516687e+01</PTCB0>
*
*       <PTCB1>3.750000e-04</PTCB1>
*
*       <PTCB2>0.000000e+00</PTCB2>
*
*       <PTEMPA0>-5.470820e+01</PTEMPA0>
*
*       <PTEMPA1>5.485421e+01</PTEMPA1>
*
*       <PTEMPA2>-3.446578e-01</PTEMPA2>
*
*       <POFFSET>8.500000e-01</POFFSET>
*
*       <PRANGE>1.600000e+02</PRANGE>
*
*    </Calibration>
*
*    <Calibration format='VOLT0' id='Volt 0'>
*
*       <OFFSET>-4.920000e-02</OFFSET>
*
*       <SLOPE>1.248122e+00</SLOPE>
*
*    </Calibration>
*
*    <Calibration format='VOLT0' id='Volt 1'>
*
*       <OFFSET>-4.784000e-02</OFFSET>
*
*       <SLOPE>1.248871e+00</SLOPE>
*
*    </Calibration>
*
*    <Calibration format='VOLT0' id='Volt 2'>
*
*       <OFFSET>-4.864632e-02</OFFSET>
*
*       <SLOPE>1.248714e+00</SLOPE>
*
*    </Calibration>
*
*    <Calibration format='VOLT0' id='Volt 3'>
*
*       <OFFSET>-4.743790e-02</OFFSET>
*
*       <SLOPE>1.248571e+00</SLOPE>
*
*    </Calibration>
*
*    <Calibration format='VOLT0' id='Volt 4'>
*
*       <OFFSET>-4.671263e-02</OFFSET>
*
*       <SLOPE>1.248951e+00</SLOPE>
*
*    </Calibration>
*
*    <Calibration format='VOLT0' id='Volt 5'>
*
*       <OFFSET>-4.871053e-02</OFFSET>
*
*       <SLOPE>1.249136e+00</SLOPE>
*
*    </Calibration>
*
*    <Calibration format='FREQ0' id='external frequency channel'>
*
*       <EXTFREQSF>1.000014e+00</EXTFREQSF>
*
*    </Calibration>
*
* </CalibrationCoefficients>
* <EventCounters DeviceType='SBE19plus' SerialNumber='01907809'>
*
*    <EventSummary numEvents='0'/>
*
* </EventCounters></InstrumentState>
* <Headers>
*
* cast   4 17 Jul 2023 06:22:23 samples 5469 to 6452, avg = 1, stop = mag switch
*
# nquan = 15
# nvalues = 984                         
# units = specified
# name 0 = depFM: Depth [fresh water, m]
# name 1 = dz/dtM: Descent Rate [m/s]
# name 2 = sbeox0Mg/L: Oxygen, SBE 43 [mg/l]
# name 3 = sbeox0PS: Oxygen, SBE 43 [% saturation]
# name 4 = specc: Specific Conductance [uS/cm]
# name 5 = c0uS/cm: Conductivity [uS/cm]
# name 6 = flECO-AFL: Fluorescence, WET Labs ECO-AFL/FL [mg/m^3]
# name 7 = ph: pH
# name 8 = orp: Oxidation Reduction Potential [mV]
# name 9 = par/sat/log: PAR/Logarithmic, Satlantic
# name 10 = turbWETntu0: Turbidity, WET Labs ECO [NTU]
# name 11 = prdM: Pressure, Strain Gauge [db]
# name 12 = prdE: Pressure, Strain Gauge [psi]
# name 13 = tv290C: Temperature [ITS-90, deg C]
# name 14 = flag:  0.000e+00
# span 0 =     -0.644,      8.728       
# span 1 =     -0.470,      0.334       
# span 2 =    -0.7947,     8.5822       
# span 3 =     -7.428,     99.246       
# span 4 =     12.437,    128.938       
# span 5 =  12.454408, 134.143237       
# span 6 =    -2.1170,     8.6061       
# span 7 =      6.646,      9.043       
# span 8 = -1240.4160,   343.5864       
# span 9 = 1.2354e-01, 1.3496e+03       
# span 10 =    -0.8473,    18.4774      
# span 11 =     -0.632,      8.561      
# span 12 =     -0.916,     12.416      
# span 13 =    10.9969,    27.3139      
# span 14 = 0.0000e+00, 0.0000e+00      
# interval = seconds: 0.25
# start_time = Jul 17 2023 06:22:23 [Instrument's time stamp, header]
# bad_flag = -9.990e-29
# <Sensors count="9" >
#   <sensor Channel="1" >
#     <!-- Count, Temperature -->
#     <TemperatureSensor SensorID="58" >
#       <SerialNumber>7809</SerialNumber>
#       <CalibrationDate>31-Jan-23</CalibrationDate>
#       <A0>1.21823180e-003</A0>
#       <A1>2.81508993e-004</A1>
#       <A2>-1.57888696e-006</A2>
#       <A3>1.97234302e-007</A3>
#       <Slope>1.00000000</Slope>
#       <Offset>0.0000</Offset>
#     </TemperatureSensor>
#   </sensor>
#   <sensor Channel="2" >
#     <!-- Frequency 0, Conductivity -->
#     <ConductivitySensor SensorID="3" >
#       <SerialNumber>7809</SerialNumber>
#       <CalibrationDate>31-Jan-23</CalibrationDate>
#       <UseG_J>1</UseG_J>
#       <!-- Cell const and series R are applicable only for wide range sensors. -->
#       <SeriesR>0.0000</SeriesR>
#       <CellConst>2000.0000</CellConst>
#       <ConductivityType>0</ConductivityType>
#       <Coefficients equation="0" >
#         <A>0.00000000e+000</A>
#         <B>0.00000000e+000</B>
#         <C>0.00000000e+000</C>
#         <D>0.00000000e+000</D>
#         <M>0.0</M>
#         <CPcor>-9.57000000e-008</CPcor>
#       </Coefficients>
#       <Coefficients equation="1" >
#         <G>-1.00565232e+000</G>
#         <H>1.26796307e-001</H>
#         <I>-1.56170788e-004</I>
#         <J>2.64594368e-005</J>
#         <CPcor>-9.57000000e-008</CPcor>
#         <CTcor>3.2500e-006</CTcor>
#         <!-- WBOTC not applicable unless ConductivityType = 1. -->
#         <WBOTC>0.00000000e+000</WBOTC>
#       </Coefficients>
#       <Slope>1.00000000</Slope>
#       <Offset>0.00000</Offset>
#     </ConductivitySensor>
#   </sensor>
#   <sensor Channel="3" >
#     <!-- Count, Pressure, Strain Gauge -->
#     <PressureSensor SensorID="46" >
#       <SerialNumber>7809</SerialNumber>
#       <CalibrationDate>20-Jan-23</CalibrationDate>
#       <PA0>4.41643944e-002</PA0>
#       <PA1>4.85050239e-004</PA1>
#       <PA2>-3.09042623e-012</PA2>
#       <PTEMPA0>-5.47081996e+001</PTEMPA0>
#       <PTEMPA1>5.48542136e+001</PTEMPA1>
#       <PTEMPA2>-3.44657813e-001</PTEMPA2>
#       <PTCA0>5.25475731e+005</PTCA0>
#       <PTCA1>1.05025484e+001</PTCA1>
#       <PTCA2>-2.92243463e-001</PTCA2>
#       <PTCB0>2.51668750e+001</PTCB0>
#       <PTCB1>3.75000000e-004</PTCB1>
#       <PTCB2>0.00000000e+000</PTCB2>
#       <Offset>0.000000</Offset>
#     </PressureSensor>
#   </sensor>
#   <sensor Channel="4" >
#     <!-- A/D voltage 0, Oxygen, SBE 43 -->
#     <OxygenSensor SensorID="38" >
#       <SerialNumber>0434</SerialNumber>
#       <CalibrationDate>18-Feb-23</CalibrationDate>
#       <Use2007Equation>1</Use2007Equation>
#       <CalibrationCoefficients equation="0" >
#         <!-- Coefficients for Owens-Millard equation. -->
#         <Boc>0.0000</Boc>
#         <Soc>0.0000e+000</Soc>
#         <offset>0.0000</offset>
#         <Pcor>0.00e+000</Pcor>
#         <Tcor>0.0000</Tcor>
#         <Tau>0.0</Tau>
#       </CalibrationCoefficients>
#       <CalibrationCoefficients equation="1" >
#         <!-- Coefficients for Sea-Bird equation - SBE calibration in 2007 and later. -->
#         <Soc>5.1878e-001</Soc>
#         <offset>-0.5046</offset>
#         <A>-4.2788e-003</A>
#         <B> 1.5372e-004</B>
#         <C>-2.1853e-006</C>
#         <D0> 2.5826e+000</D0>
#         <D1> 1.92634e-004</D1>
#         <D2>-4.64803e-002</D2>
#         <E> 3.6000e-002</E>
#         <Tau20> 0.9900</Tau20>
#         <H1>-3.3000e-002</H1>
#         <H2> 5.0000e+003</H2>
#         <H3> 1.4500e+003</H3>
#       </CalibrationCoefficients>
#     </OxygenSensor>
#   </sensor>
#   <sensor Channel="5" >
#     <!-- A/D voltage 1, PAR/Logarithmic, Satlantic -->
#     <PARLog_SatlanticSensor SensorID="76" >
#       <SerialNumber>1122</SerialNumber>
#       <CalibrationDate>08-Sep-2021</CalibrationDate>
#       <a0>9.6751e-001</a0>
#       <a1>8.0992e-001</a1>
#       <Im>1.3589e+000</Im>
#       <Multiplier>1.0000e+000</Multiplier>
#     </PARLog_SatlanticSensor>
#   </sensor>
#   <sensor Channel="6" >
#     <!-- A/D voltage 2, pH -->
#     <pH_Sensor SensorID="43" >
#       <SerialNumber>0363</SerialNumber>
#       <CalibrationDate>28-Feb-23</CalibrationDate>
#       <Slope>4.7364</Slope>
#       <Offset>2.5433</Offset>
#     </pH_Sensor>
#   </sensor>
#   <sensor Channel="7" >
#     <!-- A/D voltage 3, Oxidation Reduction Potential -->
#     <OxidationReductionPotentialSensor SensorID="41" >
#       <SerialNumber>0363</SerialNumber>
#       <CalibrationDate>28-Feb-23</CalibrationDate>
#       <B>2.499480</B>
#       <M>-0.496195</M>
#       <Offset>0.0</Offset>
#     </OxidationReductionPotentialSensor>
#   </sensor>
#   <sensor Channel="8" >
#     <!-- A/D voltage 4, Fluorometer, WET Labs ECO-AFL/FL -->
#     <FluoroWetlabECO_AFL_FL_Sensor SensorID="20" >
#       <SerialNumber>FLNTURT-2496</SerialNumber>
#       <CalibrationDate>02-Sep-2021</CalibrationDate>
#       <ScaleFactor>4.80000000e+001</ScaleFactor>
#       <!-- Dark output -->
#       <Vblank>0.0550</Vblank>
#     </FluoroWetlabECO_AFL_FL_Sensor>
#   </sensor>
#   <sensor Channel="9" >
#     <!-- A/D voltage 5, Turbidity Meter, WET Labs, ECO-NTU -->
#     <TurbidityMeter SensorID="67" >
#       <SerialNumber>FLNTURT--2496</SerialNumber>
#       <CalibrationDate>02-Sep-2021</CalibrationDate>
#       <ScaleFactor>197.000000</ScaleFactor>
#       <!-- Dark output -->
#       <DarkVoltage>0.070000</DarkVoltage>
#     </TurbidityMeter>
#   </sensor>
# </Sensors>
# datcnv_date = Aug 03 2023 15:49:59, 7.26.7.129 [datcnv_vars = 14]
# datcnv_in = C:\R\Reservoirs\Data\DataNotYetUploadedToEDI\Raw_CTD\RawDownloads\071723_fcr50_S7809004.hex C:\R\Reservoirs\Data\DataNotYetUploadedToEDI\Raw_CTD\RawDownloads\SBE19plusV2_7809_start20230701.xmlcon
# datcnv_skipover = 0
# datcnv_ox_hysteresis_correction = yes
# datcnv_ox_tau_correction = yes
# filter_date = Aug 03 2023 15:50:49, 7.26.7.129
# filter_in = C:\R\Reservoirs\Data\DataNotYetUploadedToEDI\Raw_CTD\RawDownloads\071723_fcr50_S7809004.cnv
# filter_low_pass_tc_A = 0.030
# filter_low_pass_tc_B = 0.150
# filter_low_pass_A_vars = sbeox0Mg/L prdM prdE tv290C
# filter_low_pass_B_vars = depFM dz/dtM sbeox0PS specc c0uS/cm flECO-AFL ph orp par/sat/log turbWETntu0
# alignctd_date = Aug 03 2023 15:51:39, 7.26.7.129
# alignctd_in = C:\R\Reservoirs\Data\DataNotYetUploadedToEDI\Raw_CTD\RawDownloads\071723_fcr50_S7809004.cnv
# alignctd_adv = dz/dtM 1.000, sbeox0PS 1.000, specc 1.000, c0uS/cm 1.000, flECO-AFL 1.000, ph 1.000, orp 1.000, turbWETntu0 1.000                                                                                                   
# file_type = ascii
*END*
     -0.643      0.000     7.3683     93.035     12.987  13.588508    -0.0692      7.090 -1240.4160 8.8815e+02    -0.1870     -0.631     -0.915    27.3139 0.0000e+00
     -0.644      0.000     7.3705     93.027     13.527  14.152525    -0.0785      7.103 -1237.1205 1.0457e+03    -0.2508     -0.631     -0.916    27.3124 0.0000e+00
     -0.644      0.003     7.3709     93.015     20.717  21.668530    -0.0395      7.337 -1200.8700 1.0766e+03    -0.3075     -0.631     -0.916    27.3098 0.0000e+00
     -0.644      0.014     7.3707     93.025     59.383  62.044351     0.0526      7.841  -802.1150 9.5350e+02    -0.3942     -0.631     -0.915    27.3098 0.0000e+00
     -0.644      0.040     7.3727     93.047    116.305 121.309338     0.1108      8.277   -74.0254 9.3357e+02    -0.4787     -0.631     -0.916    27.3091 0.0000e+00
     -0.643      0.080     7.3711     93.047    128.938 134.143237     0.1235      8.509   317.3705 1.0713e+03    -0.5093     -0.630     -0.914    27.3103 0.0000e+00
     -0.634      0.124     7.3697     92.989     97.841 101.460267     0.1319      8.648   343.5864 1.1713e+03    -0.4920     -0.632     -0.916    27.3076 0.0000e+00
     -0.598      0.169     7.3695     92.864     69.242  71.590906     0.2453      8.784   335.0961 1.1944e+03    -0.4057     -0.606     -0.878    27.3100 0.0000e+00
     -0.526      0.217     7.3842     92.945     56.433  58.229357     0.4793      8.927   326.2219 1.2040e+03    -0.2174     -0.516     -0.748    27.2163 0.0000e+00
     -0.449      0.266     7.4140     93.461     52.147  53.750230     0.6221      9.018   320.8662 1.1038e+03    -0.0591     -0.429     -0.623    26.9799 0.0000e+00
     -0.386      0.306     7.4427     94.157     52.065  53.636934     0.6815      9.043   311.6388 8.3008e+02     0.1065     -0.384     -0.557    26.7779 0.0000e+00
     -0.315      0.330     7.4409     94.869     56.749  58.446809     1.1480      9.018   300.3499 5.1445e+02     1.2729     -0.321     -0.466    26.6481 0.0000e+00
     -0.219      0.334     7.4428     95.718     63.454  65.346176     1.9846      8.969   297.2569 2.7809e+02     3.3520     -0.218     -0.317    26.5635 0.0000e+00
     -0.114      0.323     7.5087     96.713     66.948  68.952600     2.4319      8.914   296.3537 1.5930e+02     4.4755     -0.109     -0.157    26.5221 0.0000e+00
     -0.014      0.297     7.5721     97.714     65.440  67.423262     2.4779      8.862   291.1499 1.1507e+02     4.5753     -0.007     -0.010    26.4981 0.0000e+00
      0.069      0.252     7.6216     98.521     61.673  63.567754     2.5908      8.819   286.9078 8.9839e+01     4.6273      0.077      0.112    26.4883 0.0000e+00
      0.126      0.195     7.6926     99.004     58.463  60.270904     2.7978      8.784   284.5555 7.7557e+01     4.6947      0.132      0.192    26.4804 0.0000e+00
      0.158      0.139     7.7755     99.205     56.009  57.739689     2.9082      8.754   282.8419 7.3768e+01     4.7064      0.160      0.232    26.4850 0.0000e+00
      0.174      0.094     7.8594     99.246     53.735  55.386203     2.9020      8.723   281.7615 7.3630e+01     4.6669      0.173      0.250    26.5098 0.0000e+00
      0.183      0.062     7.9253     99.168     51.582  53.155822     2.8483      8.691   280.5264 7.2997e+01     4.5925      0.180      0.261    26.5346 0.0000e+00
      0.189      0.042     7.9611     98.995     49.714  51.221514     2.7661      8.658   278.6633 7.1925e+01     4.5590      0.183      0.267    26.5447 0.0000e+00
      0.199      0.029     7.9718     98.784     48.259  49.715380     2.7244      8.623   276.6145 7.1018e+01     4.5686      0.193      0.281    26.5414 0.0000e+00
      0.211      0.018     7.9774     98.530     47.115  48.533277     2.7259      8.588   275.0274 7.2306e+01     4.5374      0.207      0.302    26.5297 0.0000e+00
      0.218      0.010     7.9726     98.087     46.207  47.595268     2.7352      8.548   274.1867 8.1052e+01     4.4893      0.217      0.315    26.5180 0.0000e+00
      0.218      0.004     7.9574     97.023     45.516  46.881318     2.7538      8.507   273.7626 1.0048e+02     4.4648      0.217      0.315    26.5092 0.0000e+00
      0.211      0.001     7.9409     94.483     45.089  46.439895     2.7762      8.466   273.3418 1.3419e+02     4.4804      0.207      0.300    26.5026 0.0000e+00
      0.204      0.000     7.9252     89.894     44.913  46.257512     2.7891      8.421   272.9699 1.7324e+02     4.4730      0.197      0.285    26.4976 0.0000e+00
      0.203      0.002     7.8988     84.023     44.858  46.199713     2.7930      8.371   272.5362 1.9359e+02     4.4101      0.195      0.284    26.4954 0.0000e+00
      0.208      0.004     7.8405     78.208     44.845  46.185421     2.7891      8.323   271.7982 1.9419e+02     4.3690      0.202      0.295    26.4937 0.0000e+00
      0.216      0.000     7.6684     73.090     44.870  46.211670     2.7759      8.283   270.5852 1.8912e+02     4.4197      0.212      0.308    26.4916 0.0000e+00
      0.221     -0.014     7.2687     68.830     44.920  46.263170     2.7666      8.248   269.2276 1.8456e+02     4.5108      0.217      0.315    26.4901 0.0000e+00
      0.221     -0.036     6.7440     65.459     44.895  46.236763     2.7603      8.210   268.3748 1.8355e+02     4.5141      0.219      0.317    26.4894 0.0000e+00
      0.214     -0.057     6.2680     63.058     44.746  46.082827     2.7418      8.168   267.9318 1.8647e+02     4.4601      0.215      0.312    26.4886 0.0000e+00
      0.192     -0.069     5.8525     61.822     44.655  45.988974     2.7176      8.126   267.7437 1.9036e+02     4.4378      0.195      0.282    26.4880 0.0000e+00
      0.155     -0.069     5.5089     61.548     44.964  46.308131     2.7008      8.087   267.8211 1.9736e+02     4.4492      0.152      0.220    26.4880 0.0000e+00
      0.120     -0.061     5.2404     61.638     45.655  47.021531     2.6959      8.048   267.5770 2.0901e+02     4.4613      0.110      0.159    26.4878 0.0000e+00
      0.104     -0.053     5.0333     61.730     45.998  47.377562     2.7167      8.010   266.8575 2.2058e+02     4.4476      0.095      0.137    26.4872 0.0000e+00
      0.106     -0.049     4.9399     61.858     45.563  46.930838     2.7610      7.973   266.3488 2.3173e+02     4.4197      0.102      0.147    26.4866 0.0000e+00
      0.115     -0.053     4.9424     62.222     44.966  46.318021     2.7824      7.934   265.9862 2.4982e+02     4.3979      0.117      0.169    26.4881 0.0000e+00
      0.115     -0.064     4.9591     62.999     44.716  46.062439     2.7755      7.894   265.3990 3.0954e+02     4.4231      0.121      0.175    26.4912 0.0000e+00
      0.094     -0.075     4.9623     64.069     44.840  46.189459     2.7611      7.851   264.7548 4.0205e+02     4.5531      0.100      0.145    26.4937 0.0000e+00
      0.051     -0.080     4.9675     65.017     45.409  46.774594     2.7408      7.806   264.2205 4.7915e+02     4.7065      0.053      0.076    26.4949 0.0000e+00
      0.006     -0.075     4.9884     65.549     45.916  47.296840     2.7302      7.766   263.9286 5.4875e+02     4.7411     -0.003     -0.005    26.4968 0.0000e+00
     -0.020     -0.060     5.0529     65.625     45.609  46.980840     2.7251      7.734   263.7201 6.1301e+02     4.6985     -0.030     -0.043    26.4997 0.0000e+00
     -0.021     -0.037     5.1563     65.355     44.842  46.191471     2.7369      7.710   263.4206 6.1637e+02     4.6349     -0.023     -0.033    26.4988 0.0000e+00
     -0.011     -0.013     5.2404     64.946     44.413  45.751477     2.7729      7.690   263.1476 6.1422e+02     4.5522     -0.009     -0.013    26.4965 0.0000e+00
     -0.005      0.003     5.2829     64.544     44.262  45.596815     2.7943      7.669   262.9140 6.4205e+02     4.5191     -0.003     -0.004    26.4969 0.0000e+00
     -0.003      0.008     5.2865     64.111     44.133  45.464101     2.7963      7.646   262.5753 5.7138e+02     4.5084     -0.002     -0.003    26.4975 0.0000e+00
     -0.003      0.004     5.2576     63.584     44.026  45.352951     2.7882      7.626   262.2360 4.7784e+02     4.4564     -0.003     -0.006    26.4987 0.0000e+00
     -0.003     -0.002     5.2186     63.061     43.946  45.268575     2.7795      7.611   261.9949 4.9239e+02     4.4364     -0.004     -0.005    26.5010 0.0000e+00
     -0.003     -0.003     5.1894     62.795     43.948  45.269140     2.7830      7.599   261.6392 5.4206e+02     4.4720     -0.001     -0.002    26.5016 0.0000e+00
     -0.006      0.002     5.1580     63.039     43.975  45.296299     2.7880      7.584   261.2042 5.6849e+02     4.4771     -0.004     -0.007    26.5015 0.0000e+00
     -0.011      0.014     5.1124     63.756     43.960  45.279550     2.7825      7.560   260.9515 5.5458e+02     4.4299     -0.013     -0.017    26.5005 0.0000e+00
     -0.012      0.029     5.0631     64.535     43.939  45.257062     2.7668      7.534   260.8210 5.2648e+02     4.4479     -0.015     -0.021    26.4982 0.0000e+00
     -0.006      0.048     5.0319     64.955     43.897  45.214834     2.7560      7.511   260.6583 5.2068e+02     4.5578     -0.010     -0.016    26.4967 0.0000e+00
      0.012      0.069     5.0515     64.990     43.834  45.149846     2.7519      7.493   260.6198 4.9201e+02     4.6655      0.008      0.011    26.4952 0.0000e+00
      0.040      0.088     5.1241     64.915     43.793  45.106080     2.7592      7.480   260.6986 4.1717e+02     4.7258      0.040      0.058    26.4937 0.0000e+00
      0.067      0.102     5.2022     64.800     43.755  45.066534     2.7853      7.468   260.6652 3.1548e+02     4.7062      0.067      0.097    26.4937 0.0000e+00
      0.095      0.107     5.2362     64.433     43.742  45.052554     2.8096      7.458   260.6467 2.3538e+02     4.6670      0.091      0.132    26.4946 0.0000e+00
      0.127      0.107     5.2256     63.765     43.754  45.064006     2.8205      7.451   260.8191 1.9878e+02     4.6620      0.123      0.179    26.4944 0.0000e+00
      0.158      0.106     5.2171     63.093     43.768  45.078048     2.8253      7.444   261.2007 1.7680e+02     4.6805      0.159      0.230    26.4936 0.0000e+00
      0.183      0.106     5.2190     62.740     44.032  45.349284     2.8176      7.436   261.7326 1.6409e+02     4.6854      0.183      0.265    26.4930 0.0000e+00
      0.202      0.104     5.1919     62.649     44.598  45.931273     2.7931      7.428   262.0024 1.5927e+02     4.5841      0.196      0.284    26.4921 0.0000e+00
      0.227      0.095     5.1280     62.485     44.869  46.211199     2.7710      7.420   261.9671 1.5452e+02     4.4463      0.218      0.317    26.4908 0.0000e+00
      0.260      0.081     5.0600     62.025     44.542  45.877258     2.7672      7.415   261.9942 1.4614e+02     4.3863      0.255      0.370    26.4896 0.0000e+00
      0.291      0.067     5.0355     61.429     44.059  45.385051     2.7888      7.412   262.0722 1.3785e+02     4.4050      0.291      0.422    26.4891 0.0000e+00
      0.308      0.054     5.0403     61.058     43.826  45.147919     2.8233      7.408   262.2222 1.3308e+02     4.4666      0.309      0.448    26.4887 0.0000e+00
      0.310      0.043     5.0358     61.035     43.970  45.295358     2.8350      7.402   262.5168 1.2888e+02     4.4477      0.306      0.443    26.4877 0.0000e+00
      0.306      0.037     4.9930     61.080     44.435  45.771164     2.8227      7.393   262.7083 1.2268e+02     4.3819      0.296      0.430    26.4919 0.0000e+00
      0.307      0.036     4.9292     60.762     44.795  46.139882     2.8153      7.385   262.7323 1.1722e+02     4.3885      0.297      0.430    26.5006 0.0000e+00
      0.320      0.041     4.8960     60.029     44.793  46.135142     2.8289      7.380   262.8057 1.1365e+02     4.4600      0.310      0.451    26.5033 0.0000e+00
      0.341      0.048     4.9017     59.149     44.693  46.031261     2.8463      7.376   262.9932 1.1118e+02     4.5285      0.335      0.487    26.5011 0.0000e+00
      0.360      0.052     4.9253     58.284     44.750  46.090002     2.8420      7.372   263.2782 1.0975e+02     4.4994      0.357      0.517    26.4984 0.0000e+00
      0.372      0.049     4.8994     57.438     44.990  46.337526     2.8524      7.368   263.4131 1.0905e+02     4.4157      0.365      0.529    26.4947 0.0000e+00
      0.382      0.040     4.8287     56.626     45.256  46.611754     2.8966      7.366   263.2472 1.0813e+02     4.3709      0.374      0.542    26.4910 0.0000e+00
      0.392      0.029     4.7543     55.975     45.317  46.675943     2.9347      7.363   263.0790 1.0638e+02     4.4017      0.386      0.560    26.4900 0.0000e+00
      0.400      0.019     4.6855     55.566     45.125  46.478798     2.9557      7.360   263.0143 1.0365e+02     4.4803      0.394      0.572    26.4909 0.0000e+00
      0.403      0.013     4.6194     55.432     44.788  46.132564     2.9591      7.359   262.9817 1.0089e+02     4.5011      0.397      0.577    26.4916 0.0000e+00
      0.402      0.010     4.5469     55.582     44.639  45.981137     2.9344      7.357   263.0292 9.9688e+01     4.4489      0.395      0.573    26.4921 0.0000e+00
      0.399      0.010     4.4937     55.910     44.945  46.298419     2.8979      7.352   263.0721 9.9571e+01     4.3957      0.389      0.565    26.4927 0.0000e+00
      0.399      0.011     4.4602     56.217     45.363  46.731237     2.8844      7.348   262.9836 9.9981e+01     4.4046      0.388      0.563    26.4935 0.0000e+00
      0.405      0.014     4.4473     56.319     45.457  46.834049     2.8959      7.345   262.9057 1.0077e+02     4.4539      0.395      0.572    26.4959 0.0000e+00
      0.415      0.019     4.4632     56.183     45.453  46.843211     2.9042      7.337   262.9913 1.0096e+02     4.4444      0.408      0.592    26.4982 0.0000e+00
      0.422      0.025     4.4947     55.863     45.744  47.159444     2.9014      7.327   263.0717 1.0093e+02     4.3924      0.418      0.607    26.5001 0.0000e+00
      0.422      0.027     4.5269     55.404     46.166  47.610371     2.8957      7.322   262.9322 9.9704e+01     4.3714      0.412      0.598    26.5010 0.0000e+00
      0.426      0.025     4.5343     54.848     46.384  47.851415     2.8931      7.322   262.6803 9.6906e+01     4.3961      0.413      0.599    26.5038 0.0000e+00
      0.438      0.022     4.5194     54.230     46.363  47.851914     2.9035      7.323   262.5211 9.4411e+01     4.4514      0.431      0.625    26.5211 0.0000e+00
      0.450      0.021     4.4917     53.645     46.294  47.806893     2.9132      7.322   262.5561 9.2719e+01     4.4936      0.445      0.645    26.5434 0.0000e+00
      0.455      0.020     4.4514     53.278     46.282  47.815006     2.9097      7.322   262.5881 9.2283e+01     4.4960      0.448      0.650    26.5577 0.0000e+00
      0.454      0.018     4.4058     53.258     46.278  47.823066     2.9031      7.323   262.5630 9.3285e+01     4.4470      0.444      0.644    26.5720 0.0000e+00
      0.454      0.015     4.3520     53.531     46.228  47.777397     2.8846      7.326   262.6829 9.4269e+01     4.4130      0.442      0.642    26.5978 0.0000e+00
      0.459      0.015     4.2961     53.959     46.036  47.580261     2.8603      7.327   262.7467 9.4452e+01     4.4612      0.450      0.653    26.6305 0.0000e+00
      0.465      0.020     4.2596     54.449     45.747  47.280596     2.8500      7.323   262.7325 9.4722e+01     4.5169      0.457      0.662    26.6533 0.0000e+00
      0.469      0.030     4.2603     54.998     45.553  47.074487     2.8427      7.318   262.7703 9.4699e+01     4.5398      0.459      0.667    26.6649 0.0000e+00
      0.473      0.040     4.2862     55.570     45.480  46.992755     2.8305      7.313   262.7726 9.3602e+01     4.4998      0.462      0.670    26.6704 0.0000e+00
      0.483      0.049     4.3236     55.993     45.483  46.990686     2.8272      7.310   262.6743 9.1829e+01     4.4425      0.468      0.680    26.6722 0.0000e+00
      0.499      0.057     4.3620     56.109     45.483  46.985978     2.8369      7.307   262.5292 8.9987e+01     4.4620      0.487      0.708    26.6712 0.0000e+00
      0.520      0.066     4.4057     55.891     45.440  46.935828     2.8476      7.305   262.5660 8.8299e+01     4.4973      0.511      0.741    26.6643 0.0000e+00
      0.540      0.072     4.4595     55.401     45.467  46.955676     2.8485      7.303   262.7760 8.6524e+01     4.4929      0.530      0.769    26.6564 0.0000e+00
      0.557      0.074     4.4987     54.712     45.552  47.035490     2.8398      7.302   262.9164 8.4754e+01     4.4425      0.547      0.792    26.6504 0.0000e+00
      0.575      0.074     4.5087     53.891     45.595  47.075548     2.8339      7.303   262.9732 8.2801e+01     4.4354      0.561      0.815    26.6455 0.0000e+00
      0.596      0.072     4.4891     53.018     45.642  47.122587     2.8354      7.303   262.9458 8.0892e+01     4.4747      0.584      0.848    26.6406 0.0000e+00
      0.617      0.069     4.4486     52.169     45.679  47.159841     2.8419      7.305   262.8441 7.9648e+01     4.4738      0.607      0.880    26.6298 0.0000e+00
      0.634      0.065     4.3929     51.408     45.604  47.081589     2.8622      7.307   262.8619 7.8573e+01     4.4586      0.623      0.902    26.6195 0.0000e+00
      0.649      0.062     4.3242     50.751     45.527  47.001742     2.8886      7.309   262.9026 7.7439e+01     4.4274      0.637      0.924    26.6167 0.0000e+00
      0.663      0.058     4.2529     50.206     45.547  47.019707     2.8950      7.310   262.9057 7.6683e+01     4.4381      0.652      0.945    26.6159 0.0000e+00
      0.675      0.055     4.1820     49.758     45.575  47.044864     2.8898      7.311   262.8999 7.6034e+01     4.4851      0.661      0.960    26.6140 0.0000e+00
      0.689      0.054     4.1217     49.351     45.523  46.988491     2.8920      7.312   262.8334 7.5079e+01     4.4837      0.673      0.978    26.6139 0.0000e+00
      0.704      0.054     4.0685     48.992     45.388  46.845968     2.8967      7.312   262.7885 7.4016e+01     4.4555      0.692      1.004    26.6134 0.0000e+00
      0.719      0.057     4.0244     48.714     45.329  46.781748     2.8968      7.311   262.7018 7.3218e+01     4.4178      0.706      1.025    26.6096 0.0000e+00
      0.730      0.061     3.9926     48.500     45.334  46.783358     2.8938      7.306   262.7315 7.2428e+01     4.4028      0.716      1.037    26.6058 0.0000e+00
      0.743      0.065     3.9586     48.323     45.355  46.801947     2.8773      7.298   262.8901 7.1162e+01     4.4112      0.725      1.052    26.6030 0.0000e+00
      0.762      0.067     3.9284     48.173     45.496  46.943007     2.8551      7.288   262.8980 6.9783e+01     4.4166      0.746      1.082    26.6005 0.0000e+00
      0.783      0.068     3.9074     48.019     45.646  47.092261     2.8504      7.280   262.8268 6.8599e+01     4.4339      0.770      1.115    26.5960 0.0000e+00
      0.802      0.067     3.8920     47.820     45.641  47.082954     2.8444      7.277   262.8036 6.7298e+01     4.4497      0.786      1.141    26.5915 0.0000e+00
      0.821      0.066     3.8773     47.571     45.461  46.893948     2.8493      7.277   262.8764 6.6004e+01     4.4715      0.807      1.170    26.5891 0.0000e+00
      0.837      0.066     3.8666     47.293     45.225  46.648027     2.8759      7.277   263.1047 6.4984e+01     4.4582      0.823      1.194    26.5842 0.0000e+00
      0.848      0.068     3.8566     47.058     45.045  46.458418     2.8915      7.275   263.4129 6.4207e+01     4.4250      0.832      1.207    26.5782 0.0000e+00
      0.861      0.072     3.8406     46.946     45.034  46.442385     2.8966      7.270   263.5045 6.3467e+01     4.4806      0.843      1.222    26.5730 0.0000e+00
      0.881      0.074     3.8206     46.927     45.294  46.708086     2.8963      7.259   263.2663 6.2568e+01     4.4808      0.861      1.248    26.5689 0.0000e+00
      0.906      0.072     3.7968     46.903     45.643  47.068196     2.9049      7.250   262.9421 6.1719e+01     4.3594      0.889      1.288    26.5665 0.0000e+00
      0.932      0.067     3.7740     46.823     45.811  47.241373     2.9257      7.250   262.7678 6.0937e+01     4.2773      0.915      1.327    26.5630 0.0000e+00
      0.952      0.058     3.7670     46.675     45.726  47.151365     2.9392      7.260   262.7928 6.0150e+01     4.3078      0.937      1.359    26.5575 0.0000e+00
      0.964      0.049     3.7699     46.462     45.514  46.932178     2.9508      7.272   262.9872 5.9543e+01     4.4196      0.950      1.378    26.5536 0.0000e+00
      0.968      0.041     3.7683     46.213     45.337  46.749660     2.9497      7.279   263.1395 5.9186e+01     4.4686      0.951      1.379    26.5541 0.0000e+00
      0.970      0.038     3.7624     45.965     45.187  46.595120     2.9345      7.283   263.0859 5.8881e+01     4.4220      0.950      1.377    26.5546 0.0000e+00
      0.977      0.040     3.7507     45.730     45.056  46.460270     2.9344      7.287   263.1126 5.8363e+01     4.3684      0.955      1.386    26.5515 0.0000e+00
      0.990      0.046     3.7330     45.529     45.050  46.452338     2.9482      7.289   263.2901 5.7758e+01     4.3668      0.971      1.408    26.5506 0.0000e+00
      1.005      0.052     3.7109     45.392     45.158  46.562691     2.9596      7.288   263.4256 5.7233e+01     4.4378      0.986      1.430    26.5516 0.0000e+00
      1.020      0.056     3.6918     45.284     45.305  46.715346     2.9555      7.286   263.5464 5.6620e+01     4.4745      0.998      1.449    26.5515 0.0000e+00
      1.039      0.055     3.6722     45.133     45.424  46.837961     2.9397      7.286   263.4601 5.6001e+01     4.4355      1.020      1.479    26.5519 0.0000e+00
      1.056      0.050     3.6543     44.940     45.364  46.775558     2.9441      7.291   263.1568 5.5556e+01     4.4103      1.038      1.506    26.5502 0.0000e+00
      1.068      0.048     3.6448     44.762     45.067  46.468702     2.9666      7.298   263.1483 5.5230e+01     4.4093      1.048      1.520    26.5479 0.0000e+00
      1.076      0.048     3.6389     44.625     44.723  46.111463     2.9787      7.305   263.5294 5.5009e+01     4.4227      1.056      1.531    26.5489 0.0000e+00
      1.082      0.050     3.6272     44.613     44.569  45.947701     2.9746      7.306   263.8927 5.4767e+01     4.4352      1.061      1.538    26.5503 0.0000e+00
      1.091      0.054     3.6077     44.797     44.638  46.012213     2.9665      7.302   264.0139 5.4407e+01     4.4246      1.067      1.548    26.5499 0.0000e+00
      1.107      0.058     3.5954     45.096     44.693  46.066218     2.9553      7.299   264.0480 5.4045e+01     4.4310      1.084      1.572    26.5498 0.0000e+00
      1.130      0.061     3.5811     45.381     44.538  45.902373     2.9483      7.300   264.1334 5.3736e+01     4.4778      1.108      1.609    26.5479 0.0000e+00
      1.150      0.065     3.5766     45.611     44.329  45.681659     2.9647      7.303   264.3569 5.3542e+01     4.5127      1.131      1.641    26.5396 0.0000e+00
      1.165      0.067     3.5960     45.814     44.214  45.555908     2.9868      7.306   264.6862 5.3476e+01     4.5107      1.145      1.660    26.5321 0.0000e+00
      1.177      0.067     3.6241     45.975     44.131  45.461069     3.0328      7.308   265.0177 5.3437e+01     4.4880      1.153      1.671    26.5291 0.0000e+00
      1.191      0.067     3.6494     46.092     44.045  45.360185     3.1133      7.308   265.5253 5.3410e+01     4.4436      1.166      1.692    26.5265 0.0000e+00
      1.211      0.068     3.6646     46.197     44.055  45.351767     3.1692      7.303   265.9202 5.3393e+01     4.4525      1.188      1.723    26.5212 0.0000e+00
      1.232      0.069     3.6839     46.281     44.086  45.359256     3.1932      7.296   266.0067 5.3418e+01     4.4928      1.208      1.753    26.5120 0.0000e+00
      1.252      0.070     3.6977     46.366     43.900  45.133298     3.2034      7.290   266.3125 5.3558e+01     4.4523      1.227      1.781    26.5015 0.0000e+00
      1.270      0.072     3.7056     46.577     43.685  44.841420     3.2759      7.283   266.7786 5.3760e+01     4.3725      1.246      1.807    26.4884 0.0000e+00
      1.285      0.074     3.7169     47.080     43.725  44.750056     3.4281      7.278   266.9962 5.3953e+01     4.3485      1.262      1.831    26.4698 0.0000e+00
      1.300      0.074     3.7257     47.842     44.058  44.917098     3.5287      7.273   267.0512 5.4139e+01     4.4008      1.272      1.846    26.4362 0.0000e+00
      1.319      0.072     3.7306     48.624     44.644  45.337375     3.5859      7.267   267.0989 5.4254e+01     4.4583      1.290      1.871    26.4143 0.0000e+00
      1.344      0.067     3.7444     49.174     45.222  45.768704     3.9199      7.264   267.4007 5.4218e+01     4.3265      1.320      1.914    26.3487 0.0000e+00
      1.367      0.059     3.7976     49.374     45.518  45.942407     4.5043      7.269   267.9467 5.4160e+01     4.0028      1.343      1.948    26.1804 0.0000e+00
      1.384      0.049     3.8827     49.251     45.509  45.850414     4.8091      7.280   268.3658 5.4304e+01     3.7892      1.360      1.973    25.9721 0.0000e+00
      1.392      0.039     3.9693     48.897     45.352  45.671970     4.8413      7.290   268.5969 5.4716e+01     3.7597      1.368      1.984    25.7589 0.0000e+00
      1.394      0.031     4.0302     48.405     45.149  45.498797     4.8943      7.296   268.8475 5.5158e+01     3.7831      1.367      1.981    25.5904 0.0000e+00
      1.395      0.028     4.0553     47.863     44.886  45.280161     4.9587      7.302   269.5039 5.5385e+01     3.7981      1.365      1.979    25.4474 0.0000e+00
      1.401      0.031     4.0504     47.390     44.643  45.059865     4.9787      7.307   270.3379 5.5394e+01     3.7715      1.372      1.989    25.3385 0.0000e+00
      1.411      0.038     4.0194     47.127     44.458  44.866560     4.9698      7.313   270.6710 5.5287e+01     3.6999      1.383      2.007    25.3262 0.0000e+00
      1.422      0.048     3.9734     47.145     44.233  44.593344     5.0505      7.319   270.7790 5.5186e+01     3.6152      1.393      2.022    25.3747 0.0000e+00
      1.436      0.061     3.9207     47.477     43.808  44.041533     5.2230      7.324   271.2988 5.5076e+01     3.5669      1.407      2.041    25.4470 0.0000e+00
      1.451      0.077     3.8745     48.248     43.548  43.526378     5.3244      7.329   271.8806 5.4855e+01     3.5603      1.423      2.064    25.4745 0.0000e+00
      1.468      0.093     3.8523     49.575     44.143  43.759588     5.3350      7.330   272.0490 5.4430e+01     3.5358      1.438      2.087    25.4634 0.0000e+00
      1.490      0.103     3.8566     51.236     45.287  44.512151     5.4266      7.330   272.1296 5.3727e+01     3.3728      1.456      2.113    25.4296 0.0000e+00
      1.524      0.106     3.8882     52.774     46.076  44.944493     5.6324      7.331   272.4245 5.2660e+01     3.1609      1.488      2.159    25.3180 0.0000e+00
      1.566      0.104     3.9652     53.959     46.196  44.797057     5.7591      7.334   272.6898 5.1528e+01     3.0918      1.540      2.235    25.0239 0.0000e+00
      1.601      0.099     4.1167     54.864     45.857  44.316066     5.7772      7.337   272.8416 5.0871e+01     3.0833      1.578      2.290    24.5607 0.0000e+00
      1.620      0.091     4.3088     55.695     45.485  43.889399     5.7755      7.338   273.0557 5.0634e+01     3.0238      1.590      2.306    24.1301 0.0000e+00
      1.630      0.079     4.4756     56.580     45.463  43.827584     5.7465      7.336   273.2133 5.0448e+01     2.9195      1.597      2.317    23.7427 0.0000e+00
      1.644      0.068     4.6000     57.446     45.684  44.012940     5.7187      7.332   273.2849 5.0113e+01     2.8805      1.610      2.336    23.4267 0.0000e+00
      1.664      0.062     4.6823     58.146     45.629  43.972327     5.7226      7.331   273.3184 4.9730e+01     2.9289      1.631      2.366    23.2795 0.0000e+00
      1.685      0.062     4.7515     58.658     45.133  43.526966     5.7273      7.335   273.6192 4.9507e+01     2.9586      1.654      2.398    23.2365 0.0000e+00
      1.701      0.066     4.8346     59.081     44.628  43.007888     5.7255      7.339   274.3398 4.9450e+01     2.9659      1.670      2.422    23.1974 0.0000e+00
      1.713      0.070     4.9194     59.448     44.472  42.710528     5.7333      7.341   274.9768 4.9430e+01     2.9829      1.680      2.436    23.1447 0.0000e+00
      1.725      0.072     4.9788     59.679     44.765  42.787634     5.7463      7.341   275.3840 4.9222e+01     3.0269      1.688      2.449    23.1605 0.0000e+00
      1.745      0.074     5.0091     59.656     45.265  43.114723     5.7418      7.339   275.5633 4.8723e+01     3.0886      1.709      2.478    23.2482 0.0000e+00
      1.770      0.075     5.0453     59.295     45.303  43.110687     5.5629      7.339   275.5962 4.8121e+01     3.1143      1.736      2.518    23.2343 0.0000e+00
      1.795      0.075     5.0985     58.648     44.784  42.611829     5.2234      7.340   275.7823 4.7722e+01     3.0642      1.762      2.555    23.0423 0.0000e+00
      1.815      0.074     5.1494     57.920     43.594  41.399171     5.0322      7.341   276.0073 4.7507e+01     2.9952      1.783      2.586    22.7618 0.0000e+00
      1.829      0.070     5.1705     57.297     41.770  39.364674     5.0151      7.341   276.1656 4.7179e+01     2.9968      1.794      2.602    22.5608 0.0000e+00
      1.842      0.067     5.1392     56.750     40.717  37.622670     4.9416      7.342   276.3190 4.6624e+01     3.1180      1.805      2.616    22.5566 0.0000e+00
      1.859      0.067     5.0689     55.515     40.964  36.771893     4.7849      7.343   276.4858 4.5940e+01     3.2990      1.823      2.644    22.6123 0.0000e+00
      1.877      0.069     5.0083     51.838     41.578  36.437277     4.6932      7.342   276.7189 4.5403e+01     3.3410      1.843      2.673    22.5279 0.0000e+00
      1.894      0.074     4.9714     44.478     41.963  36.304137     4.6741      7.339   276.9864 4.4911e+01     3.2504      1.857      2.693    22.3303 0.0000e+00
      1.913      0.078     5.0252     34.258     42.148  36.240212     4.6452      7.337   277.2244 4.4139e+01     3.2279      1.875      2.719    21.4190 0.0000e+00
      1.935      0.079     5.1537     23.176     42.360  36.298619     4.6092      7.334   277.4464 4.3321e+01     3.2735      1.897      2.751    19.7395 0.0000e+00
      1.957      0.079     4.9894     12.756     42.720  36.502559     4.5897      7.329   277.6919 4.2547e+01     3.3231      1.920      2.785    18.5986 0.0000e+00
      1.978      0.077     4.2989      3.923     43.195  36.738899     4.5762      7.325   277.8692 4.1667e+01     3.3496      1.940      2.814    18.1722 0.0000e+00
      1.998      0.073     3.2649     -2.580     43.627  36.871660     4.5707      7.322   277.8687 4.0890e+01     3.3554      1.960      2.843    17.9551 0.0000e+00
      2.018      0.068     2.1741     -6.350     44.062  37.028758     4.7144      7.322   277.8592 4.0289e+01     3.4279      1.980      2.872    17.8233 0.0000e+00
      2.034      0.064     1.1638     -7.428     44.726  37.432443     4.9901      7.319   278.0124 3.9757e+01     3.5419      1.996      2.895    17.7541 0.0000e+00
      2.047      0.062     0.2922     -6.456     45.632  38.071973     5.1323      7.314   278.1723 3.9212e+01     3.5732      2.008      2.912    17.5713 0.0000e+00
      2.060      0.062    -0.3406     -4.511     46.701  38.859625     5.1268      7.312   278.2428 3.8617e+01     3.4985      2.020      2.930    17.2278 0.0000e+00
      2.075      0.063    -0.7095     -2.457     47.791  39.657936     5.0907      7.313   278.3488 3.7960e+01     3.4928      2.034      2.950    16.9916 0.0000e+00
      2.092      0.065    -0.7947     -0.697     48.632  40.235702     5.0541      7.316   278.4214 3.7188e+01     3.6411      2.051      2.974    16.8316 0.0000e+00
      2.110      0.066    -0.6564      0.652     49.190  40.577745     5.0415      7.320   278.3459 3.6328e+01     3.7545      2.070      3.001    16.7046 0.0000e+00
      2.130      0.065    -0.4388      1.604     49.593  40.810535     5.0298      7.322   278.2109 3.5448e+01     3.7360      2.088      3.028    16.6067 0.0000e+00
      2.149      0.063    -0.2280      2.259     49.779  40.892376     5.0127      7.325   278.0800 3.4684e+01     3.7254      2.108      3.058    16.4934 0.0000e+00
      2.164      0.061    -0.0538      2.729     49.821  40.869070     5.0097      7.325   278.0540 3.4080e+01     3.7968      2.123      3.080    16.3657 0.0000e+00
      2.176      0.058     0.0791      3.099     49.936  40.909469     5.0179      7.322   278.1541 3.3520e+01     3.8826      2.133      3.094    16.2335 0.0000e+00
      2.188      0.054     0.1671      3.379     50.106  40.999966     5.0455      7.317   278.2585 3.2893e+01     3.9428      2.145      3.111    16.1301 0.0000e+00
      2.203      0.049     0.2295      3.529     50.240  41.074674     5.2266      7.312   278.2832 3.2174e+01     3.9439      2.159      3.131    16.0662 0.0000e+00
      2.219      0.044     0.2716      3.580     50.386  41.178030     5.5432      7.310   278.1083 3.1567e+01     3.8964      2.178      3.158    16.0137 0.0000e+00
      2.231      0.042     0.3085      3.579     50.686  41.424542     5.7192      7.310   277.7788 3.1277e+01     3.8804      2.192      3.178    15.9559 0.0000e+00
      2.237      0.043     0.3402      3.547     51.183  41.833835     5.7730      7.311   277.4829 3.1128e+01     3.9208      2.194      3.183    15.9050 0.0000e+00
      2.242      0.045     0.3525      3.502     51.806  42.318608     6.0941      7.311   277.2843 3.0814e+01     4.0097      2.197      3.187    15.8676 0.0000e+00
      2.250      0.049     0.3559      3.458     52.531  42.842911     6.6469      7.311   277.1839 3.0194e+01     4.1013      2.204      3.197    15.8519 0.0000e+00
      2.265      0.055     0.3556      3.414     53.258  43.349170     6.9304      7.311   277.1301 2.9368e+01     4.1398      2.221      3.221    15.8571 0.0000e+00
      2.284      0.061     0.3513      3.356     53.843  43.742579     6.9424      7.311   277.0633 2.8518e+01     4.1683      2.241      3.250    15.8726 0.0000e+00
      2.303      0.063     0.3465      3.297     54.299  44.044883     6.9333      7.311   276.9793 2.7685e+01     4.2059      2.259      3.276    15.8599 0.0000e+00
      2.322      0.063     0.3425      3.271     54.804  44.401689     6.9275      7.311   276.8886 2.6929e+01     4.2191      2.277      3.303    15.7812 0.0000e+00
      2.338      0.062     0.3399      3.256     55.453  44.882744     6.9224      7.308   276.7406 2.6350e+01     4.1918      2.295      3.329    15.6906 0.0000e+00
      2.352      0.060     0.3346      3.216     56.017  45.290746     6.9139      7.298   276.1365 2.5902e+01     4.1488      2.308      3.348    15.6139 0.0000e+00
      2.363      0.059     0.3264      3.157     56.302  45.462478     6.9323      7.284   274.4886 2.5417e+01     4.1433      2.317      3.360    15.5476 0.0000e+00
      2.377      0.057     0.3257      3.097     56.501  45.562498     7.2701      7.273   271.9595 2.4781e+01     4.2273      2.329      3.378    15.5035 0.0000e+00
      2.395      0.055     0.3269      3.061     56.784  45.738217     7.9021      7.267   269.3045 2.4077e+01     4.3778      2.348      3.406    15.4671 0.0000e+00
      2.412      0.054     0.3214      3.054     57.164  45.999971     8.2477      7.262   266.6499 2.3529e+01     4.4609      2.369      3.435    15.4265 0.0000e+00
      2.426      0.053     0.3159      3.020     57.767  46.441913     8.2854      7.259   263.3511 2.3179e+01     4.4462      2.380      3.452    15.3710 0.0000e+00
      2.436      0.052     0.3097      2.958     58.613  47.082150     8.3668      7.259   259.1884 2.2838e+01     4.4735      2.388      3.463    15.3118 0.0000e+00
      2.447      0.051     0.3041      2.909     59.520  47.773323     8.5166      7.259   254.0040 2.2452e+01     4.6202      2.400      3.481    15.2683 0.0000e+00
      2.459      0.052     0.3084      2.866     60.332  48.386534     8.6061      7.258   247.5589 2.2044e+01     4.7508      2.411      3.497    15.2317 0.0000e+00
      2.473      0.054     0.3048      2.820     60.961  48.845820     8.5748      7.256   241.5741 2.1589e+01     4.7898      2.424      3.515    15.1932 0.0000e+00
      2.488      0.058     0.2955      2.783     61.388  49.136051     8.0301      7.255   237.6536 2.1122e+01     5.0232      2.440      3.539    15.1593 0.0000e+00
      2.503      0.061     0.2926      2.760     61.655  49.292442     7.0314      7.251   234.6582 2.0642e+01     5.4880      2.455      3.561    15.1299 0.0000e+00
      2.519      0.062     0.2888      2.730     61.867  49.403303     6.4954      7.246   230.4812 2.0123e+01     5.7985      2.470      3.583    15.0984 0.0000e+00
      2.536      0.062     0.2836      2.687     62.090  49.523994     6.4432      7.241   224.5767 1.9578e+01     5.9086      2.486      3.606    15.0619 0.0000e+00
      2.554      0.063     0.2795      2.646     62.269  49.608747     6.1843      7.236   217.3861 1.9064e+01     6.0001      2.505      3.633    15.0191 0.0000e+00
      2.570      0.064     0.2790      2.614     62.352  49.602554     5.6787      7.227   209.6177 1.8693e+01     6.0844      2.522      3.657    14.9718 0.0000e+00
      2.583      0.065     0.2764      2.585     62.353  49.512514     5.3818      7.218   202.9236 1.8353e+01     6.1073      2.532      3.672    14.9226 0.0000e+00
      2.598      0.063     0.2714      2.554     62.342  49.408895     5.3330      7.210   197.1919 1.7827e+01     6.1064      2.545      3.691    14.8761 0.0000e+00
      2.618      0.059     0.2672      2.524     62.309  49.302010     5.1640      7.205   191.1647 1.7227e+01     6.0738      2.567      3.724    14.8346 0.0000e+00
      2.637      0.056     0.2648      2.513     62.154  49.108999     4.8440      7.203   185.3727 1.6781e+01     5.9860      2.589      3.756    14.7801 0.0000e+00
      2.651      0.054     0.2625      2.521     61.840  48.789445     4.6610      7.200   180.5061 1.6529e+01     5.8991      2.602      3.774    14.7011 0.0000e+00
      2.660      0.052     0.2599      2.526     61.476  48.422368     4.6236      7.198   176.2896 1.6353e+01     5.8422      2.609      3.784    14.6186 0.0000e+00
      2.669      0.052     0.2561      2.521     61.166  48.099145     4.5841      7.196   172.5922 1.6118e+01     5.8116      2.616      3.796    14.5546 0.0000e+00
      2.682      0.053     0.2550      2.511     60.959  47.865337     4.4069      7.192   169.4422 1.5801e+01     5.8022      2.628      3.813    14.5036 0.0000e+00
      2.697      0.055     0.2577      2.495     60.910  47.753980     4.0959      7.186   166.9409 1.5441e+01     5.8310      2.644      3.835    14.4481 0.0000e+00
      2.713      0.056     0.2586      2.474     60.945  47.704991     3.9207      7.181   165.1496 1.5072e+01     5.8525      2.661      3.859    14.3788 0.0000e+00
      2.731      0.056     0.2583      2.463     60.960  47.653864     3.9028      7.178   163.5292 1.4727e+01     5.8220      2.678      3.884    14.3108 0.0000e+00
      2.747      0.054     0.2571      2.448     61.091  47.707124     4.0208      7.177   161.2873 1.4441e+01     5.7365      2.695      3.908    14.2594 0.0000e+00
      2.759      0.052     0.2569      2.440     61.329  47.840994     4.2583      7.175   158.0039 1.4227e+01     5.6729      2.706      3.925    14.2000 0.0000e+00
      2.769      0.051     0.2528      2.451     61.457  47.875650     4.3935      7.172   154.3734 1.4042e+01     5.7018      2.716      3.939    14.1289 0.0000e+00
      2.779      0.049     0.2539      2.446     61.460  47.808631     4.4068      7.168   151.4632 1.3823e+01     5.6762      2.725      3.952    14.0770 0.0000e+00
      2.792      0.048     0.2524      2.417     61.437  47.728970     4.3107      7.166   149.4024 1.3561e+01     5.5677      2.737      3.970    14.0445 0.0000e+00
      2.807      0.046     0.2490      2.376     61.439  47.674278     4.1141      7.164   147.5254 1.3285e+01     5.5509      2.754      3.995    14.0066 0.0000e+00
      2.822      0.044     0.2549      2.333     61.400  47.591708     4.0016      7.161   145.5457 1.3053e+01     5.6102      2.768      4.015    13.9481 0.0000e+00
      2.832      0.042     0.2533      2.328     61.336  47.492423     3.9995      7.159   143.7064 1.2892e+01     5.6362      2.778      4.029    13.8872 0.0000e+00
      2.841      0.040     0.2500      2.345     61.398  47.489580     4.0222      7.157   141.8918 1.2780e+01     5.4555      2.787      4.041    13.8394 0.0000e+00
      2.848      0.040     0.2472      2.348     61.558  47.557277     4.0512      7.154   140.0395 1.2677e+01     5.0990      2.793      4.051    13.7936 0.0000e+00
      2.856      0.043     0.2392      2.345     61.637  47.549022     4.0676      7.150   138.3455 1.2555e+01     4.9123      2.800      4.061    13.7506 0.0000e+00
      2.866      0.048     0.2401      2.345     61.535  47.389697     4.0538      7.145   136.8979 1.2399e+01     4.9061      2.810      4.075    13.7126 0.0000e+00
      2.879      0.053     0.2450      2.340     61.418  47.217984     3.9513      7.141   135.6144 1.2184e+01     4.7504      2.822      4.091    13.6716 0.0000e+00
      2.896      0.057     0.2435      2.319     61.551  47.250417     3.7685      7.138   134.2690 1.1918e+01     4.3959      2.839      4.117    13.6289 0.0000e+00
      2.915      0.060     0.2438      2.284     61.819  47.400840     3.6660      7.137   132.8491 1.1665e+01     4.1732      2.859      4.148    13.5731 0.0000e+00
      2.932      0.060     0.2446      2.257     61.854  47.385999     3.6699      7.134   131.4385 1.1482e+01     4.1413      2.877      4.172    13.5017 0.0000e+00
      2.946      0.060     0.2448      2.249     61.654  47.197897     3.7489      7.132   130.1204 1.1346e+01     4.1124      2.889      4.190    13.4325 0.0000e+00
      2.959      0.058     0.2432      2.252     61.476  47.031101     3.8883      7.128   128.9573 1.1196e+01     4.0624      2.900      4.207    13.3755 0.0000e+00
      2.973      0.053     0.2384      2.252     61.417  46.956428     3.9576      7.123   127.7849 1.0998e+01     3.9811      2.914      4.228    13.3321 0.0000e+00
      2.988      0.048     0.2350      2.237     61.415  46.929868     3.9539      7.120   126.7006 1.0787e+01     3.9154      2.932      4.252    13.2997 0.0000e+00
      3.003      0.043     0.2356      2.220     61.392  46.900398     3.9515      7.118   125.6561 1.0624e+01     3.9516      2.945      4.272    13.2717 0.0000e+00
      3.013      0.039     0.2355      2.217     61.249  46.790546     3.9625      7.116   124.4477 1.0538e+01     4.0086      2.956      4.288    13.2484 0.0000e+00
      3.019      0.037     0.2372      2.204     60.857  46.490458     3.9951      7.114   123.3618 1.0481e+01     4.0240      2.962      4.295    13.2250 0.0000e+00
      3.024      0.036     0.2348      2.164     60.318  46.065415     4.0214      7.113   122.5065 1.0391e+01     4.0349      2.965      4.300    13.1989 0.0000e+00
      3.032      0.038     0.2316      2.127     59.912  45.714379     4.0224      7.112   121.8505 1.0251e+01     4.0381      2.972      4.310    13.1912 0.0000e+00
      3.043      0.041     0.2331      2.129     59.693  45.483704     3.9313      7.110   121.4524 1.0083e+01     4.0283      2.984      4.328    13.1934 0.0000e+00
      3.055      0.045     0.2327      2.146     59.548  45.307712     3.7603      7.108   121.1340 9.9289e+00     4.0193      2.997      4.347    13.1965 0.0000e+00
      3.068      0.049     0.2272      2.144     59.359  45.109959     3.6779      7.106   120.4969 9.7778e+00     4.0322      3.008      4.363    13.1927 0.0000e+00
      3.081      0.052     0.2206      2.128     59.100  44.870092     3.6765      7.104   119.5134 9.6109e+00     4.0476      3.021      4.382    13.1557 0.0000e+00
      3.095      0.056     0.2234      2.116     59.005  44.756222     3.6352      7.103   118.5345 9.4634e+00     4.0001      3.035      4.403    13.0949 0.0000e+00
      3.107      0.061     0.2272      2.114     59.222  44.875760     3.5529      7.101   117.7811 9.3158e+00     3.9366      3.046      4.420    13.0355 0.0000e+00
      3.121      0.065     0.2265      2.112     59.509  45.045766     3.4972      7.097   117.2875 9.1141e+00     3.9284      3.059      4.436    12.9904 0.0000e+00
      3.140      0.066     0.2240      2.108     59.635  45.097729     3.4861      7.094   116.8685 8.8706e+00     3.9353      3.078      4.462    12.9574 0.0000e+00
      3.162      0.065     0.2227      2.103     59.633  45.059628     3.4351      7.092   116.4146 8.6512e+00     3.7125      3.102      4.499    12.9250 0.0000e+00
      3.183      0.062     0.2234      2.083     59.552  44.965929     3.3300      7.090   115.9291 8.4975e+00     3.2157      3.124      4.530    12.8855 0.0000e+00
      3.199      0.057     0.2232      2.056     59.356  44.790035     3.2648      7.089   115.4727 8.3785e+00     2.8820      3.137      4.549    12.8427 0.0000e+00
      3.210      0.050     0.2230      2.053     59.115  44.583358     3.2453      7.088   115.0258 8.2893e+00     2.8201      3.148      4.566    12.8063 0.0000e+00
      3.219      0.044     0.2232      2.065     58.868  44.371378     3.2440      7.087   114.4843 8.2226e+00     2.8766      3.157      4.579    12.7766 0.0000e+00
      3.227      0.040     0.2214      2.056     58.584  44.131323     3.2580      7.086   113.8297 8.1286e+00     2.9855      3.164      4.590    12.7488 0.0000e+00
      3.237      0.038     0.2165      2.029     58.399  43.966061     3.2639      7.083   113.1335 8.0374e+00     3.0432      3.175      4.606    12.7258 0.0000e+00
      3.247      0.035     0.2164      2.001     58.338  43.896651     3.2574      7.080   112.5195 7.9558e+00     3.0272      3.185      4.620    12.7066 0.0000e+00
      3.257      0.033     0.2208      1.991     58.147  43.736400     3.2547      7.079   111.9129 7.8453e+00     2.9629      3.194      4.632    12.6843 0.0000e+00
      3.267      0.033     0.2188      2.000     57.496  43.234518     3.2892      7.079   111.3056 7.7668e+00     2.9504      3.205      4.649    12.6622 0.0000e+00
      3.274      0.033     0.2153      1.990     56.067  42.144726     3.3502      7.079   110.7691 7.7498e+00     3.0119      3.212      4.659    12.6398 0.0000e+00
      3.279      0.036     0.2125      1.964     54.026  40.588392     3.3849      7.080   110.2441 7.7201e+00     3.0573      3.214      4.661    12.6163 0.0000e+00
      3.286      0.042     0.2098      1.958     52.391  39.332122     3.3751      7.082   109.6901 7.6349e+00     3.0556      3.220      4.670    12.6034 0.0000e+00
      3.297      0.049     0.2140      1.962     52.096  39.077185     3.2576      7.082   109.0605 7.5049e+00     2.9905      3.232      4.688    12.5975 0.0000e+00
      3.311      0.057     0.2130      1.968     52.673  39.473331     3.0707      7.080   108.4827 7.3512e+00     2.9191      3.247      4.709    12.5838 0.0000e+00
      3.328      0.063     0.2069      1.978     52.998  39.679486     2.9875      7.079   108.0378 7.1832e+00     2.9106      3.263      4.733    12.5612 0.0000e+00
      3.348      0.067     0.2087      1.977     52.858  39.538947     2.9845      7.079   107.6403 7.0104e+00     2.9214      3.283      4.762    12.5345 0.0000e+00
      3.367      0.067     0.2089      1.972     52.493  39.233710     2.9517      7.079   107.3759 6.8569e+00     2.9133      3.304      4.791    12.5040 0.0000e+00
      3.385      0.065     0.2092      1.975     52.010  38.844674     2.9065      7.080   107.2498 6.7381e+00     2.9487      3.320      4.815    12.4676 0.0000e+00
      3.401      0.062     0.2120      1.962     51.523  38.452425     2.8951      7.081   107.1483 6.6457e+00     3.0420      3.336      4.839    12.4307 0.0000e+00
      3.416      0.058     0.2117      1.942     51.017  38.044822     2.9064      7.081   107.0952 6.5484e+00     3.0512      3.351      4.860    12.3967 0.0000e+00
      3.430      0.056     0.2091      1.933     50.544  37.660440     2.9260      7.081   107.2107 6.4638e+00     2.8892      3.363      4.878    12.3657 0.0000e+00
      3.443      0.054     0.2125      1.908     50.184  37.358520     2.9494      7.081   107.4256 6.4073e+00     2.6887      3.376      4.898    12.3403 0.0000e+00
      3.456      0.054     0.2108      1.890     49.910  37.122952     2.9561      7.081   107.6281 6.3391e+00     2.6425      3.388      4.914    12.3137 0.0000e+00
      3.470      0.053     0.2055      1.881     49.740  36.969678     2.9486      7.081   107.7665 6.2657e+00     2.7064      3.403      4.935    12.2838 0.0000e+00
      3.484      0.051     0.2099      1.863     49.680  36.901293     2.8759      7.080   107.7220 6.1989e+00     2.5730      3.417      4.956    12.2532 0.0000e+00
      3.499      0.047     0.2034      1.854     49.659  36.867198     2.7434      7.080   107.6924 6.1260e+00     2.2590      3.431      4.976    12.2187 0.0000e+00
      3.512      0.045     0.2017      1.838     49.604  36.811232     2.6692      7.080   107.7519 6.0739e+00     2.1207      3.445      4.997    12.1859 0.0000e+00
      3.522      0.044     0.2040      1.837     49.521  36.732236     2.6529      7.082   107.6678 6.0584e+00     2.1315      3.455      5.012    12.1583 0.0000e+00
      3.528      0.045     0.1978      1.886     49.471  36.673495     2.6461      7.084   107.5362 6.0275e+00     2.1159      3.459      5.017    12.1338 0.0000e+00
      3.536      0.047     0.2010      1.960     49.419  36.608617     2.6041      7.084   107.5382 5.9574e+00     2.1370      3.465      5.026    12.1162 0.0000e+00
      3.549      0.052     0.1973      2.056     49.335  36.518859     2.5191      7.085   107.6921 5.8961e+00     2.2499      3.480      5.047    12.1028 0.0000e+00
      3.565      0.060     0.1941      2.268     49.325  36.476563     2.4755      7.086   108.0198 5.8467e+00     2.3535      3.497      5.072    12.0868 0.0000e+00
      3.580      0.066     0.2027      2.706     49.386  36.477908     2.4775      7.087   108.3170 5.7796e+00     2.3998      3.511      5.093    12.0642 0.0000e+00
      3.598      0.069     0.2112      3.414     49.439  36.471622     2.4597      7.087   108.3607 5.6936e+00     2.5016      3.527      5.115    12.0364 0.0000e+00
      3.620      0.066     0.2176      4.388     49.478  36.463953     2.4102      7.086   108.3752 5.5895e+00     2.6286      3.549      5.148    12.0100 0.0000e+00
      3.643      0.060     0.2347      5.609     49.485  36.448598     2.3700      7.086   108.5782 5.5028e+00     2.6365      3.574      5.184    11.9775 0.0000e+00
      3.659      0.054     0.2822      7.091     49.448  36.412852     2.3483      7.088   108.9232 5.4734e+00     2.5970      3.592      5.209    11.9295 0.0000e+00
      3.669      0.049     0.3582      8.791     49.374  36.349012     2.2798      7.090   109.3618 5.4666e+00     2.8336      3.599      5.220    11.8784 0.0000e+00
      3.674      0.047     0.4662     10.554     49.272  36.247782     2.1665      7.092   109.9234 5.4614e+00     3.3119      3.602      5.224    11.8408 0.0000e+00
      3.679      0.048     0.5968     12.222     49.187  36.140658     2.1020      7.094   110.5515 5.4389e+00     3.5296      3.605      5.230    11.8192 0.0000e+00
      3.690      0.052     0.7569     13.681     49.161  36.068985     2.0754      7.094   111.1056 5.3649e+00     3.5527      3.616      5.246    11.8157 0.0000e+00
      3.709      0.057     0.9499     14.956     49.153  36.015658     1.8949      7.094   111.5467 5.2834e+00     4.3765      3.637      5.275    11.8147 0.0000e+00
      3.730      0.061     1.1462     16.310     49.105  35.939998     1.5748      7.093   112.0131 5.2189e+00     5.9409      3.660      5.307    11.7878 0.0000e+00
      3.749      0.063     1.3335     18.037     49.036  35.852127     1.4096      7.093   112.6151 5.1715e+00     6.7892      3.678      5.334    11.7381 0.0000e+00
      3.764      0.061     1.4954     20.319     48.986  35.778043     1.3960      7.092   113.3187 5.1517e+00     6.8444      3.692      5.355    11.6792 0.0000e+00
      3.775      0.057     1.6223     23.267     48.984  35.742187     1.4438      7.091   114.2401 5.1130e+00     7.1208      3.702      5.369    11.6293 0.0000e+00
      3.788      0.053     1.7576     26.853     49.012  35.735819     1.5622      7.090   115.2371 5.0398e+00     7.7055      3.713      5.385    11.5926 0.0000e+00
      3.804      0.050     1.9433     30.926     48.992  35.701016     1.6294      7.092   116.0812 4.9741e+00     8.0386      3.730      5.412    11.5547 0.0000e+00
      3.818      0.048     2.1864     35.193     48.928  35.638616     1.6243      7.094   116.9612 4.9222e+00     8.0749      3.746      5.435    11.5148 0.0000e+00
      3.829      0.044     2.5126     39.225     48.916  35.615845     1.6084      7.091   117.7891 4.8668e+00     8.0416      3.755      5.445    11.4776 0.0000e+00
      3.839      0.037     2.9111     42.696     49.011  35.679483     1.5781      7.085   118.4339 4.8105e+00     7.7381      3.763      5.457    11.4497 0.0000e+00
      3.850      0.029     3.3657     45.470     49.114  35.773533     1.5332      7.080   119.2504 4.7775e+00     7.2056      3.776      5.477    11.4330 0.0000e+00
      3.858      0.022     3.8543     47.577     49.082  35.801244     1.4979      7.079   120.1757 4.7756e+00     6.8978      3.786      5.491    11.4154 0.0000e+00
      3.861      0.018     4.3082     49.184     48.964  35.760789     1.4839      7.080   120.8466 4.7819e+00     6.8183      3.789      5.495    11.4011 0.0000e+00
      3.861      0.014     4.6926     50.342     48.919  35.728610     1.4475      7.082   121.3388 4.7875e+00     6.6886      3.787      5.492    11.3888 0.0000e+00
      3.860      0.010     4.9956     50.923     48.954  35.729431     1.3742      7.082   121.9102 4.7825e+00     6.5598      3.784      5.488    11.3979 0.0000e+00
      3.864      0.009     5.2066     50.947     48.950  35.707232     1.3300      7.083   122.6798 4.7562e+00     6.5583      3.787      5.493    11.4684 0.0000e+00
      3.870      0.010     5.3692     50.619     48.897  35.650540     1.3210      7.084   123.4163 4.7399e+00     6.5682      3.797      5.507    11.5398 0.0000e+00
      3.873      0.014     5.5085     50.119     48.880  35.615019     1.2906      7.087   124.1905 4.7588e+00     6.5424      3.801      5.512    11.5259 0.0000e+00
      3.873      0.020     5.5758     49.520     48.886  35.594974     1.2295      7.091   125.3290 4.7728e+00     6.5539      3.797      5.507    11.4818 0.0000e+00
      3.875      0.029     5.5688     48.835     48.839  35.535052     1.1978      7.093   126.5986 4.7521e+00     6.5700      3.798      5.508    11.4720 0.0000e+00
      3.882      0.041     5.5283     48.149     48.777  35.461546     1.2063      7.092   127.6691 4.7195e+00     6.6007      3.805      5.519    11.4547 0.0000e+00
      3.893      0.052     5.4747     47.676     48.744  35.404146     1.2248      7.089   128.4641 4.6715e+00     6.6185      3.815      5.533    11.4278 0.0000e+00
      3.909      0.061     5.4127     47.656     48.718  35.348595     1.2462      7.087   129.1553 4.5796e+00     6.5797      3.829      5.555    11.4044 0.0000e+00
      3.933      0.065     5.3402     48.283     48.690  35.297452     1.2492      7.086   130.1753 4.4650e+00     6.5413      3.857      5.596    11.3767 0.0000e+00
      3.957      0.065     5.2571     49.584     48.630  35.229892     1.2523      7.088   131.5905 4.3873e+00     6.5643      3.885      5.635    11.3511 0.0000e+00
      3.973      0.064     5.2016     51.459     48.572  35.166214     1.2918      7.091   133.4469 4.3502e+00     6.6186      3.899      5.655    11.3159 0.0000e+00
      3.984      0.061     5.1950     53.799     48.597  35.161995     1.3439      7.093   135.6706 4.3168e+00     6.5840      3.906      5.665    11.2727 0.0000e+00
      3.994      0.056     5.2661     56.424     48.647  35.178865     1.3665      7.092   137.8277 4.2739e+00     6.5214      3.916      5.679    11.2410 0.0000e+00
      4.009      0.053     5.4196     59.183     48.665  35.179806     1.3658      7.089   140.1696 4.2204e+00     6.5793      3.931      5.701    11.2198 0.0000e+00
      4.026      0.052     5.6277     62.000     48.662  35.173367     1.2600      7.087   142.9070 4.1530e+00     6.9077      3.947      5.725    11.1979 0.0000e+00
      4.042      0.052     5.8981     64.707     48.649  35.164466     1.0432      7.088   145.8017 4.0868e+00     7.4177      3.965      5.751    11.1732 0.0000e+00
      4.055      0.053     6.1962     67.106     48.610  35.135627     0.9170      7.091   148.5828 4.0406e+00     7.6897      3.979      5.770    11.1512 0.0000e+00
      4.064      0.055     6.5000     69.110     48.542  35.078481     0.9002      7.093   151.0658 3.9997e+00     7.7721      3.984      5.780    11.1397 0.0000e+00
      4.074      0.059     6.8180     70.693     48.522  35.044551     0.8984      7.093   153.7107 3.9429e+00     7.8667      3.992      5.792    11.1363 0.0000e+00
      4.087      0.064     7.1256     71.877     48.555  35.042603     0.8616      7.093   156.8162 3.8624e+00     8.1160      4.007      5.812    11.1383 0.0000e+00
      4.106      0.069     7.3898     72.766     48.602  35.054898     0.7797      7.094   159.7908 3.7606e+00     8.5666      4.025      5.839    11.1406 0.0000e+00
      4.130      0.074     7.6122     73.480     48.637  35.066296     0.7324      7.095   162.6594 3.6530e+00     8.8404      4.051      5.875    11.1343 0.0000e+00
      4.153      0.076     7.7908     74.095     48.628  35.053501     0.7303      7.096   166.2908 3.5607e+00     8.8985      4.075      5.909    11.1120 0.0000e+00
      4.173      0.075     7.9213     74.684     48.596  35.027082     0.8044      7.096   170.5725 3.4799e+00     8.8935      4.093      5.936    11.0804 0.0000e+00
      4.190      0.073     8.0184     75.281     48.562  35.000663     0.9463      7.095   174.8511 3.4024e+00     8.7790      4.110      5.962    11.0568 0.0000e+00
      4.205      0.069     8.0975     75.840     48.548  34.987870     1.0145      7.093   179.0480 3.3350e+00     8.6750      4.124      5.981    11.0439 0.0000e+00
      4.223      0.064     8.1635     76.342     48.566  34.999293     1.0049      7.093   183.2011 3.2667e+00     8.6620      4.140      6.005    11.0379 0.0000e+00
      4.242      0.060     8.2252     76.804     48.584  35.011869     0.9715      7.095   187.2089 3.1986e+00     8.6899      4.162      6.036    11.0364 0.0000e+00
      4.259      0.059     8.2961     77.186     48.584  35.013032     0.9267      7.096   190.8528 3.1464e+00     8.7385      4.178      6.059    11.0347 0.0000e+00
      4.272      0.059     8.3585     77.451     48.583  35.013354     0.9049      7.096   194.0479 3.0973e+00     8.7379      4.189      6.076    11.0321 0.0000e+00
      4.282      0.060     8.4113     77.592     48.588  35.015756     0.8905      7.097   197.0177 3.0478e+00     8.6824      4.200      6.090    11.0299 0.0000e+00
      4.295      0.062     8.4660     77.641     48.628  35.042072     0.7858      7.097   199.9161 2.9983e+00     8.5454      4.210      6.106    11.0296 0.0000e+00
      4.313      0.064     8.5086     77.648     48.679  35.077739     0.6129      7.096   202.5920 2.9257e+00     8.3449      4.228      6.133    11.0312 0.0000e+00
      4.333      0.065     8.5381     77.592     48.664  35.066308     0.5310      7.096   205.0223 2.8412e+00     8.2748      4.249      6.163    11.0320 0.0000e+00
      4.353      0.065     8.5534     77.454     48.615  35.030765     0.5204      7.095   207.3606 2.7657e+00     8.2784      4.269      6.192    11.0303 0.0000e+00
      4.370      0.065     8.5549     77.284     48.612  35.028685     0.5088      7.095   209.4408 2.6976e+00     8.2514      4.288      6.219    11.0282 0.0000e+00
      4.384      0.064     8.5581     77.104     48.628  35.041157     0.5158      7.095   211.1590 2.6429e+00     8.2564      4.301      6.238    11.0269 0.0000e+00
      4.396      0.062     8.5549     76.906     48.647  35.054669     0.5303      7.095   212.8195 2.5962e+00     8.2707      4.309      6.250    11.0263 0.0000e+00
      4.411      0.059     8.5348     76.720     48.662  35.065155     0.5338      7.094   214.6340 2.5352e+00     8.2871      4.325      6.272    11.0261 0.0000e+00
      4.430      0.058     8.5158     76.589     48.627  35.041043     0.5253      7.093   216.4058 2.4708e+00     8.2838      4.345      6.301    11.0264 0.0000e+00
      4.448      0.059     8.4974     76.532     48.587  35.016932     0.5354      7.091   218.0674 2.4338e+00     8.2643      4.363      6.328    11.0271 0.0000e+00
      4.462      0.060     8.4734     76.528     48.595  35.027427     0.5725      7.090   219.6666 2.4155e+00     8.2908      4.377      6.349    11.0267 0.0000e+00
      4.472      0.062     8.4517     76.531     48.613  35.041052     0.5915      7.089   221.1154 2.3817e+00     8.2622      4.385      6.360    11.0266 0.0000e+00
      4.485      0.063     8.4360     76.506     48.636  35.054772     0.5905      7.088   222.5926 2.3196e+00     8.1925      4.396      6.375    11.0266 0.0000e+00
      4.503      0.063     8.4297     76.444     48.654  35.066413     0.5856      7.088   224.1056 2.2495e+00     8.1997      4.415      6.402    11.0312 0.0000e+00
      4.524      0.064     8.4300     76.354     48.637  35.054894     0.5820      7.087   225.3837 2.1930e+00     8.2464      4.438      6.437    11.0398 0.0000e+00
      4.544      0.066     8.4314     76.254     48.615  35.042404     0.5886      7.087   226.4315 2.1435e+00     8.2785      4.458      6.465    11.0392 0.0000e+00
      4.559      0.066     8.4305     76.158     48.605  35.042290     0.5825      7.087   227.5677 2.0984e+00     8.2466      4.471      6.484    11.0345 0.0000e+00
      4.572      0.067     8.4232     76.072     48.612  35.053522     0.5245      7.086   229.0552 2.0678e+00     8.0660      4.482      6.501    11.0325 0.0000e+00
      4.586      0.070     8.4122     76.025     48.611  35.051320     0.4361      7.083   230.5651 2.0469e+00     7.8021      4.496      6.520    11.0341 0.0000e+00
      4.604      0.073     8.4003     76.035     48.571  35.015662     0.3965      7.081   231.7133 2.0058e+00     7.6865      4.513      6.546    11.0364 0.0000e+00
      4.625      0.076     8.3880     76.039     48.561  35.003077     0.4035      7.079   232.6993 1.9241e+00     7.7276      4.535      6.577    11.0439 0.0000e+00
      4.648      0.078     8.3759     76.009     48.598  35.026045     0.4042      7.076   233.7956 1.8426e+00     7.7527      4.558      6.611    11.0563 0.0000e+00
      4.671      0.080     8.3676     75.974     48.619  35.039565     0.3968      7.075   234.9027 1.7931e+00     7.7170      4.582      6.646    11.0526 0.0000e+00
      4.690      0.081     8.3767     75.958     48.623  35.039650     0.3975      7.073   235.7612 1.7599e+00     7.7060      4.601      6.672    11.0425 0.0000e+00
      4.706      0.081     8.3788     75.966     48.608  35.027064     0.4041      7.069   236.5169 1.7202e+00     7.7554      4.613      6.690    11.0372 0.0000e+00
      4.725      0.080     8.3737     75.973     48.592  35.014290     0.4091      7.066   237.5012 1.6621e+00     7.7678      4.632      6.718    11.0332 0.0000e+00
      4.749      0.077     8.3702     75.993     48.589  35.012098     0.4090      7.064   238.6286 1.6088e+00     7.7197      4.657      6.755    11.0323 0.0000e+00
      4.774      0.075     8.3669     76.063     48.573  35.000561     0.4028      7.063   239.6506 1.5803e+00     7.7201      4.683      6.792    11.0300 0.0000e+00
      4.794      0.071     8.3720     76.184     48.573  35.001696     0.4004      7.063   240.5662 1.5574e+00     7.7724      4.704      6.823    11.0264 0.0000e+00
      4.808      0.067     8.3710     76.339     48.605  35.025817     0.3967      7.063   241.3536 1.5338e+00     7.7720      4.715      6.839    11.0258 0.0000e+00
      4.821      0.064     8.3711     76.510     48.622  35.038411     0.3830      7.063   241.9438 1.5130e+00     7.7153      4.727      6.856    11.0261 0.0000e+00
      4.836      0.063     8.3792     76.672     48.607  35.027075     0.3682      7.063   242.5399 1.4871e+00     7.7008      4.743      6.878    11.0262 0.0000e+00
      4.850      0.063     8.3936     76.812     48.592  35.015643     0.3517      7.063   243.2265 1.4473e+00     7.7337      4.755      6.896    11.0273 0.0000e+00
      4.867      0.063     8.4106     76.925     48.610  35.027086     0.3409      7.063   243.9638 1.3930e+00     7.7710      4.771      6.919    11.0284 0.0000e+00
      4.887      0.063     8.4304     76.968     48.625  35.038527     0.3457      7.063   244.7437 1.3548e+00     7.8109      4.795      6.953    11.0291 0.0000e+00
      4.906      0.062     8.4496     76.923     48.606  35.027076     0.3517      7.063   245.5152 1.3353e+00     7.8054      4.813      6.980    11.0286 0.0000e+00
      4.921      0.060     8.4637     76.838     48.586  35.015540     0.3459      7.064   246.2364 1.3019e+00     7.7388      4.826      6.998    11.0275 0.0000e+00
      4.935      0.057     8.4792     76.734     48.596  35.025941     0.3340      7.064   246.8391 1.2755e+00     7.7237      4.840      7.020    11.0261 0.0000e+00
      4.946      0.055     8.4862     76.600     48.595  35.025942     0.3417      7.064   247.4671 1.2658e+00     7.7939      4.850      7.034    11.0258 0.0000e+00
      4.958      0.054     8.4760     76.455     48.580  35.015549     0.3552      7.064   248.3239 1.2403e+00     7.8017      4.859      7.047    11.0281 0.0000e+00
      4.974      0.057     8.4661     76.338     48.593  35.027189     0.3484      7.063   249.1969 1.2097e+00     7.7495      4.877      7.074    11.0320 0.0000e+00
      4.989      0.064     8.4551     76.248     48.610  35.039784     0.3429      7.060   249.8489 1.1942e+00     7.7430      4.895      7.099    11.0361 0.0000e+00
      5.002      0.072     8.4394     76.187     48.613  35.040929     0.3468      7.056   250.3563 1.1745e+00     7.7576      4.905      7.114    11.0355 0.0000e+00
      5.017      0.077     8.4212     76.164     48.614  35.041033     0.3531      7.054   250.7709 1.1288e+00     7.7891      4.916      7.130    11.0354 0.0000e+00
      5.042      0.077     8.4080     76.156     48.613  35.041033     0.3522      7.053   251.1623 1.0798e+00     7.7830      4.941      7.166    11.0397 0.0000e+00
      5.071      0.074     8.3987     76.151     48.612  35.040930     0.3365      7.051   251.5606 1.0536e+00     7.7174      4.976      7.217    11.0405 0.0000e+00
      5.094      0.067     8.3901     76.149     48.610  35.039785     0.3221      7.049   252.0595 1.0351e+00     7.7139      4.999      7.251    11.0374 0.0000e+00
      5.109      0.055     8.3910     76.156     48.592  35.027191     0.3274      7.047   252.7204 1.0111e+00     7.7741      5.010      7.267    11.0366 0.0000e+00
      5.119      0.040     8.3888     76.160     48.575  35.015562     0.3500      7.046   253.3564 9.9150e-01     7.8301      5.020      7.282    11.0379 0.0000e+00
      5.126      0.026     8.3889     76.147     48.589  35.026078     0.3620      7.046   253.8993 9.8997e-01     7.8105      5.029      7.294    11.0387 0.0000e+00
      5.129      0.016     8.3879     76.132     48.590  35.027439     0.3475      7.046   254.2944 9.8894e-01     7.7082      5.031      7.298    11.0386 0.0000e+00
      5.128      0.010     8.3889     76.127     48.594  35.032024     0.3335      7.045   254.6056 9.7810e-01     7.6172      5.029      7.294    11.0386 0.0000e+00
      5.127      0.006     8.3911     76.140     48.655  35.081515     0.3427      7.044   255.1671 9.7104e-01     7.5653      5.027      7.291    11.0397 0.0000e+00
      5.129      0.005     8.3871     76.174     48.685  35.118241     0.3503      7.044   256.0072 9.7031e-01     7.5243      5.030      7.296    11.0410 0.0000e+00
      5.133      0.006     8.3863     76.215     48.625  35.095387     0.3419      7.044   256.6750 9.7876e-01     7.4977      5.035      7.301    11.0406 0.0000e+00
      5.135      0.007     8.3844     76.256     48.554  35.059016     0.3411      7.042   257.0462 9.9501e-01     7.5856      5.037      7.304    11.0421 0.0000e+00
      5.135      0.008     8.3853     76.301     48.548  35.059191     0.3486      7.041   257.3984 1.0075e+00     7.7328      5.036      7.303    11.0452 0.0000e+00
      5.136      0.008     8.3866     76.320     48.600  35.097513     0.3502      7.040   257.9217 1.0095e+00     7.7746      5.035      7.302    11.0603 0.0000e+00
      5.140      0.009     8.3867     76.300     48.658  35.141660     0.3518      7.040   258.5559 1.0002e+00     7.7834      5.041      7.311    11.0887 0.0000e+00
      5.143      0.011     8.3860     76.279     48.661  35.148820     0.3437      7.040   259.1296 9.9173e-01     7.7710      5.045      7.317    11.1052 0.0000e+00
      5.144      0.017     8.3931     76.265     48.614  35.120645     0.3350      7.040   259.6961 9.9065e-01     7.7268      5.044      7.316    11.1068 0.0000e+00
      5.146      0.027     8.3977     76.270     48.605  35.118252     0.3462      7.040   260.1570 9.7886e-01     7.7617      5.044      7.317    11.1037 0.0000e+00
      5.151      0.039     8.3901     76.285     48.613  35.119894     0.3461      7.039   260.4859 9.6169e-01     7.8172      5.050      7.324    11.1076 0.0000e+00
      5.160      0.053     8.3890     76.288     48.567  35.077046     0.3340      7.038   260.8343 9.5500e-01     7.7824      5.058      7.335    11.1136 0.0000e+00
      5.176      0.066     8.3845     76.295     48.534  35.044311     0.3330      7.037   261.0995 9.3992e-01     7.7178      5.073      7.357    11.1189 0.0000e+00
      5.201      0.076     8.3837     76.305     48.544  35.041337     0.3420      7.036   261.3690 8.9626e-01     7.7192      5.100      7.397    11.1275 0.0000e+00
      5.228      0.079     8.3888     76.288     48.560  35.041077     0.3516      7.034   261.7703 8.4744e-01     7.7643      5.128      7.438    11.1217 0.0000e+00
      5.250      0.075     8.3896     76.233     48.570  35.041157     0.3417      7.034   262.1654 8.2216e-01     7.7855      5.149      7.469    11.1076 0.0000e+00
      5.270      0.067     8.3920     76.178     48.572  35.042298     0.3223      7.033   262.5325 8.0521e-01     7.7703      5.169      7.497    11.1004 0.0000e+00
      5.286      0.057     8.3964     76.144     48.587  35.054873     0.3163      7.031   262.8530 7.8621e-01     7.7508      5.186      7.521    11.0916 0.0000e+00
      5.296      0.048     8.3991     76.126     48.603  35.066296     0.3193      7.028   263.1155 7.8111e-01     7.7547      5.194      7.535    11.0755 0.0000e+00
      5.303      0.043     8.3919     76.116     48.584  35.053512     0.3252      7.026   263.4691 7.7628e-01     7.7488      5.200      7.542    11.0664 0.0000e+00
      5.313      0.041     8.3842     76.121     48.550  35.027197     0.3449      7.025   263.9453 7.5185e-01     7.7139      5.210      7.555    11.0703 0.0000e+00
      5.323      0.044     8.3810     76.154     48.528  35.001922     0.3750      7.025   264.3990 7.3447e-01     7.7096      5.221      7.572    11.0725 0.0000e+00
      5.333      0.051     8.3790     76.193     48.548  35.001706     0.3896      7.024   264.7387 7.3458e-01     7.7302      5.228      7.584    11.0707 0.0000e+00
      5.345      0.059     8.3781     76.208     48.596  35.024571     0.3972      7.024   265.0422 7.2554e-01     7.7584      5.239      7.598    11.0738 0.0000e+00
      5.361      0.068     8.3764     76.216     48.604  35.024561     0.4079      7.024   265.4872 7.0345e-01     7.7767      5.256      7.622    11.0750 0.0000e+00
      5.381      0.078     8.3840     76.245     48.576  35.001583     0.4020      7.023   265.9897 6.8039e-01     7.7462      5.277      7.654    11.0630 0.0000e+00
      5.402      0.086     8.3939     76.296     48.579  35.000542     0.3843      7.022   266.2991 6.5787e-01     7.7316      5.298      7.684    11.0436 0.0000e+00
      5.426      0.089     8.3967     76.350     48.599  35.011975     0.3853      7.019   266.5611 6.3214e-01     7.7707      5.319      7.715    11.0312 0.0000e+00
      5.453      0.086     8.3968     76.378     48.602  35.012910     0.4068      7.016   266.9206 6.0889e-01     7.7414      5.347      7.755    11.0272 0.0000e+00
      5.480      0.077     8.4009     76.404     48.600  35.011851     0.4185      7.014   267.2896 5.9143e-01     7.6161      5.376      7.797    11.0253 0.0000e+00
      5.503      0.064     8.4072     76.447     48.583  34.999171     0.4100      7.013   267.5806 5.7207e-01     7.5545      5.401      7.833    11.0224 0.0000e+00
      5.518      0.050     8.4165     76.469     48.564  34.986492     0.3955      7.013   267.8584 5.5250e-01     7.5768      5.415      7.853    11.0181 0.0000e+00
      5.523      0.039     8.4185     76.480     48.561  34.985443     0.4102      7.013   268.2385 5.5423e-01     7.7148      5.418      7.859    11.0170 0.0000e+00
      5.525      0.030     8.4181     76.509     48.561  34.986492     0.4470      7.013   268.5639 5.7764e-01     7.9257      5.417      7.858    11.0178 0.0000e+00
      5.528      0.025     8.4280     76.552     48.577  34.999182     0.4570      7.013   268.8676 5.8231e-01     7.9745      5.419      7.860    11.0175 0.0000e+00
      5.535      0.022     8.4277     76.584     48.590  35.011976     0.4480      7.013   269.2432 5.5837e-01     7.9285      5.426      7.870    11.0181 0.0000e+00
      5.545      0.022     8.4279     76.596     48.584  35.014282     0.4298      7.011   269.5775 5.3950e-01     7.8819      5.439      7.888    11.0195 0.0000e+00
      5.554      0.021     8.4307     76.611     48.597  35.027076     0.3952      7.009   269.8983 5.3766e-01     7.7871      5.449      7.903    11.0210 0.0000e+00
      5.558      0.019     8.4367     76.639     48.615  35.039775     0.3631      7.009   270.2818 5.3946e-01     7.7037      5.451      7.907    11.0207 0.0000e+00
      5.560      0.016     8.4410     76.686     48.620  35.040920     0.3490      7.008   270.7735 5.3814e-01     7.6598      5.452      7.907    11.0239 0.0000e+00
      5.562      0.015     8.4378     76.736     48.624  35.040922     0.3497      7.008   271.2838 5.3980e-01     7.6659      5.455      7.912    11.0337 0.0000e+00
      5.565      0.017     8.4397     76.761     48.627  35.039788     0.3545      7.007   271.6338 5.4449e-01     7.7097      5.457      7.915    11.0377 0.0000e+00
      5.568      0.024     8.4419     76.771     48.613  35.027203     0.3574      7.005   271.7357 5.4090e-01     7.7116      5.459      7.918    11.0354 0.0000e+00
      5.572      0.037     8.4481     76.782     48.601  35.015667     0.3513      7.003   271.5682 5.3620e-01     7.6202      5.464      7.925    11.0334 0.0000e+00
      5.579      0.050     8.4566     76.775     48.619  35.027193     0.3392      7.001   271.4158 5.3133e-01     7.4932      5.470      7.933    11.0305 0.0000e+00
      5.593      0.060     8.4591     76.772     48.637  35.039665     0.3437      6.999   271.6137 5.1072e-01     7.5075      5.480      7.948    11.0268 0.0000e+00
      5.616      0.067     8.4587     76.793     48.636  35.039560     0.3731      6.998   272.0687 4.8157e-01     7.6913      5.505      7.984    11.0241 0.0000e+00
      5.643      0.071     8.4634     76.800     48.615  35.025935     0.4036      6.998   272.5292 4.6659e-01     7.8359      5.537      8.031    11.0211 0.0000e+00
      5.663      0.073     8.4612     76.771     48.579  35.001823     0.4124      6.997   272.8797 4.5514e-01     7.8216      5.557      8.060    11.0186 0.0000e+00
      5.676      0.074     8.4585     76.729     48.578  35.001814     0.3878      6.997   273.1232 4.4066e-01     7.7574      5.566      8.073    11.0191 0.0000e+00
      5.689      0.072     8.4644     76.696     48.614  35.025831     0.3554      6.996   273.3217 4.3392e-01     7.7429      5.577      8.089    11.0197 0.0000e+00
      5.706      0.070     8.4652     76.662     48.636  35.038406     0.3451      6.994   273.5585 4.1670e-01     7.7488      5.594      8.113    11.0208 0.0000e+00
      5.729      0.070     8.4609     76.626     48.624  35.026965     0.3470      6.990   273.8352 3.9381e-01     7.7602      5.617      8.147    11.0237 0.0000e+00
      5.752      0.070     8.4535     76.585     48.610  35.014388     0.3623      6.988   274.0868 3.8149e-01     7.7441      5.644      8.184    11.0251 0.0000e+00
      5.770      0.070     8.4527     76.520     48.611  35.013235     0.3886      6.988   274.3633 3.7814e-01     7.7253      5.660      8.210    11.0226 0.0000e+00
      5.784      0.070     8.4491     76.465     48.611  35.013027     0.3984      6.988   274.6841 3.7666e-01     7.7719      5.672      8.227    11.0180 0.0000e+00
      5.799      0.071     8.4451     76.442     48.611  35.011864     0.3889      6.986   274.9532 3.7205e-01     7.7948      5.687      8.248    11.0149 0.0000e+00
      5.814      0.073     8.4439     76.439     48.594  34.999173     0.3989      6.984   275.2083 3.6770e-01     7.7637      5.701      8.269    11.0130 0.0000e+00
      5.833      0.075     8.4335     76.427     48.576  34.986484     0.4282      6.982   275.5315 3.5568e-01     7.7376      5.717      8.293    11.0114 0.0000e+00
      5.857      0.078     8.4275     76.416     48.575  34.985340     0.4509      6.980   275.8500 3.3096e-01     7.7521      5.743      8.329    11.0101 0.0000e+00
      5.882      0.081     8.4253     76.443     48.575  34.985340     0.4735      6.980   276.0480 3.1040e-01     7.8022      5.772      8.371    11.0092 0.0000e+00
      5.902      0.084     8.4269     76.496     48.577  34.986475     0.4772      6.980   276.1177 3.0505e-01     7.7627      5.790      8.399    11.0089 0.0000e+00
      5.918      0.084     8.4257     76.533     48.594  34.999060     0.4547      6.980   276.1762 2.9497e-01     7.6500      5.800      8.413    11.0088 0.0000e+00
      5.938      0.079     8.4213     76.539     48.610  35.010606     0.4419      6.979   276.3266 2.6430e-01     7.6354      5.818      8.439    11.0085 0.0000e+00
      5.964      0.074     8.4254     76.529     48.593  34.999184     0.4484      6.979   276.5590 2.4129e-01     7.7229      5.849      8.484    11.0085 0.0000e+00
      5.989      0.070     8.4336     76.509     48.575  34.987856     0.4579      6.979   276.9213 2.3910e-01     7.7858      5.877      8.523    11.0090 0.0000e+00
      6.004      0.065     8.4383     76.504     48.591  35.000544     0.4310      6.981   277.3514 2.3641e-01     7.7803      5.891      8.544    11.0089 0.0000e+00
      6.014      0.060     8.4372     76.519     48.623  35.025696     0.3645      6.981   277.7150 2.3894e-01     7.7597      5.897      8.554    11.0087 0.0000e+00
      6.024      0.057     8.4370     76.524     48.638  35.038168     0.3279      6.981   278.0487 2.3576e-01     7.7413      5.905      8.565    11.0098 0.0000e+00
      6.038      0.057     8.4330     76.521     48.616  35.024439     0.3383      6.981   278.2883 2.1191e-01     7.7633      5.920      8.586    11.0115 0.0000e+00
      6.054      0.062     8.4306     76.530     48.562  34.986599     0.3911      6.980   278.4608 2.0073e-01     7.8202      5.937      8.611    11.0130 0.0000e+00
      6.070      0.068     8.4354     76.540     48.527  34.961344     0.4670      6.979   278.6713 2.0813e-01     7.7798      5.953      8.634    11.0143 0.0000e+00
      6.089      0.072     8.4346     76.539     48.546  34.972881     0.4980      6.979   278.9409 2.0857e-01     7.7199      5.969      8.657    11.0167 0.0000e+00
      6.109      0.074     8.4321     76.523     48.586  34.999194     0.4990      6.978   279.2264 2.0031e-01     7.7789      5.990      8.689    11.0202 0.0000e+00
      6.130      0.074     8.4338     76.486     48.627  35.025697     0.4890      6.976   279.4559 1.9469e-01     7.8433      6.013      8.722    11.0210 0.0000e+00
      6.149      0.070     8.4361     76.453     48.650  35.039531     0.4510      6.974   279.7374 1.9079e-01     7.8154      6.031      8.746    11.0200 0.0000e+00
      6.167      0.064     8.4354     76.452     48.652  35.039551     0.4145      6.973   280.1344 1.8824e-01     7.7494      6.047      8.771    11.0189 0.0000e+00
      6.185      0.059     8.4354     76.470     48.634  35.025936     0.3883      6.973   280.5557 1.8357e-01     7.7283      6.068      8.800    11.0156 0.0000e+00
      6.199      0.057     8.4312     76.505     48.600  35.001815     0.3677      6.973   280.7873 1.6890e-01     7.7649      6.082      8.820    11.0116 0.0000e+00
      6.208      0.057     8.4253     76.562     48.596  35.001701     0.3565      6.973   280.9561 1.6071e-01     7.7825      6.086      8.827    11.0089 0.0000e+00
      6.218      0.059     8.4281     76.612     48.624  35.024564     0.3533      6.973   281.2196 1.5657e-01     7.7363      6.095      8.840    11.0073 0.0000e+00
      6.233      0.063     8.4295     76.652     48.623  35.024449     0.3452      6.973   281.4789 1.4827e-01     7.6843      6.112      8.864    11.0064 0.0000e+00
      6.253      0.070     8.4324     76.693     48.592  35.000318     0.3339      6.972   281.7678 1.4739e-01     7.7013      6.132      8.894    11.0065 0.0000e+00
      6.273      0.076     8.4407     76.715     48.576  34.986589     0.3414      6.971   281.9592 1.5413e-01     7.7707      6.151      8.921    11.0097 0.0000e+00
      6.293      0.078     8.4449     76.708     48.576  34.985341     0.3524      6.971   282.0722 1.5760e-01     7.7712      6.171      8.949    11.0146 0.0000e+00
      6.316      0.076     8.4475     76.694     48.577  34.985227     0.3426      6.971   282.3593 1.4628e-01     7.7071      6.194      8.982    11.0154 0.0000e+00
      6.339      0.072     8.4545     76.671     48.579  34.985217     0.3302      6.970   282.6773 1.3630e-01     7.6796      6.218      9.017    11.0122 0.0000e+00
      6.357      0.070     8.4581     76.621     48.579  34.985216     0.3364      6.969   282.8206 1.3740e-01     7.7125      6.237      9.046    11.0099 0.0000e+00
      6.369      0.067     8.4558     76.581     48.579  34.985215     0.3427      6.968   282.9728 1.3444e-01     7.7967      6.247      9.061    11.0090 0.0000e+00
      6.381      0.064     8.4543     76.572     48.577  34.985206     0.3313      6.968   283.1415 1.2886e-01     7.8441      6.254      9.072    11.0074 0.0000e+00
      6.398      0.061     8.4546     76.567     48.574  34.985102     0.3149      6.967   283.3115 1.2690e-01     7.8071      6.274      9.098    11.0060 0.0000e+00
      6.418      0.060     8.4464     76.557     48.570  34.983958     0.3109      6.967   283.6519 1.2666e-01     7.7594      6.296      9.131    11.0049 0.0000e+00
      6.435      0.062     8.4403     76.553     48.553  34.971373     0.3242      6.966   284.0739 1.2556e-01     7.7791      6.312      9.155    11.0049 0.0000e+00
      6.448      0.063     8.4421     76.568     48.538  34.959838     0.3420      6.965   284.3697 1.2435e-01     7.8411      6.325      9.173    11.0076 0.0000e+00
      6.461      0.063     8.4400     76.596     48.556  34.971385     0.3435      6.963   284.5603 1.2728e-01     7.8248      6.334      9.188    11.0100 0.0000e+00
      6.476      0.065     8.4387     76.617     48.575  34.984083     0.3348      6.963   284.7448 1.3024e-01     7.7193      6.349      9.208    11.0118 0.0000e+00
      6.495      0.068     8.4369     76.624     48.579  34.986475     0.3358      6.963   284.8796 1.2724e-01     7.6239      6.370      9.239    11.0120 0.0000e+00
      6.515      0.072     8.4393     76.609     48.598  35.000309     0.3392      6.963   284.9856 1.2401e-01     7.5940      6.390      9.268    11.0099 0.0000e+00
      6.532      0.074     8.4444     76.573     48.632  35.024439     0.3423      6.963   285.1666 1.2371e-01     7.5966      6.406      9.291    11.0079 0.0000e+00
      6.551      0.074     8.4465     76.535     48.631  35.024440     0.3413      6.963   285.3461 1.2366e-01     7.5877      6.425      9.318    11.0071 0.0000e+00
      6.571      0.072     8.4479     76.529     48.598  35.000319     0.3344      6.962   285.5212 1.2362e-01     7.6230      6.445      9.349    11.0072 0.0000e+00
      6.591      0.069     8.4463     76.558     48.580  34.986590     0.3424      6.960   285.8207 1.2358e-01     7.7155      6.464      9.375    11.0067 0.0000e+00
      6.610      0.064     8.4418     76.574     48.580  34.985342     0.3546      6.960   286.0422 1.2357e-01     7.7838      6.482      9.402    11.0064 0.0000e+00
      6.627      0.060     8.4357     76.583     48.582  34.985229     0.3491      6.959   286.1352 1.2364e-01     7.7321      6.500      9.428    11.0075 0.0000e+00
      6.640      0.056     8.4338     76.621     48.582  34.985221     0.3339      6.957   286.3425 1.2370e-01     7.5691      6.513      9.446    11.0081 0.0000e+00
      6.650      0.054     8.4412     76.664     48.583  34.985239     0.3375      6.957   286.6561 1.2367e-01     7.4866      6.521      9.458    11.0066 0.0000e+00
      6.662      0.054     8.4431     76.699     48.583  34.985447     0.3585      6.957   287.0016 1.2361e-01     7.5192      6.532      9.473    11.0049 0.0000e+00
      6.676      0.055     8.4400     76.729     48.584  34.987736     0.3549      6.957   287.3357 1.2356e-01     7.5198      6.547      9.495    11.0040 0.0000e+00
      6.692      0.058     8.4483     76.730     48.614  35.012915     0.3276      6.956   287.4266 1.2362e-01     7.4931      6.562      9.518    11.0035 0.0000e+00
      6.708      0.061     8.4524     76.719     48.639  35.036091     0.3206      6.955   287.3259 1.2366e-01     7.4694      6.579      9.542    11.0032 0.0000e+00
      6.725      0.066     8.4552     76.714     48.604  35.014164     0.3364      6.955   287.4090 1.2372e-01     7.4392      6.596      9.567    11.0033 0.0000e+00
      6.740      0.070     8.4613     76.704     48.589  35.001589     0.3517      6.955   287.6578 1.2383e-01     7.4687      6.609      9.586    11.0046 0.0000e+00
      6.755      0.073     8.4589     76.683     48.608  35.010951     0.3481      6.954   287.9238 1.2380e-01     7.5530      6.623      9.605    11.0074 0.0000e+00
      6.775      0.073     8.4551     76.655     48.598  35.000455     0.3342      6.952   288.2162 1.2369e-01     7.6734      6.642      9.634    11.0148 0.0000e+00
      6.800      0.071     8.4549     76.632     48.603  35.001581     0.3333      6.950   288.3537 1.2363e-01     7.7635      6.669      9.673    11.0198 0.0000e+00
      6.822      0.067     8.4543     76.624     48.637  35.024557     0.3370      6.949   288.2967 1.2365e-01     7.7876      6.693      9.707    11.0158 0.0000e+00
      6.839      0.063     8.4532     76.634     48.637  35.024461     0.3465      6.948   288.3864 1.2368e-01     7.8282      6.708      9.730    11.0108 0.0000e+00
      6.850      0.059     8.4501     76.646     48.604  35.000426     0.3482      6.947   288.6649 1.2369e-01     7.8098      6.718      9.743    11.0074 0.0000e+00
      6.859      0.056     8.4477     76.651     48.585  34.987747     0.3318      6.947   288.9107 1.2372e-01     7.7371      6.724      9.753    11.0048 0.0000e+00
      6.871      0.055     8.4466     76.660     48.599  34.998053     0.3315      6.947   289.1214 1.2375e-01     7.7345      6.735      9.770    11.0037 0.0000e+00
      6.888      0.057     8.4486     76.660     48.596  34.998139     0.3605      6.947   289.3194 1.2377e-01     7.7784      6.755      9.797    11.0031 0.0000e+00
      6.906      0.062     8.4514     76.631     48.580  34.988785     0.4008      6.945   289.4116 1.2376e-01     7.7902      6.774      9.825    11.0031 0.0000e+00
      6.921      0.067     8.4495     76.572     48.611  35.011866     0.4193      6.943   289.4626 1.2372e-01     7.7406      6.787      9.844    11.0036 0.0000e+00
      6.936      0.071     8.4524     76.519     48.629  35.023411     0.4094      6.942   289.5920 1.2372e-01     7.7250      6.801      9.865    11.0041 0.0000e+00
      6.953      0.074     8.4521     76.485     48.601  35.001476     0.4053      6.941   289.7719 1.2371e-01     7.8398      6.818      9.888    11.0059 0.0000e+00
      6.973      0.076     8.4490     76.456     48.601  35.000436     0.4111      6.941   290.1742 1.2367e-01     8.0017      6.838      9.917    11.0100 0.0000e+00
      6.996      0.078     8.4401     76.429     48.616  35.010837     0.4054      6.941   290.7567 1.2369e-01     8.0429      6.862      9.952    11.0110 0.0000e+00
      7.018      0.080     8.4335     76.404     48.601  35.000333     0.3949      6.940   291.1361 1.2379e-01     7.9625      6.885      9.985    11.0082 0.0000e+00
      7.038      0.080     8.4325     76.422     48.600  35.000333     0.3830      6.938   291.2332 1.2383e-01     7.9174      6.903     10.012    11.0063 0.0000e+00
      7.057      0.079     8.4277     76.474     48.614  35.010838     0.3701      6.936   291.1566 1.2375e-01     7.9077      6.920     10.037    11.0054 0.0000e+00
      7.076      0.076     8.4277     76.527     48.600  35.000446     0.3546      6.935   291.1570 1.2373e-01     7.8110      6.938     10.063    11.0050 0.0000e+00
      7.097      0.073     8.4199     76.578     48.601  35.001581     0.3375      6.935   291.5818 1.2374e-01     7.7040      6.960     10.094    11.0054 0.0000e+00
      7.118      0.070     8.4236     76.625     48.633  35.024558     0.3304      6.934   292.2492 1.2373e-01     7.6735      6.982     10.126    11.0058 0.0000e+00
      7.136      0.066     8.4315     76.666     48.633  35.024463     0.3439      6.933   292.6877 1.2373e-01     7.6813      7.000     10.152    11.0062 0.0000e+00
      7.151      0.063     8.4359     76.695     48.600  35.000436     0.3842      6.933   292.7531 1.2369e-01     7.7297      7.014     10.172    11.0064 0.0000e+00
      7.164      0.062     8.4427     76.726     48.583  34.987851     0.4100      6.932   292.6103 1.2367e-01     7.7467      7.027     10.191    11.0064 0.0000e+00
      7.176      0.063     8.4467     76.763     48.598  34.999187     0.3977      6.931   292.8536 1.2368e-01     7.7160      7.037     10.207    11.0064 0.0000e+00
      7.191      0.063     8.4532     76.801     48.614  35.010610     0.3678      6.930   293.4585 1.2367e-01     7.7005      7.049     10.223    11.0063 0.0000e+00
      7.211      0.061     8.4540     76.817     48.598  34.999064     0.3480      6.928   293.7287 1.2370e-01     7.7298      7.070     10.254    11.0063 0.0000e+00
      7.233      0.058     8.4586     76.795     48.580  34.986488     0.3500      6.926   293.7973 1.2382e-01     7.7974      7.095     10.291    11.0063 0.0000e+00
      7.251      0.054     8.4617     76.761     48.579  34.985447     0.3418      6.926   293.9440 1.2385e-01     7.8006      7.114     10.317    11.0063 0.0000e+00
      7.261      0.052     8.4674     76.732     48.580  34.986478     0.3326      6.927   294.0395 1.2374e-01     7.7686      7.121     10.328    11.0065 0.0000e+00
      7.266      0.049     8.4708     76.699     48.597  34.998949     0.3390      6.927   294.0913 1.2369e-01     7.7852      7.124     10.333    11.0063 0.0000e+00
      7.274      0.048     8.4660     76.654     48.612  35.009339     0.3437      6.926   294.2268 1.2371e-01     7.7970      7.131     10.344    11.0059 0.0000e+00
      7.288      0.048     8.4619     76.605     48.579  34.985209     0.3566      6.924   294.5592 1.2370e-01     7.7740      7.147     10.364    11.0061 0.0000e+00
      7.306      0.050     8.4590     76.580     48.545  34.960994     0.3611      6.923   294.9271 1.2365e-01     7.7462      7.166     10.393    11.0064 0.0000e+00
      7.321      0.052     8.4560     76.591     48.558  34.970347     0.3479      6.923   295.1469 1.2366e-01     7.7351      7.181     10.416    11.0065 0.0000e+00
      7.333      0.053     8.4507     76.612     48.559  34.971396     0.3469      6.923   295.3241 1.2371e-01     7.7416      7.192     10.432    11.0061 0.0000e+00
      7.344      0.051     8.4443     76.618     48.562  34.973674     0.3577      6.922   295.3485 1.2374e-01     7.7565      7.201     10.444    11.0059 0.0000e+00
      7.356      0.049     8.4399     76.600     48.596  34.997890     0.3618      6.922   295.2707 1.2369e-01     7.7453      7.213     10.461    11.0058 0.0000e+00
      7.371      0.047     8.4437     76.571     48.614  35.010389     0.3476      6.922   295.5021 1.2363e-01     7.7083      7.229     10.485    11.0060 0.0000e+00
      7.385      0.047     8.4461     76.567     48.598  34.997900     0.3354      6.921   295.8231 1.2365e-01     7.7183      7.243     10.507    11.0068 0.0000e+00
      7.395      0.048     8.4474     76.584     48.565  34.973787     0.3468      6.919   295.9676 1.2368e-01     7.7647      7.252     10.518    11.0071 0.0000e+00
      7.404      0.049     8.4457     76.615     48.564  34.972634     0.3523      6.919   296.1309 1.2371e-01     7.7566      7.260     10.529    11.0065 0.0000e+00
      7.416      0.050     8.4391     76.661     48.578  34.983962     0.3358      6.919   296.1627 1.2375e-01     7.8253      7.271     10.547    11.0062 0.0000e+00
      7.431      0.054     8.4406     76.709     48.576  34.983857     0.3302      6.919   296.0947 1.2374e-01     8.0482      7.286     10.568    11.0053 0.0000e+00
      7.446      0.061     8.4426     76.741     48.558  34.971367     0.3422      6.918   296.2537 1.2373e-01     8.2322      7.302     10.591    11.0042 0.0000e+00
      7.461      0.069     8.4457     76.763     48.543  34.959840     0.3481      6.917   296.5369 1.2373e-01     8.2731      7.317     10.613    11.0035 0.0000e+00
      7.476      0.076     8.4512     76.777     48.560  34.971376     0.3427      6.914   296.7658 1.2375e-01     8.0988      7.330     10.631    11.0046 0.0000e+00
      7.496      0.080     8.4573     76.780     48.578  34.983961     0.3352      6.912   296.6978 1.2372e-01     7.8320      7.348     10.656    11.0072 0.0000e+00
      7.522      0.082     8.4601     76.800     48.580  34.985105     0.3334      6.912   296.4037 1.2364e-01     7.7119      7.375     10.697    11.0082 0.0000e+00
      7.550      0.083     8.4620     76.834     48.579  34.985200     0.3379      6.912   296.3936 1.2361e-01     7.7062      7.406     10.742    11.0070 0.0000e+00
      7.572      0.084     8.4659     76.859     48.578  34.985114     0.3466      6.911   296.6619 1.2364e-01     7.7283      7.429     10.774    11.0055 0.0000e+00
      7.588      0.084     8.4628     76.875     48.577  34.984066     0.3473      6.909   296.9803 1.2369e-01     7.7407      7.441     10.792    11.0049 0.0000e+00
      7.604      0.082     8.4661     76.885     48.562  34.972522     0.3386      6.906   297.2322 1.2369e-01     7.7534      7.454     10.811    11.0051 0.0000e+00
      7.626      0.079     8.4716     76.892     48.563  34.972436     0.3327      6.904   297.2120 1.2365e-01     7.7799      7.476     10.843    11.0061 0.0000e+00
      7.651      0.074     8.4725     76.868     48.579  34.983028     0.3514      6.903   296.9940 1.2364e-01     7.8214      7.504     10.882    11.0071 0.0000e+00
      7.676      0.067     8.4756     76.795     48.568  34.973686     0.3894      6.901   296.8331 1.2365e-01     7.8458      7.530     10.920    11.0062 0.0000e+00
      7.695      0.058     8.4758     76.726     48.586  34.986376     0.4009      6.900   296.9019 1.2368e-01     7.8009      7.549     10.948    11.0051 0.0000e+00
      7.705      0.048     8.4776     76.673     48.618  35.009561     0.3909      6.900   297.2234 1.2369e-01     7.7918      7.557     10.961    11.0048 0.0000e+00
      7.710      0.038     8.4784     76.627     48.604  35.000218     0.3852      6.900   297.4504 1.2363e-01     7.8038      7.560     10.964    11.0037 0.0000e+00
      7.716      0.030     8.4651     76.600     48.604  35.000314     0.3905      6.899   297.4962 1.2361e-01     7.7069      7.566     10.973    11.0024 0.0000e+00
      7.722      0.025     8.4585     76.594     48.616  35.010714     0.4054      6.897   297.5182 1.2367e-01     7.5762      7.573     10.983    11.0017 0.0000e+00
      7.730      0.024     8.4541     76.619     48.598  34.999075     0.4068      6.897   297.4594 1.2369e-01     7.5212      7.580     10.994    11.0019 0.0000e+00
      7.736      0.024     8.4463     76.654     48.578  34.986480     0.3990      6.896   297.4735 1.2365e-01     7.5551      7.588     11.006    11.0019 0.0000e+00
      7.741      0.025     8.4457     76.661     48.574  34.985326     0.3856      6.896   297.6029 1.2361e-01     7.6776      7.593     11.012    11.0026 0.0000e+00
      7.746      0.028     8.4419     76.634     48.575  34.985127     0.3615      6.897   297.7332 1.2360e-01     7.8068      7.595     11.016    11.0046 0.0000e+00
      7.751      0.032     8.4463     76.594     48.578  34.984078     0.3488      6.897   297.8437 1.2363e-01     7.8189      7.600     11.023    11.0058 0.0000e+00
      7.760      0.036     8.4518     76.579     48.567  34.972646     0.3483      6.896   297.9067 1.2368e-01     7.7559      7.609     11.036    11.0081 0.0000e+00
      7.772      0.041     8.4513     76.574     48.571  34.973799     0.3729      6.896   298.0651 1.2373e-01     7.7291      7.622     11.055    11.0110 0.0000e+00
      7.785      0.047     8.4489     76.552     48.606  34.998016     0.4128      6.897   298.2097 1.2376e-01     7.7342      7.636     11.075    11.0096 0.0000e+00
      7.796      0.054     8.4419     76.527     48.625  35.011651     0.4146      6.897   298.2790 1.2372e-01     7.7142      7.646     11.089    11.0049 0.0000e+00
      7.807      0.060     8.4429     76.521     48.625  35.011746     0.3949      6.897   298.6448 1.2362e-01     7.6931      7.653     11.100    11.0013 0.0000e+00
      7.823      0.065     8.4443     76.527     48.608  34.999169     0.3740      6.896   299.1046 1.2357e-01     7.6495      7.669     11.123    10.9997 0.0000e+00
      7.843      0.069     8.4408     76.534     48.590  34.986480     0.3452      6.896   299.2786 1.2359e-01     7.5621      7.692     11.156    10.9989 0.0000e+00
      7.863      0.071     8.4370     76.550     48.589  34.985222     0.3387      6.896   299.3717 1.2360e-01     7.5250      7.711     11.184    10.9987 0.0000e+00
      7.883      0.071     8.4362     76.574     48.587  34.983964     0.3449      6.896   299.3701 1.2362e-01     7.5088      7.731     11.214    10.9991 0.0000e+00
      7.902      0.069     8.4386     76.616     48.570  34.971265     0.3611      6.895   299.1726 1.2362e-01     7.5367      7.752     11.243    10.9994 0.0000e+00
      7.917      0.066     8.4372     76.669     48.552  34.958585     0.3926      6.895   299.2206 1.2362e-01     7.6572      7.764     11.261    10.9993 0.0000e+00
      7.932      0.064     8.4410     76.692     48.551  34.957545     0.4017      6.895   299.6061 1.2364e-01     7.7696      7.777     11.280    10.9988 0.0000e+00
      7.949      0.063     8.4422     76.685     48.553  34.958698     0.4049      6.894   299.8763 1.2361e-01     7.8032      7.795     11.306    10.9984 0.0000e+00
      7.965      0.063     8.4465     76.682     48.572  34.972523     0.4061      6.893   299.8211 1.2360e-01     7.7566      7.812     11.330    10.9982 0.0000e+00
      7.980      0.064     8.4558     76.695     48.607  34.997797     0.3836      6.892   299.5410 1.2366e-01     7.7525      7.826     11.351    10.9982 0.0000e+00
      7.995      0.064     8.4576     76.707     48.624  35.010486     0.3651      6.892   299.4150 1.2366e-01     7.8218      7.840     11.371    10.9984 0.0000e+00
      8.012      0.066     8.4550     76.717     48.608  34.999045     0.3659      6.892   299.6738 1.2362e-01     7.8423      7.857     11.395    10.9983 0.0000e+00
      8.031      0.070     8.4538     76.726     48.590  34.986357     0.3684      6.891   300.0892 1.2364e-01     7.7959      7.876     11.423    10.9982 0.0000e+00
      8.047      0.075     8.4573     76.741     48.586  34.983975     0.3534      6.889   300.3071 1.2371e-01     7.7389      7.891     11.446    10.9983 0.0000e+00
      8.063      0.077     8.4576     76.777     48.567  34.970246     0.3352      6.888   300.4158 1.2376e-01     7.7344      7.905     11.464    10.9986 0.0000e+00
      8.085      0.074     8.4588     76.801     48.536  34.947260     0.3392      6.886   300.6289 1.2374e-01     7.8099      7.926     11.496    10.9991 0.0000e+00
      8.112      0.067     8.4601     76.785     48.553  34.959853     0.3516      6.884   300.7328 1.2372e-01     7.8659      7.957     11.541    10.9994 0.0000e+00
      8.135      0.058     8.4594     76.754     48.601  34.995606     0.3696      6.883   300.8976 1.2370e-01     7.7629      7.982     11.577    10.9995 0.0000e+00
      8.147      0.048     8.4660     76.743     48.604  34.998849     0.3893      6.881   301.1587 1.2368e-01     7.5547      7.992     11.592    10.9992 0.0000e+00
      8.152      0.036     8.4707     76.753     48.603  34.999066     0.3987      6.880   301.1372 1.2374e-01     7.4666      7.994     11.594    10.9990 0.0000e+00
      8.155      0.026     8.4663     76.733     48.600  34.998234     0.4082      6.880   301.1536 1.2377e-01     7.5172      7.997     11.598    10.9989 0.0000e+00
      8.159      0.020     8.4625     76.702     48.585  34.988797     0.3963      6.880   301.3571 1.2371e-01     7.5856      8.002     11.606    10.9995 0.0000e+00
      8.164      0.019     8.4587     76.699     48.616  35.011862     0.3539      6.880   301.3610 1.2369e-01     7.6442      8.007     11.613    11.0010 0.0000e+00
      8.169      0.021     8.4647     76.668     48.630  35.023302     0.3280      6.879   301.2863 1.2371e-01     7.6792      8.010     11.618    11.0025 0.0000e+00
      8.174      0.023     8.4609     76.603     48.595  35.000231     0.3339      6.879   301.4860 1.2369e-01     7.7019      8.015     11.625    11.0042 0.0000e+00
      8.180      0.024     8.4521     76.555     48.573  34.986710     0.3330      6.878   301.7968 1.2362e-01     7.7142      8.022     11.635    11.0052 0.0000e+00
      8.188      0.026     8.4586     76.525     48.568  34.986718     0.3090      6.878   301.9471 1.2358e-01     7.6909      8.029     11.645    11.0059 0.0000e+00
      8.195      0.026     8.4535     76.490     48.578  35.000335     0.2846      6.877   302.0135 1.2359e-01     7.6936      8.037     11.656    11.0070 0.0000e+00
      8.202      0.025     8.4430     76.454     48.603  35.024456     0.2713      6.876   301.8243 1.2359e-01     7.7464      8.043     11.666    11.0090 0.0000e+00
      8.208      0.022     8.4370     76.409     48.597  35.024569     0.2905      6.874   301.4662 1.2360e-01     7.7824      8.049     11.674    11.0120 0.0000e+00
      8.214      0.018     8.4358     76.373     48.561  35.001705     0.3333      6.873   301.4697 1.2366e-01     7.7880      8.057     11.685    11.0151 0.0000e+00
      8.219      0.015     8.4282     76.375     48.558  35.001820     0.3398      6.872   301.6949 1.2372e-01     7.7457      8.061     11.692    11.0222 0.0000e+00
      8.222      0.012     8.4248     76.394     48.592  35.025950     0.3190      6.872   301.8663 1.2372e-01     7.7148      8.063     11.694    11.0292 0.0000e+00
      8.223      0.009     8.4187     76.424     48.614  35.039671     0.3145      6.871   301.8212 1.2367e-01     7.7223      8.064     11.696    11.0328 0.0000e+00
      8.224      0.008     8.4103     76.472     48.621  35.040815     0.3278      6.870   301.5795 1.2373e-01     7.7333      8.065     11.697    11.0371 0.0000e+00
      8.226      0.009     8.4140     76.537     48.624  35.039775     0.3380      6.869   301.6106 1.2382e-01     7.7463      8.067     11.700    11.0387 0.0000e+00
      8.227      0.012     8.4145     76.621     48.609  35.027096     0.3295      6.869   301.8539 1.2377e-01     7.7079      8.068     11.702    11.0391 0.0000e+00
      8.230      0.015     8.4184     76.689     48.593  35.014418     0.3246      6.869   302.0252 1.2372e-01     7.7134      8.070     11.704    11.0366 0.0000e+00
      8.234      0.017     8.4251     76.714     48.592  35.013378     0.3286      6.868   302.2196 1.2373e-01     7.7793      8.075     11.711    11.0311 0.0000e+00
      8.240      0.018     8.4317     76.719     48.592  35.014521     0.3187      6.867   302.3109 1.2370e-01     7.7868      8.081     11.721    11.0286 0.0000e+00
      8.247      0.020     8.4437     76.716     48.608  35.028241     0.3058      6.865   302.2692 1.2366e-01     7.7694      8.088     11.731    11.0267 0.0000e+00
      8.252      0.021     8.4531     76.696     48.637  35.052371     0.2889      6.864   302.3182 1.2366e-01     7.7397      8.094     11.739    11.0244 0.0000e+00
      8.256      0.021     8.4540     76.659     48.631  35.052475     0.2895      6.864   302.4724 1.2366e-01     7.7357      8.097     11.743    11.0246 0.0000e+00
      8.261      0.020     8.4536     76.624     48.589  35.029507     0.3299      6.863   302.6713 1.2367e-01     7.7892      8.099     11.748    11.0269 0.0000e+00
      8.266      0.019     8.4538     76.612     48.577  35.028467     0.3527      6.862   302.8296 1.2371e-01     7.8055      8.105     11.756    11.0283 0.0000e+00
      8.273      0.018     8.4511     76.630     48.589  35.039907     0.3404      6.862   303.0098 1.2375e-01     7.7622      8.114     11.768    11.0307 0.0000e+00
      8.279      0.018     8.4452     76.662     48.592  35.040938     0.3476      6.861   303.2161 1.2375e-01     7.7096      8.120     11.778    11.0351 0.0000e+00
      8.282      0.023     8.4387     76.687     48.587  35.040927     0.3818      6.861   303.3446 1.2374e-01     7.7157      8.123     11.781    11.0431 0.0000e+00
      8.283      0.043     8.4359     76.828     48.576  35.039781     0.4048      6.861   303.5310 1.2376e-01     7.7683      8.123     11.781    11.0541 0.0000e+00
      8.285      0.077     8.4357     77.158     48.565  35.027083     0.4083      6.863   303.6630 1.2372e-01     7.7644      8.125     11.784    11.0576 0.0000e+00
      8.293      0.117     8.4453     77.440     48.573  35.014292     0.3913      6.864   303.6496 1.2362e-01     7.7711      8.127     11.789    11.0505 0.0000e+00
      8.320      0.152     8.4418     77.546     48.594  35.011997     0.3564      6.864   303.8003 1.2362e-01     7.8146      8.142     11.809    11.0535 0.0000e+00
      8.385      0.178     8.4421     77.585     48.591  34.999318     0.3363      6.863   304.0218 1.2362e-01     7.8121      8.216     11.915    11.0716 0.0000e+00
      8.465      0.190     8.4995     77.593     48.585  34.987878     0.3483      6.863   304.0912 1.2360e-01     7.8104      8.314     12.058    11.0667 0.0000e+00
      8.526      0.185     8.5409     77.551     48.609  35.000566     0.3602      6.863   304.1229 1.2365e-01     7.7937      8.368     12.136    11.0383 0.0000e+00
      8.568      0.160     8.5461     77.482     48.643  35.025830     0.3547      6.862   304.1470 1.2370e-01     7.7471      8.403     12.187    11.0195 0.0000e+00
      8.601      0.123     8.5529     77.371     48.650  35.039539     0.3497      6.861   304.3827 1.2369e-01     7.7585      8.438     12.239    11.0104 0.0000e+00
      8.625      0.087     8.5582     77.248     48.629  35.039434     0.3490      6.860   304.8212 1.2364e-01     7.8290      8.461     12.273    11.0031 0.0000e+00
      8.639      0.061     8.5505     77.227     48.588  35.024569     0.3536      6.860   305.0613 1.2365e-01     7.8493      8.474     12.289    10.9979 0.0000e+00
      8.646      0.043     8.5452     77.287     48.527  34.986729     0.3555      6.860   305.1349 1.2373e-01     7.7639      8.478     12.298    10.9969 0.0000e+00
      8.650      0.031     8.5330     77.342     48.499  34.962609     0.3559      6.860   305.1087 1.2378e-01     7.7184      8.482     12.303    11.0065 0.0000e+00
      8.655      0.025     8.5048     77.364     48.545  34.986731     0.3585      6.860   305.0022 1.2380e-01     7.7774      8.488     12.309    11.0243 0.0000e+00
      8.662      0.022     8.5037     77.358     48.609  35.024581     0.3536      6.859   305.1380 1.2384e-01     7.8293      8.494     12.320    11.0426 0.0000e+00
      8.669      0.022     8.5124     77.346     48.635  35.039550     0.3391      6.858   305.4602 1.2381e-01     7.8325      8.501     12.330    11.0514 0.0000e+00
      8.674      0.022     8.5202     77.339     48.638  35.040808     0.3238      6.857   305.6283 1.2370e-01     7.7825      8.507     12.338    11.0438 0.0000e+00
      8.678      0.022     8.5253     77.327     48.634  35.039796     0.3263      6.856   305.7075 1.2362e-01     7.7368      8.510     12.343    11.0311 0.0000e+00
      8.683      0.021     8.5246     77.301     48.612  35.027316     0.3366      6.855   305.8151 1.2365e-01     7.7587      8.515     12.350    11.0228 0.0000e+00
      8.689      0.020     8.5239     77.267     48.593  35.016821     0.3321      6.855   305.8971 1.2374e-01     7.7740      8.521     12.359    11.0197 0.0000e+00
      8.696      0.019     8.5236     77.249     48.624  35.039799     0.3218      6.855   306.0107 1.2379e-01     7.7169      8.527     12.368    11.0187 0.0000e+00
      8.702      0.017     8.5225     77.246     48.639  35.051336     0.3202      6.854   306.2422 1.2379e-01     7.6831      8.535     12.378    11.0204 0.0000e+00
      8.706      0.014     8.5186     77.242     48.609  35.029416     0.3294      6.853   306.4591 1.2371e-01     7.7411      8.538     12.384    11.0253 0.0000e+00
      8.708      0.011     8.5125     77.246     48.608  35.028576     0.3500      6.852   306.5690 1.2364e-01     7.7692      8.539     12.385    11.0285 0.0000e+00
      8.709      0.008     8.5108     77.276     48.624  35.041169     0.3535      6.851   306.6248 1.2368e-01     7.7160      8.541     12.387    11.0293 0.0000e+00
      8.710      0.006     8.5117     77.327     48.641  35.054785     0.3298      6.851   306.7034 1.2369e-01     7.6784      8.542     12.389    11.0291 0.0000e+00
      8.712      0.006     8.5107     77.362     48.651  35.066312     0.3210      6.849   306.8313 1.2364e-01     7.6891      8.544     12.391    11.0287 0.0000e+00
      8.713      0.007     8.5101     77.382     48.626  35.053639     0.3298      6.847   307.0522 1.2364e-01     7.7091      8.545     12.393    11.0286 0.0000e+00
      8.715      0.007     8.5130     77.408     48.585  35.028469     0.3371      6.846   307.3097 1.2372e-01     7.7161      8.547     12.396    11.0297 0.0000e+00
      8.717      0.008     8.5210     77.439     48.567  35.015779     0.3343      6.845   307.3642 1.2378e-01     7.7051      8.549     12.399    11.0309 0.0000e+00
      8.719      0.008     8.5239     77.453     48.587  35.027107     0.3206      6.845   307.3664 1.2375e-01     7.7122      8.550     12.401    11.0344 0.0000e+00
      8.722      0.007     8.5230     77.431     48.608  35.038530     0.3216      6.845   307.5079 1.2366e-01     7.7332      8.553     12.405    11.0422 0.0000e+00
      8.725      0.003     8.5246     77.371     48.594  35.026994     0.3366      6.844   307.7839 1.2357e-01     7.7542      8.556     12.409    11.0478 0.0000e+00
      8.727     -0.007     8.5301     77.311     48.573  35.014522     0.3451      6.844   308.2086 1.2356e-01     7.7954      8.560     12.413    11.0474 0.0000e+00
      8.728     -0.024     8.5321     77.286     48.565  35.014635     0.3403      6.843   308.5136 1.2367e-01     7.7876      8.561     12.416    11.0434 0.0000e+00
      8.725     -0.051     8.5322     77.264     48.576  35.028373     0.3288      6.843   308.5456 1.2378e-01     7.7628      8.559     12.414    11.0386 0.0000e+00
      8.714     -0.091     8.5235     77.226     48.604  35.053733     0.3312      6.844   308.5094 1.2385e-01     7.8023      8.549     12.399    11.0360 0.0000e+00
      8.691     -0.146     8.5139     77.185     48.615  35.067471     0.3441      6.846   308.4204 1.2387e-01     7.8214      8.526     12.366    11.0384 0.0000e+00
      8.657     -0.211     8.5126     77.160     48.609  35.067584     0.3427      6.847   308.2444 1.2377e-01     7.7545      8.495     12.321    11.0483 0.0000e+00
      8.602     -0.277     8.5089     77.153     48.589  35.055113     0.3313      6.848   308.1883 1.2365e-01     7.7108      8.449     12.253    11.0536 0.0000e+00
      8.515     -0.340     8.5040     77.166     48.572  35.043587     0.3393      6.848   308.3433 1.2358e-01     7.7713      8.360     12.125    11.0567 0.0000e+00
      8.402     -0.396     8.4961     77.196     48.590  35.055122     0.3564      6.847   308.4842 1.2357e-01     7.8376      8.239     11.950    11.0656 0.0000e+00
      8.284     -0.440     8.4935     77.231     48.613  35.067687     0.3551      6.847   308.2575 1.2365e-01     7.8288      8.121     11.778    11.0687 0.0000e+00
      8.167     -0.466     8.4920     77.251     48.618  35.068622     0.3481      6.847   307.9259 1.2368e-01     7.7672      8.013     11.623    11.0699 0.0000e+00
      8.043     -0.470     8.4934     77.288     48.618  35.066419     0.3385      6.846   308.0022 1.2362e-01     7.7074      7.890     11.445    11.0729 0.0000e+00
      7.911     -0.450     8.4966     77.372     48.590  35.041050     0.3310      6.845   308.3189 1.2361e-01     7.7207      7.755     11.249    11.0704 0.0000e+00
      7.784     -0.402     8.5041     77.443     48.565  35.015681     0.3414      6.844   308.6578 1.2360e-01     7.7912      7.630     11.066    11.0639 0.0000e+00
      7.672     -0.320     8.5052     77.488     48.572  35.013480     0.3479      6.844   308.9170 1.2360e-01     7.8090      7.516     10.901    11.0627 0.0000e+00
      7.580     -0.217     8.5048     77.529     48.584  35.014425     0.3336      6.845   308.9574 1.2360e-01     7.7655      7.425     10.769    11.0625 0.0000e+00
      7.521     -0.126     8.5224     77.567     48.611  35.027085     0.3186      6.846   308.8875 1.2362e-01     7.7425      7.353     10.664    11.0558 0.0000e+00
      7.522     -0.076     8.5301     77.578     48.634  35.039660     0.3255      6.846   308.8467 1.2372e-01     7.7704      7.349     10.659    11.0479 0.0000e+00
      7.581     -0.060     8.5356     77.541     48.634  35.039565     0.3419      6.846   308.8932 1.2375e-01     7.7956      7.436     10.785    11.0403 0.0000e+00
      7.632     -0.053     8.5419     77.457     48.611  35.025941     0.3415      6.845   309.1060 1.2370e-01     7.7741      7.518     10.904    11.0316 0.0000e+00
      7.604     -0.040     8.5481     77.353     48.576  35.001830     0.3370      6.845   309.4411 1.2363e-01     7.7490      7.491     10.866    11.0244 0.0000e+00
      7.504     -0.031     8.5522     77.276     48.581  35.001830     0.3375      6.844   309.6764 1.2359e-01     7.7658      7.347     10.656    11.0202 0.0000e+00
      7.430     -0.039     8.5470     77.224     48.621  35.025941     0.3391      6.844   309.6275 1.2362e-01     7.8060      7.240     10.500    11.0201 0.0000e+00
      7.451     -0.056     8.5370     77.183     48.643  35.039566     0.3482      6.844   309.5379 1.2368e-01     7.8251      7.283     10.563    11.0250 0.0000e+00
      7.531     -0.064     8.5208     77.172     48.641  35.039669     0.3478      6.843   309.7118 1.2373e-01     7.7916      7.401     10.734    11.0276 0.0000e+00
      7.575     -0.058     8.5148     77.194     48.619  35.027187     0.3425      6.842   309.8375 1.2374e-01     7.7774      7.468     10.832    11.0225 0.0000e+00
      7.525     -0.053     8.5119     77.227     48.602  35.015547     0.3507      6.842   309.8525 1.2370e-01     7.8234      7.408     10.743    11.0159 0.0000e+00
      7.416     -0.054     8.5055     77.254     48.621  35.025836     0.3552      6.841   309.9786 1.2369e-01     7.8361      7.253     10.520    11.0128 0.0000e+00
      7.346     -0.047     8.5045     77.284     48.626  35.024684     0.3473      6.841   310.0718 1.2372e-01     7.7951      7.163     10.389    11.0151 0.0000e+00
      7.363     -0.018     8.5067     77.321     48.598  35.001603     0.3384      6.841   310.1188 1.2367e-01     7.7373      7.205     10.452    11.0203 0.0000e+00
      7.425      0.026     8.5113     77.338     48.598  35.000563     0.3394      6.840   310.2891 1.2361e-01     7.7173      7.293     10.578    11.0215 0.0000e+00
      7.473      0.059     8.5144     77.323     48.613  35.012107     0.3509      6.840   310.4965 1.2357e-01     7.7585      7.341     10.648    11.0167 0.0000e+00
      7.489      0.064     8.5182     77.290     48.616  35.014291     0.3610      6.839   310.5615 1.2354e-01     7.7917      7.349     10.659    11.0108 0.0000e+00
      7.485      0.046     8.5250     77.265     48.633  35.026961     0.3533      6.838   310.6443 1.2357e-01     7.7766      7.343     10.649    11.0074 0.0000e+00
      7.475      0.026     8.5271     77.268     48.650  35.038402     0.3326      6.837   310.8098 1.2364e-01     7.7466      7.329     10.630    11.0073 0.0000e+00
      7.470      0.014     8.5243     77.280     48.634  35.025722     0.3269      6.837   310.9273 1.2369e-01     7.7360      7.317     10.613    11.0088 0.0000e+00
      7.483      0.011     8.5200     77.294     48.599  35.000552     0.3339      6.836   311.0327 1.2367e-01     7.7513      7.334     10.636    11.0090 0.0000e+00
      7.503      0.015     8.5153     77.330     48.578  34.987862     0.3678      6.835   311.1382 1.2368e-01     7.7611      7.366     10.683    11.0091 0.0000e+00
      7.508      0.022     8.5177     77.380     48.592  34.999189     0.4369      6.834   311.1703 1.2380e-01     7.7516      7.371     10.690    11.0078 0.0000e+00
      7.498      0.024     8.5205     77.435     48.610  35.010612     0.4784      6.833   311.1633 1.2384e-01     7.7390      7.349     10.660    11.0053 0.0000e+00
      7.494      0.019     8.5192     77.482     48.596  34.999076     0.4959      6.833   311.2255 1.2374e-01     7.7446      7.341     10.647    11.0059 0.0000e+00
      7.508      0.012     8.5242     77.506     48.580  34.986604     0.4979      6.833   311.4063 1.2366e-01     7.8198      7.361     10.676    11.0094 0.0000e+00
      7.526      0.008     8.5291     77.516     48.578  34.986717     0.4529      6.832   311.6277 1.2364e-01     7.8973      7.386     10.712    11.0115 0.0000e+00
      7.531      0.003     8.5359     77.506     48.593  35.000446     0.4096      6.832   311.6657 1.2364e-01     7.9300      7.391     10.720    11.0094 0.0000e+00
      7.522     -0.008     8.5434     77.482     48.624  35.025702     0.3910      6.832   311.5221 1.2369e-01     7.9420      7.377     10.698    11.0068 0.0000e+00
      7.511     -0.026     8.5438     77.453     48.638  35.038297     0.3692      6.832   311.4398 1.2369e-01     7.9050      7.363     10.679    11.0064 0.0000e+00
      7.506     -0.041     8.5467     77.423     48.616  35.025836     0.3462      6.832   311.4447 1.2364e-01     7.8249      7.360     10.675    11.0075 0.0000e+00
      7.499     -0.049     8.5437     77.412     48.578  35.001933     0.3288      6.831   311.4093 1.2365e-01     7.7246      7.357     10.672    11.0109 0.0000e+00
      7.483     -0.054     8.5401     77.424     48.576  35.003086     0.3249      6.830   311.4415 1.2368e-01     7.6827      7.342     10.648    11.0140 0.0000e+00
      7.462     -0.062     8.5370     77.439     48.624  35.039782     0.3334      6.828   311.5768 1.2363e-01     7.7292      7.314     10.608    11.0162 0.0000e+00
      7.444     -0.077     8.5312     77.447     48.654  35.064933     0.3392      6.828   311.4960 1.2357e-01     7.7741      7.297     10.583    11.0200 0.0000e+00
      7.432     -0.095     8.5297     77.456     48.635  35.053387     0.3449      6.829   311.2396 1.2359e-01     7.7464      7.291     10.575    11.0239 0.0000e+00
      7.415     -0.112     8.5306     77.462     48.598  35.027092     0.3522      6.830   311.2298 1.2368e-01     7.7021      7.277     10.554    11.0268 0.0000e+00
      7.384     -0.124     8.5338     77.474     48.560  35.000797     0.3523      6.829   311.4629 1.2374e-01     7.7170      7.247     10.511    11.0289 0.0000e+00
      7.339     -0.131     8.5317     77.488     48.542  34.989253     0.3464      6.828   311.7346 1.2376e-01     7.7557      7.199     10.442    11.0327 0.0000e+00
      7.290     -0.132     8.5337     77.485     48.577  35.014413     0.3484      6.828   311.9339 1.2376e-01     7.7941      7.145     10.363    11.0354 0.0000e+00
      7.249     -0.128     8.5337     77.485     48.629  35.051203     0.3507      6.828   311.8939 1.2372e-01     7.8061      7.103     10.303    11.0342 0.0000e+00
      7.224     -0.121     8.5340     77.488     48.634  35.053386     0.3329      6.827   311.7675 1.2366e-01     7.7649      7.082     10.271    11.0356 0.0000e+00
      7.207     -0.114     8.5380     77.465     48.614  35.040809     0.3247      6.827   311.6963 1.2367e-01     7.7398      7.069     10.253    11.0387 0.0000e+00
      7.187     -0.109     8.5349     77.433     48.588  35.026040     0.3429      6.827   311.6347 1.2368e-01     7.7754      7.051     10.228    11.0384 0.0000e+00
      7.157     -0.108     8.5354     77.411     48.550  35.001711     0.3451      6.827   311.7108 1.2364e-01     7.7856      7.021     10.183    11.0361 0.0000e+00
      7.121     -0.112     8.5387     77.402     48.548  35.000453     0.3267      6.826   311.8425 1.2367e-01     7.7256      6.982     10.126    11.0350 0.0000e+00
      7.087     -0.116     8.5340     77.423     48.567  35.010834     0.3194      6.825   311.6791 1.2375e-01     7.6992      6.946     10.075    11.0364 0.0000e+00
      7.060     -0.118     8.5287     77.444     48.557  35.000319     0.3318      6.824   311.3697 1.2374e-01     7.7742      6.922     10.040    11.0408 0.0000e+00
      7.036     -0.116     8.5265     77.445     48.561  35.000214     0.3525      6.823   311.2848 1.2368e-01     7.8471      6.901     10.010    11.0461 0.0000e+00
      7.008     -0.109     8.5228     77.450     48.576  35.009565     0.3535      6.823   311.3406 1.2369e-01     7.8282      6.875      9.972    11.0463 0.0000e+00
      6.975     -0.100     8.5282     77.459     48.546  34.986484     0.3350      6.822   311.4424 1.2375e-01     7.7852      6.840      9.921    11.0417 0.0000e+00
      6.941     -0.090     8.5335     77.455     48.535  34.974938     0.3287      6.821   311.6544 1.2379e-01     7.7716      6.803      9.867    11.0370 0.0000e+00
      6.916     -0.081     8.5309     77.431     48.572  34.996867     0.3438      6.820   311.9261 1.2374e-01     7.7669      6.778      9.830    11.0338 0.0000e+00
      6.904     -0.072     8.5331     77.390     48.577  34.997822     0.3513      6.820   312.0598 1.2369e-01     7.7284      6.769      9.818    11.0333 0.0000e+00
      6.898     -0.065     8.5343     77.353     48.562  34.986475     0.3359      6.819   311.9807 1.2368e-01     7.6811      6.767      9.814    11.0333 0.0000e+00
      6.888     -0.062     8.5350     77.341     48.561  34.986578     0.3317      6.818   311.8300 1.2363e-01     7.7076      6.758      9.801    11.0286 0.0000e+00
      6.868     -0.065     8.5337     77.342     48.578  34.999068     0.3339      6.818   312.0441 1.2359e-01     7.7751      6.735      9.769    11.0225 0.0000e+00
      6.846     -0.073     8.5288     77.335     48.594  35.010586     0.3289      6.818   312.5043 1.2364e-01     7.8144      6.710      9.731    11.0194 0.0000e+00
      6.828     -0.076     8.5236     77.333     48.578  34.998946     0.3301      6.818   312.6620 1.2366e-01     7.8074      6.695      9.709    11.0195 0.0000e+00
      6.810     -0.068     8.5223     77.345     48.559  34.985226     0.3238      6.817   312.6603 1.2367e-01     7.7588      6.682      9.691    11.0212 0.0000e+00
      6.785     -0.052     8.5251     77.384     48.543  34.971601     0.3272      6.814   312.5702 1.2376e-01     7.7386      6.654      9.651    11.0209 0.0000e+00
      6.761     -0.035     8.5215     77.421     48.533  34.961106     0.3465      6.811   312.4331 1.2380e-01     7.7686      6.623      9.606    11.0203 0.0000e+00
      6.755     -0.019     8.5228     77.427     48.571  34.985219     0.3500      6.808   312.7236 1.2374e-01     7.7788      6.619      9.600    11.0211 0.0000e+00
      6.764     -0.004     8.5216     77.433     48.608  35.009349     0.3360      6.807   313.3286 1.2367e-01     7.7601      6.633      9.622    11.0217 0.0000e+00
      6.775      0.009     8.5280     77.452     48.594  34.999061     0.3268      6.806   313.5536 1.2364e-01     7.7466      6.647      9.641    11.0199 0.0000e+00
      6.780      0.015     8.5361     77.479     48.578  34.987735     0.3385      6.806   313.4661 1.2362e-01     7.7532      6.652      9.649    11.0155 0.0000e+00
      6.780      0.008     8.5334     77.491     48.594  34.999300     0.3524      6.807   313.3031 1.2365e-01     7.7716      6.646      9.640    11.0114 0.0000e+00
      6.783     -0.010     8.5359     77.474     48.609  35.011990     0.3448      6.809   313.0446 1.2370e-01     7.8322      6.649      9.643    11.0090 0.0000e+00
      6.789     -0.035     8.5369     77.456     48.609  35.014278     0.3295      6.809   313.1797 1.2370e-01     7.9062      6.662      9.662    11.0085 0.0000e+00
      6.784     -0.064     8.5416     77.472     48.621  35.026967     0.3255      6.810   313.6462 1.2369e-01     7.9141      6.660      9.659    11.0088 0.0000e+00
      6.762     -0.100     8.5436     77.514     48.631  35.038521     0.3307      6.811   313.8674 1.2367e-01     7.9275      6.636      9.624    11.0097 0.0000e+00
      6.728     -0.140     8.5404     77.559     48.611  35.027079     0.3421      6.811   313.7890 1.2360e-01     7.8971      6.600      9.573    11.0102 0.0000e+00
      6.687     -0.179     8.5353     77.570     48.592  35.015533     0.3469      6.812   313.6446 1.2358e-01     7.7507      6.561      9.517    11.0125 0.0000e+00
      6.637     -0.206     8.5373     77.541     48.601  35.025820     0.3381      6.812   313.6696 1.2363e-01     7.6615      6.514      9.447    11.0183 0.0000e+00
      6.573     -0.212     8.5420     77.555     48.592  35.024562     0.3276      6.811   313.9191 1.2370e-01     7.6729      6.449      9.353    11.0230 0.0000e+00
      6.502     -0.197     8.5472     77.610     48.556  35.000327     0.3278      6.809   314.1665 1.2380e-01     7.7173      6.375      9.246    11.0258 0.0000e+00
      6.435     -0.164     8.5511     77.607     48.543  34.986597     0.3409      6.806   314.2515 1.2396e-01     7.7542      6.304      9.144    11.0269 0.0000e+00
      6.385     -0.121     8.5404     77.536     48.552  34.985453     0.3441      6.805   314.2588 1.2581e-01     7.7431      6.249      9.064    11.0303 0.0000e+00
      6.367     -0.080     8.5399     77.473     48.563  34.986485     0.3334      6.804   314.1687 1.3054e-01     7.7539      6.234      9.042    11.0380 0.0000e+00
      6.375     -0.049     8.5531     77.445     48.586  34.999070     0.3277      6.803   314.0225 1.3215e-01     7.7825      6.251      9.065    11.0408 0.0000e+00
      6.389     -0.035     8.5534     77.427     48.604  35.010709     0.3341      6.803   314.0402 1.2858e-01     7.7815      6.269      9.092    11.0354 0.0000e+00
      6.392     -0.036     8.5426     77.408     48.589  35.000318     0.3359      6.805   314.2106 1.2671e-01     7.7762      6.275      9.101    11.0262 0.0000e+00
      6.378     -0.049     8.5362     77.385     48.586  35.000328     0.3244      6.806   314.3617 1.3283e-01     7.7525      6.260      9.080    11.0181 0.0000e+00
      6.350     -0.066     8.5364     77.371     48.598  35.010833     0.3283      6.806   314.4048 1.4507e-01     7.7345      6.227      9.032    11.0135 0.0000e+00
      6.319     -0.082     8.5341     77.388     48.582  35.000442     0.3499      6.804   314.3870 1.4934e-01     7.7631      6.192      8.981    11.0128 0.0000e+00
      6.298     -0.096     8.5322     77.421     48.582  35.001587     0.3613      6.804   314.3184 1.4638e-01     7.7908      6.173      8.953    11.0137 0.0000e+00
      6.284     -0.109     8.5295     77.451     48.611  35.024678     0.3575      6.806   314.2637 1.5259e-01     7.7623      6.165      8.942    11.0161 0.0000e+00
      6.264     -0.124     8.5244     77.458     48.610  35.025842     0.3445      6.806   314.4141 1.6419e-01     7.6917      6.148      8.916    11.0191 0.0000e+00
      6.230     -0.145     8.5289     77.444     48.593  35.015658     0.3375      6.807   314.5888 1.7055e-01     7.6542      6.113      8.866    11.0188 0.0000e+00
      6.187     -0.173     8.5319     77.442     48.606  35.028450     0.3401      6.808   314.6548 1.8167e-01     7.7188      6.068      8.803    11.0203 0.0000e+00
      6.137     -0.203     8.5360     77.459     48.636  35.053620     0.3346      6.808   314.6098 1.9912e-01     7.8233      6.019      8.729    11.0233 0.0000e+00
      6.082     -0.225     8.5370     77.493     48.654  35.066186     0.3291      6.807   314.4754 2.2280e-01     7.8251      5.966      8.653    11.0245 0.0000e+00
      6.021     -0.226     8.5321     77.544     48.639  35.053496     0.3231      6.805   314.4922 2.5885e-01     7.7398      5.908      8.569    11.0269 0.0000e+00
      5.949     -0.205     8.5316     77.602     48.606  35.027077     0.3202      6.802   314.5555 3.0123e-01     7.7144      5.836      8.464    11.0313 0.0000e+00
      5.874     -0.168     8.5330     77.650     48.575  35.000554     0.3363      6.800   314.6377 3.4089e-01     7.7581      5.754      8.345    11.0358 0.0000e+00
      5.819     -0.122     8.5362     77.662     48.563  34.986608     0.3426      6.799   314.8837 3.5121e-01     7.7552      5.688      8.250    11.0351 0.0000e+00
      5.804     -0.076     8.5433     77.649     48.568  34.985341     0.3296      6.799   314.9489 3.4431e-01     7.7130      5.680      8.238    11.0312 0.0000e+00
      5.818     -0.035     8.5506     77.659     48.572  34.985236     0.3217      6.800   314.7384 3.5318e-01     7.7261      5.710      8.281    11.0294 0.0000e+00
      5.833     -0.006     8.5577     77.648     48.572  34.985330     0.3299      6.800   314.6611 3.5398e-01     7.7778      5.725      8.303    11.0253 0.0000e+00
      5.836      0.005     8.5620     77.591     48.571  34.986483     0.3373      6.800   314.7889 3.3833e-01     7.7918      5.724      8.303    11.0185 0.0000e+00
      5.833     -0.002     8.5552     77.536     48.586  34.999173     0.3277      6.800   314.9927 3.2759e-01     7.7581      5.722      8.298    11.0137 0.0000e+00
      5.827     -0.022     8.5617     77.492     48.601  35.011863     0.3307      6.800   315.2327 3.2543e-01     7.7460      5.712      8.285    11.0106 0.0000e+00
      5.824     -0.047     8.5629     77.463     48.601  35.013025     0.3401      6.800   315.2807 3.2804e-01     7.7822      5.709      8.280    11.0104 0.0000e+00
      5.819     -0.077     8.5503     77.464     48.599  35.013225     0.3331      6.800   315.1434 3.4246e-01     7.8199      5.713      8.285    11.0133 0.0000e+00
      5.802     -0.115     8.5464     77.497     48.594  35.014284     0.3293      6.801   315.1218 3.6506e-01     7.8954      5.696      8.262    11.0153 0.0000e+00
      5.767     -0.160     8.5400     77.526     48.603  35.025839     0.3270      6.801   315.1918 3.8922e-01     8.0458      5.659      8.208    11.0167 0.0000e+00
      5.721     -0.206     8.5361     77.524     48.598  35.026046     0.3303      6.801   315.3007 4.3651e-01     8.2028      5.616      8.146    11.0177 0.0000e+00
      5.659     -0.243     8.5356     77.550     48.582  35.016796     0.3449      6.801   315.4918 4.9383e-01     8.2914      5.555      8.058    11.0192 0.0000e+00
      5.582     -0.258     8.5392     77.643     48.612  35.040908     0.3450      6.799   315.6097 5.4224e-01     8.2625      5.475      7.940    11.0244 0.0000e+00
      5.497     -0.248     8.5451     77.738     48.642  35.063781     0.3306      6.795   315.6074 6.0438e-01     8.0590      5.391      7.819    11.0304 0.0000e+00
      5.416     -0.213     8.5392     77.784     48.609  35.039555     0.3213      6.794   315.6359 6.6986e-01     7.7770      5.306      7.696    11.0337 0.0000e+00
      5.351     -0.164     8.5390     77.806     48.562  35.001789     0.3239      6.793   315.6099 7.0608e-01     7.6891      5.234      7.591    11.0367 0.0000e+00
      5.319     -0.112     8.5534     77.827     48.552  34.987853     0.3369      6.791   315.5516 7.0981e-01     7.7813      5.205      7.548    11.0387 0.0000e+00
      5.319     -0.067     8.5663     77.842     48.575  34.997943     0.3450      6.790   315.7061 6.9273e-01     7.8327      5.212      7.559    11.0401 0.0000e+00
      5.329     -0.035     8.5687     77.849     48.580  34.996875     0.3393      6.790   315.8425 6.7006e-01     7.8317      5.229      7.585    11.0409 0.0000e+00
      5.334     -0.020     8.5709     77.850     48.553  34.974936     0.3266      6.791   315.7386 6.6317e-01     7.8039      5.236      7.595    11.0362 0.0000e+00
      5.328     -0.023     8.5761     77.806     48.570  34.986482     0.3251      6.792   315.7403 6.7657e-01     7.7707      5.227      7.581    11.0279 0.0000e+00
      5.315     -0.038     8.5789     77.696     48.602  35.009572     0.3536      6.793   315.8631 6.9572e-01     7.7712      5.210      7.557    11.0214 0.0000e+00
      5.302     -0.062     8.5795     77.586     48.586  35.000324     0.3877      6.794   315.8470 7.1009e-01     7.7407      5.199      7.541    11.0169 0.0000e+00
      5.291     -0.094     8.5822     77.526     48.582  35.001573     0.3889      6.794   315.8896 7.2477e-01     7.7101      5.190      7.528    11.0143 0.0000e+00
      5.275     -0.135     8.5805     77.533     48.608  35.024671     0.3761      6.794   315.9478 7.5188e-01     7.7088      5.177      7.508    11.0132 0.0000e+00
      5.245     -0.180     8.5631     77.598     48.605  35.025815     0.3659      6.795   315.8632 7.9798e-01     7.6913      5.152      7.472    11.0133 0.0000e+00
      5.193     -0.225     8.5489     77.664     48.584  35.015413     0.3489      6.796   315.8990 8.7882e-01     7.7040      5.101      7.400    11.0163 0.0000e+00
      5.118     -0.255     8.5413     77.704     48.590  35.025804     0.3281      6.794   315.8638 1.0067e+00     7.7251      5.024      7.286    11.0210 0.0000e+00
      5.028     -0.260     8.5402     77.726     48.581  35.024555     0.3144      6.791   315.5242 1.1489e+00     7.7420      4.932      7.153    11.0252 0.0000e+00
      4.938     -0.236     8.5512     77.745     48.545  35.000321     0.3251      6.787   315.3197 1.2769e+00     7.7708      4.839      7.018    11.0278 0.0000e+00
      4.863     -0.188     8.5575     77.755     48.530  34.986592     0.3412      6.786   315.2852 1.3742e+00     7.7657      4.756      6.899    11.0329 0.0000e+00
      4.819     -0.129     8.5603     77.725     48.539  34.985458     0.3344      6.786   315.1058 1.4077e+00     7.7491      4.712      6.835    11.0401 0.0000e+00
      4.809     -0.074     8.5608     77.629     48.551  34.986603     0.3174      6.786   314.8722 1.3957e+00     7.7070      4.709      6.831    11.0453 0.0000e+00
      4.821     -0.036     8.5621     77.498     48.577  35.000427     0.3105      6.786   314.6971 1.3672e+00     7.6660      4.726      6.855    11.0488 0.0000e+00
      4.838     -0.021     8.5658     77.392     48.614  35.025702     0.3343      6.788   314.7101 1.3314e+00     7.6977      4.748      6.887    11.0450 0.0000e+00
      4.843     -0.027     8.5654     77.297     48.629  35.038400     0.3796      6.788   314.7706 1.3260e+00     7.7484      4.757      6.898    11.0356 0.0000e+00
      4.831     -0.047     8.5566     77.215     48.609  35.027064     0.4015      6.788   314.6537 1.3659e+00     7.7673      4.741      6.875    11.0275 0.0000e+00
      4.806     -0.069     8.5366     77.181     48.589  35.015538     0.3914      6.787   314.5885 1.4218e+00     7.7550      4.714      6.837    11.0226 0.0000e+00
      4.777     -0.088     8.5298     77.192     48.600  35.025940     0.3738      6.786   314.4121 1.4772e+00     7.7715      4.685      6.794    11.0211 0.0000e+00
      4.749     -0.104     8.5183     77.239     48.597  35.025941     0.3629      6.786   313.9841 1.5320e+00     7.7948      4.654      6.750    11.0225 0.0000e+00
      4.725     -0.123     8.5050     77.314     48.581  35.015548     0.3593      6.788   313.7150 1.5775e+00     7.7641      4.632      6.718    11.0269 0.0000e+00
      4.703     -0.149     8.5029     77.401     48.596  35.027188     0.3550      6.788   313.6531 1.6190e+00     7.7421      4.613      6.692    11.0305 0.0000e+00
      4.673     -0.184     8.5027     77.479     48.612  35.039783     0.3441      6.787   313.4947 1.6997e+00     7.7336      4.589      6.656    11.0325 0.0000e+00
      4.625     -0.226     8.5084     77.536     48.612  35.040936     0.3356      6.787   313.1762 1.8460e+00     7.7292      4.544      6.589    11.0345 0.0000e+00
      4.559     -0.268     8.5166     77.548     48.610  35.041135     0.3363      6.787   312.8996 2.0365e+00     7.7911      4.475      6.491    11.0361 0.0000e+00
      4.476     -0.301     8.5275     77.509     48.609  35.042185     0.3361      6.787   312.8168 2.2798e+00     7.8329      4.394      6.372    11.0367 0.0000e+00
      4.381     -0.317     8.5354     77.429     48.623  35.053636     0.3406      6.786   312.8635 2.5974e+00     7.7907      4.297      6.232    11.0375 0.0000e+00
      4.285     -0.311     8.5435     77.325     48.622  35.052691     0.3585      6.784   312.9485 2.9454e+00     7.7936      4.199      6.090    11.0387 0.0000e+00
      4.196     -0.288     8.5442     77.225     48.592  35.030765     0.3770      6.780   312.9841 3.2514e+00     7.8334      4.111      5.963    11.0399 0.0000e+00
      4.121     -0.257     8.5393     77.124     48.610  35.042329     0.3898      6.775   312.9501 3.4649e+00     7.7944      4.035      5.853    11.0427 0.0000e+00
      4.066     -0.230     8.5296     77.032     48.642  35.065618     0.3803      6.771   312.8806 3.5864e+00     7.6973      3.980      5.772    11.0444 0.0000e+00
      4.028     -0.211     8.5162     76.983     48.625  35.058556     0.3535      6.771   312.7470 3.6799e+00     7.6839      3.948      5.725    11.0436 0.0000e+00
      3.993     -0.203     8.5064     76.961     48.645  35.083846     0.3396      6.773   312.6246 3.8499e+00     7.7692      3.922      5.689    11.0437 0.0000e+00
      3.945     -0.203     8.4958     76.937     48.678  35.117616     0.3378      6.775   312.6912 4.1258e+00     7.8061      3.875      5.621    11.0421 0.0000e+00
      3.882     -0.212     8.4824     76.892     48.628  35.086171     0.3394      6.776   312.9498 4.4328e+00     7.7545      3.806      5.521    11.0393 0.0000e+00
      3.818     -0.222     8.4783     76.757     48.621  35.084354     0.3345      6.777   313.1700 4.7374e+00     7.6924      3.739      5.424    11.0451 0.0000e+00
      3.760     -0.227     8.4747     76.449     48.716  35.159108     0.3280      6.777   313.2892 5.0773e+00     7.7042      3.687      5.348    11.0593 0.0000e+00
      3.705     -0.225     8.4686     75.963     48.791  35.228622     0.3280      6.778   313.2727 5.4405e+00     7.7607      3.635      5.273    11.0707 0.0000e+00
      3.646     -0.220     8.4671     75.433     48.848  35.290364     0.3348      6.778   313.0561 5.7583e+00     7.7952      3.575      5.184    11.0740 0.0000e+00
      3.590     -0.218     8.4545     74.931     48.880  35.334600     0.3515      6.777   312.9074 6.0423e+00     7.8471      3.518      5.102    11.0762 0.0000e+00
      3.538     -0.218     8.4233     74.353     48.830  35.319348     0.3638      6.777   312.7653 6.3335e+00     7.9096      3.470      5.032    11.0799 0.0000e+00
      3.485     -0.217     8.3573     73.582     48.780  35.296318     0.3759      6.776   312.3704 6.6538e+00     7.9364      3.421      4.961    11.0963 0.0000e+00
      3.429     -0.216     8.2900     72.526     48.798  35.309969     0.3979      6.776   311.9193 7.0336e+00     7.9664      3.363      4.878    11.1207 0.0000e+00
      3.371     -0.215     8.2388     71.100     48.864  35.357509     0.4547      6.776   311.4399 7.4621e+00     7.9652      3.303      4.791    11.1398 0.0000e+00
      3.315     -0.211     8.1739     69.367     49.037  35.490417     0.5295      6.775   310.9626 7.9351e+00     7.8535      3.251      4.715    11.1668 0.0000e+00
      3.260     -0.205     8.0892     67.586     49.484  35.838283     0.5532      6.774   310.6228 8.4460e+00     7.7090      3.198      4.638    11.1825 0.0000e+00
      3.207     -0.200     7.9787     65.950     50.253  36.454417     0.5580      6.773   309.2239 8.9226e+00     7.6521      3.143      4.558    11.1781 0.0000e+00
      3.159     -0.195     7.8234     64.525     51.085  37.165864     0.5787      6.773   304.2869 9.3621e+00     7.6433      3.097      4.493    11.1727 0.0000e+00
      3.114     -0.193     7.6161     63.316     51.656  37.714233     0.5880      6.772   295.4125 9.8516e+00     7.6028      3.056      4.432    11.1810 0.0000e+00
      3.068     -0.194     7.4105     62.079     51.731  37.881407     0.5788      6.770   285.4691 1.0419e+01     7.5396      3.010      4.365    11.1983 0.0000e+00
      3.018     -0.198     7.2238     60.350     51.606  37.854666     0.5677      6.767   276.2966 1.1080e+01     7.4596      2.961      4.294    11.2448 0.0000e+00
      2.967     -0.203     7.0429     57.694     52.055  38.215931     0.6117      6.766   267.9659 1.1810e+01     7.3860      2.909      4.219    11.3638 0.0000e+00
      2.915     -0.208     6.8980     53.923     53.339  39.203410     0.6945      6.765   261.1459 1.2559e+01     7.2990      2.859      4.147    11.5107 0.0000e+00
      2.860     -0.210     6.7652     49.266     54.568  40.211492     0.7192      6.762   256.0437 1.3358e+01     7.1939      2.805      4.069    11.6313 0.0000e+00
      2.802     -0.210     6.5856     44.265     54.481  40.313982     0.7112      6.758   251.7033 1.4192e+01     7.1064      2.747      3.984    11.6889 0.0000e+00
      2.747     -0.207     6.3063     39.402     53.523  39.744748     0.8222      6.755   246.6961 1.5026e+01     6.7530      2.692      3.905    11.6992 0.0000e+00
      2.695     -0.200     5.8831     34.812     52.958  39.358277     1.1216      6.753   240.8448 1.5924e+01     6.0976      2.643      3.834    11.7263 0.0000e+00
      2.645     -0.192     5.3444     30.503     52.533  39.004838     1.4253      6.750   235.0749 1.6940e+01     5.6723      2.594      3.763    11.8076 0.0000e+00
      2.595     -0.185     4.7594     26.638     51.974  38.517434     1.5397      6.746   229.9325 1.7988e+01     5.5732      2.543      3.688    12.0065 0.0000e+00
      2.550     -0.181     4.2163     23.363     52.309  38.668828     1.5401      6.741   225.9045 1.8991e+01     5.5487      2.499      3.624    12.1794 0.0000e+00
      2.510     -0.181     3.7304     20.878     54.181  40.010213     1.6459      6.736   222.7665 2.0125e+01     5.3412      2.463      3.572    12.1740 0.0000e+00
      2.468     -0.185     3.2586     19.553     56.558  41.916103     1.8702      6.731   219.6970 2.1529e+01     4.9438      2.422      3.514    12.1264 0.0000e+00
      2.421     -0.190     2.8441     19.632     57.737  43.180337     1.9969      6.729   216.4094 2.3112e+01     4.7053      2.375      3.445    12.0695 0.0000e+00
      2.370     -0.192     2.4949     20.998     57.361  43.363877     2.0121      6.726   213.3019 2.4897e+01     4.6441      2.326      3.374    11.9465 0.0000e+00
      2.315     -0.190     2.2110     23.054     56.390  42.929832     2.0544      6.720   210.2589 2.6880e+01     4.6128      2.271      3.293    11.8572 0.0000e+00
      2.260     -0.187     2.0544     24.834     55.742  42.502837     2.1339      6.709   206.5476 2.8812e+01     4.6008      2.212      3.208    11.9516 0.0000e+00
      2.211     -0.184     2.0462     25.464     55.573  42.326966     2.1913      6.700   203.0176 3.0403e+01     4.6361      2.163      3.138    12.3560 0.0000e+00
      2.173     -0.183     2.1885     24.633     55.379  42.199711     2.2407      6.694   200.5299 3.1761e+01     4.6641      2.131      3.090    12.8725 0.0000e+00
      2.136     -0.184     2.4319     22.674     54.460  41.725882     2.6312      6.690   198.3225 3.3447e+01     4.6662      2.100      3.047    13.1487 0.0000e+00
      2.090     -0.190     2.6537     20.157     53.028  41.104507     3.3423      6.689   196.6342 3.5486e+01     4.7302      2.051      2.975    13.1620 0.0000e+00
      2.039     -0.200     2.7401     17.523     52.223  41.034214     3.7298      6.689   195.6033 3.7549e+01     4.8220      1.998      2.898    13.0520 0.0000e+00
      1.984     -0.213     2.6363     15.020     52.069  41.257536     3.8043      6.689   193.9468 3.9684e+01     4.8881      1.947      2.826    13.0294 0.0000e+00
      1.926     -0.224     2.3950     12.683     51.732  41.075973     4.2354      6.691   191.8335 4.1723e+01     4.9143      1.888      2.739    13.2096 0.0000e+00
      1.866     -0.230     2.0943     10.537     50.862  40.425683     5.0129      6.692   190.1848 4.3392e+01     4.8991      1.829      2.653    13.7165 0.0000e+00
      1.806     -0.231     1.7822      8.695     49.587  39.614667     5.4311      6.690   188.9842 4.4705e+01     4.8755      1.773      2.572    14.3853 0.0000e+00
      1.744     -0.230     1.5184      7.250     48.264  38.949480     5.4806      6.689   187.8140 4.5876e+01     4.8680      1.711      2.481    14.7263 0.0000e+00
      1.684     -0.228     1.2816      6.202     47.332  38.666215     5.6688      6.689   186.3609 4.7009e+01     4.8432      1.648      2.391    14.7088 0.0000e+00
      1.628     -0.223     1.0583      5.406     47.042  38.792227     5.9925      6.690   183.9756 4.7892e+01     4.7459      1.596      2.315    14.6593 0.0000e+00
      1.574     -0.219     0.8658      4.743     47.262  39.077421     6.1480      6.691   180.8277 4.8721e+01     4.6480      1.544      2.241    14.8706 0.0000e+00
      1.518     -0.216     0.7093      4.236     47.489  39.131943     6.1519      6.693   178.8438 4.9829e+01     4.6501      1.487      2.157    15.3161 0.0000e+00
      1.464     -0.211     0.6063      4.043     47.349  38.880098     6.1471      6.694   178.4864 5.0972e+01     4.6694      1.434      2.079    15.8887 0.0000e+00
      1.411     -0.206     0.5263      4.312     46.869  38.570626     6.0486      6.695   178.5717 5.2037e+01     4.5394      1.385      2.008    16.3380 0.0000e+00
      1.356     -0.201     0.4596      4.973     46.147  38.309412     5.8681      6.697   178.1550 5.3025e+01     4.3088      1.329      1.928    16.4496 0.0000e+00
      1.303     -0.195     0.4066      5.875     45.567  38.324023     5.7706      6.699   177.1476 5.3820e+01     4.1703      1.274      1.847    16.2018 0.0000e+00
      1.256     -0.189     0.3799      6.866     45.400  38.557566     5.7602      6.699   175.1676 5.4490e+01     4.1618      1.231      1.785    15.9334 0.0000e+00
      1.212     -0.185     0.4121      7.897     45.423  38.595311     5.7173      6.694   172.8853 5.5269e+01     4.1379      1.190      1.726    16.0652 0.0000e+00
      1.166     -0.187     0.4783      9.067     45.288  38.336181     5.6437      6.689   172.7828 5.6233e+01     4.0514      1.142      1.657    16.4143 0.0000e+00
      1.122     -0.193     0.5633     10.276     44.787  37.962555     5.6030      6.687   174.4451 5.7128e+01     4.0052      1.099      1.594    17.0873 0.0000e+00
      1.078     -0.202     0.6571     11.274     44.098  37.758430     5.5739      6.686   175.7753 5.7951e+01     3.9542      1.061      1.539    17.6695 0.0000e+00
      1.025     -0.211     0.7460     11.984     43.462  37.772366     5.4166      6.684   176.3043 5.8980e+01     3.8453      1.010      1.466    17.5484 0.0000e+00
      0.963     -0.218     0.8689     12.522     42.952  37.877979     5.1408      6.684   176.2815 6.0050e+01     3.7476      0.942      1.368    17.2220 0.0000e+00
      0.901     -0.222     0.9992     13.147     42.590  38.020804     4.9863      6.688   176.1021 6.0991e+01     3.6956      0.880      1.277    17.2129 0.0000e+00
      0.844     -0.222     1.0824     14.059     42.417  38.167276     4.9465      6.693   175.7695 6.2290e+01     3.6604      0.829      1.202    17.7383 0.0000e+00
      0.787     -0.220     1.1311     15.277     42.535  38.380214     4.7260      6.696   175.5301 6.4265e+01     3.6969      0.773      1.121    18.4850 0.0000e+00
      0.732     -0.221     1.1552     16.722     42.947  38.818722     4.3435      6.698   176.1336 6.6662e+01     3.8296      0.715      1.036    19.1123 0.0000e+00
      0.682     -0.223     1.1907     18.223     43.256  39.407896     4.1416      6.702   177.1296 6.9121e+01     3.9322      0.668      0.970    19.7042 0.0000e+00
      0.631     -0.223     1.2670     19.728     43.126  39.919768     4.1164      6.707   177.9349 7.1829e+01     3.9820      0.624      0.906    20.0850 0.0000e+00
      0.569     -0.218     1.3755     21.454     42.783  40.312460     3.9303      6.706   178.3857 7.5068e+01     4.0214      0.563      0.816    20.1527 0.0000e+00
      0.499     -0.211     1.5173     23.809     42.466  40.602985     3.5732      6.698   178.7943 7.8427e+01     4.0669      0.485      0.704    20.0673 0.0000e+00
      0.439     -0.205     1.6480     27.275     42.225  40.831276     3.3769      6.695   180.2938 8.1309e+01     4.1222      0.422      0.612    20.3609 0.0000e+00
      0.396     -0.195     1.7424     31.983     41.892  40.852082     3.3630      6.698   181.0291 8.4116e+01     4.1779      0.386      0.559    21.2697 0.0000e+00
      0.360     -0.176     1.8525     37.647     41.361  40.474264     3.3558      6.700   179.4255 8.8635e+01     4.1940      0.356      0.518    22.1875 0.0000e+00
      0.317     -0.147     2.0112     43.766     41.176  40.071180     3.2638      6.701   178.6287 9.6307e+01     4.2142      0.317      0.461    22.8497 0.0000e+00
      0.265     -0.116     2.2804     49.445     41.524  39.912860     3.1002      6.705   179.8263 1.0362e+02     4.3197      0.257      0.372    23.3876 0.0000e+00
      0.223     -0.085     2.6762     53.620     41.968  39.891985     3.0178      6.712   181.3442 1.0607e+02     4.4106      0.205      0.297    23.8090 0.0000e+00
      0.209     -0.051     3.1418     55.290     42.385  40.071972     3.0243      6.722   182.7851 1.0520e+02     4.4596      0.198      0.288    24.1123 0.0000e+00
      0.216     -0.017     3.7107     54.036     42.579  40.311791     3.1129      6.732   183.7397 1.0264e+02     4.5026      0.212      0.308    23.8176 0.0000e+00
      0.227      0.013     4.2861     50.715     42.532  40.507049     3.2644      6.740   183.7659 9.9040e+01     4.4521      0.223      0.324    22.9911 0.0000e+00
      0.237      0.031     4.7251     46.783     42.577  40.846573     3.3416      6.744   183.6183 9.5634e+01     4.3614      0.232      0.337    22.4307 0.0000e+00
      0.247      0.036     4.9244     43.459     42.611  41.244099     3.3546      6.745   183.6759 9.2105e+01     4.3621      0.243      0.353    22.1378 0.0000e+00
      0.256      0.033     4.7668     41.502     42.315  41.379155     3.2889      6.749   183.3434 8.9111e+01     4.4257      0.252      0.366    22.2404 0.0000e+00
      0.264      0.026     4.3957     41.285     41.807  41.210830     3.1300      6.754   182.2661 8.8059e+01     4.4821      0.259      0.375    22.6324 0.0000e+00
      0.273      0.011     3.9976     42.972     41.489  40.986459     3.0316      6.758   181.0614 8.8824e+01     4.4623      0.268      0.389    22.9193 0.0000e+00
      0.281     -0.012     3.6587     46.219     41.504  40.887739     3.0153      6.759   180.5643 9.0788e+01     4.3915      0.277      0.401    23.3478 0.0000e+00
      0.282     -0.044     3.4478     49.992     41.662  40.905541     3.0411      6.756   180.6437 9.4253e+01     4.3776      0.282      0.408    23.9286 0.0000e+00
      0.271     -0.081     3.3900     53.116     41.780  40.947625     3.1014      6.752   180.9896 1.0061e+02     4.3968      0.272      0.393    24.4047 0.0000e+00
      0.246     -0.118     3.5315     54.953     41.889  41.015680     3.1367      6.751   181.0459 1.1121e+02     4.4196      0.246      0.356    24.4993 0.0000e+00
      0.205     -0.149     3.8567     55.557     41.968  41.093675     3.1272      6.752   180.2916 1.2588e+02     4.4144      0.209      0.302    24.2414 0.0000e+00
      0.150     -0.175     4.2278     55.333     41.951  41.129064     3.0528      6.754   179.3546 1.4578e+02     4.2999      0.149      0.215    24.0437 0.0000e+00
      0.093     -0.195     4.5142     54.675     41.937  41.189792     2.9453      6.756   180.6448 1.6862e+02     4.1958      0.084      0.123    23.9957 0.0000e+00
      0.045     -0.202     4.6693     53.933     41.918  41.256850     2.9003      6.760   186.3407 1.9413e+02     4.2147      0.043      0.062    23.9376 0.0000e+00
      0.000     -0.194     4.7062     53.490     41.951  41.368786     2.8920      6.762   192.7274 2.3947e+02     4.2207      0.006      0.009    23.9194 0.0000e+00
     -0.057     -0.175     4.6685     53.650     42.218  41.718231     2.8784      6.757   192.9919 2.9838e+02     4.1666     -0.053     -0.076    24.0124 0.0000e+00
     -0.117     -0.149     4.5962     54.416     42.264  41.991357     2.8941      6.749   188.0760 3.4326e+02     4.2091     -0.122     -0.178    24.0993 0.0000e+00
     -0.158     -0.117     4.5143     55.608     41.817  41.878900     2.9314      6.750   184.8277 3.7482e+02     4.3239     -0.165     -0.239    24.1957 0.0000e+00
     -0.176     -0.074     4.4534     57.138     41.452  41.691888     2.9551      6.758   184.8632 3.9811e+02     4.3602     -0.174     -0.252    24.3375 0.0000e+00
     -0.186     -0.022     4.4698     59.072     41.427  41.634520     2.9556      6.767   186.0104 4.0817e+02     4.3406     -0.181     -0.263    24.3166 0.0000e+00
     -0.191      0.025     4.5199     61.261     41.517  41.629477     2.9542      6.773   189.4916 4.0536e+02     4.3251     -0.195     -0.282    24.5789 0.0000e+00
     -0.179      0.057     4.5708     63.089     41.582  41.630756     2.9721      6.779   195.1196 3.8883e+02     4.3441     -0.186     -0.270    25.1864 0.0000e+00
     -0.146      0.076     4.6748     64.043     41.628  41.649884     2.9975      6.786   196.1546 3.4147e+02     4.3991     -0.145     -0.209    25.3925 0.0000e+00
     -0.106      0.083     4.8444     64.170     41.651  41.670307     3.0198      6.791   191.6808 2.7362e+02     4.4434     -0.098     -0.142    25.2530 0.0000e+00
     -0.079      0.080     5.0632     63.823     41.654  41.687292     3.0414      6.794   188.8650 2.2338e+02     4.4364     -0.072     -0.104    25.1092 0.0000e+00
     -0.064      0.066     5.2396     63.299     41.668  41.728325     3.0587      6.797   189.1252 1.9381e+02     4.3827     -0.062     -0.089    25.0361 0.0000e+00
     -0.054      0.046     5.3156     62.746     41.688  41.785665     3.0623      6.802   189.5787 1.7922e+02     4.3408     -0.053     -0.075    25.0107 0.0000e+00
     -0.047      0.031     5.3134     62.265     41.729  41.872911     3.0607      6.805   189.3573 1.7447e+02     4.3733     -0.044     -0.063    25.0106 0.0000e+00
     -0.043      0.021     5.2738     61.983     41.743  41.958186     3.0561      6.805   188.8571 1.6862e+02     4.4348     -0.041     -0.060    25.0288 0.0000e+00
     -0.041      0.016     5.2248     62.009     41.682  41.991736     3.0314      6.804   188.5219 1.6651e+02     4.4350     -0.040     -0.058    25.0576 0.0000e+00
     -0.038      0.011     5.1716     62.369     41.639  42.024843     3.0034      6.804   188.7459 1.7012e+02     4.4095     -0.037     -0.054    25.1142 0.0000e+00
     -0.033      0.004     5.1243     63.038     41.673  42.104715     2.9923      6.806   189.4148 1.6802e+02     4.3996     -0.032     -0.046    25.1544 0.0000e+00
     -0.028     -0.005     5.0892     63.894     41.655  42.132437     2.9971      6.810   189.8115 1.5348e+02     4.4178     -0.026     -0.037    25.2316 0.0000e+00
     -0.028     -0.013     5.0786     64.777     41.522  42.042747     3.0116      6.813   189.5846 1.3256e+02     4.4592     -0.026     -0.037    25.3792 0.0000e+00
     -0.034     -0.021     5.0977     65.610     41.446  41.972392     3.0180      6.813   188.9956 1.1604e+02     4.4566     -0.031     -0.044    25.4786 0.0000e+00
     -0.047     -0.033     5.1545     66.422     41.479  41.979941     3.0077      6.808   190.8627 1.0886e+02     4.4203     -0.046     -0.066    25.5043 0.0000e+00
     -0.060     -0.052     5.2252     67.210     41.524  42.007038     2.9950      6.809   197.4475 1.1377e+02     4.3957     -0.063     -0.092    25.5598 0.0000e+00
     -0.065     -0.074     5.2909     67.779     41.559  42.046124     2.9731      6.817   204.3406 1.4213e+02     4.3978     -0.064     -0.094    25.6458 0.0000e+00
     -0.072     -0.091     5.3580     67.957     41.561  42.071721     2.9338      6.824   206.9238 2.0636e+02     4.4122     -0.062     -0.091    25.6479 0.0000e+00
     -0.099     -0.097     5.4266     67.870     41.523  42.062694     2.9028      6.827   206.9987 2.9470e+02     4.3646     -0.085     -0.124    25.5877 0.0000e+00
     -0.149     -0.093     5.5022     67.770     41.508  42.063963     2.8890      6.830   207.5696 3.8627e+02     4.2996     -0.146     -0.212    25.5653 0.0000e+00
     -0.197     -0.083     5.5552     67.702     41.525  42.087087     2.8750      6.834   208.8353 4.5947e+02     4.3105     -0.205     -0.298    25.5710 0.0000e+00
     -0.217     -0.069     5.5624     67.607     41.520  42.088419     2.8514      6.839   209.9132 4.6986e+02     4.3604     -0.221     -0.322    25.6017 0.0000e+00
     -0.212     -0.057     5.5375     67.430     41.509  42.080078     2.8361      6.845   209.8476 4.2237e+02     4.4246     -0.207     -0.302    25.6550 0.0000e+00
     -0.205     -0.057     5.5297     67.230     41.538  42.113179     2.8231      6.848   205.6328 3.8051e+02     4.7449     -0.197     -0.285    25.6689 0.0000e+00
     -0.208     -0.080     5.5271     67.288     41.580  42.171305     2.7268      6.843   194.7439 3.7174e+02     8.3018     -0.201     -0.291    25.6673 0.0000e+00
     -0.223     -0.130     5.5173     67.569     41.589  42.211678     2.5623      6.827   174.6415 3.8900e+02    14.8761     -0.209     -0.305    25.6815 0.0000e+00
     -0.260     -0.190     5.5082     67.721     41.556  42.220559     2.4832      6.800   151.8630 4.3755e+02    18.4774     -0.247     -0.358    25.6817 0.0000e+00
     -0.318     -0.233     5.4733     67.562     41.517  42.215292     2.4359      6.776   141.0543 5.6840e+02    18.4699     -0.309     -0.449    25.6816 0.0000e+00
     -0.398     -0.248     5.4792     66.980     41.503  42.211508     1.8237      6.767   137.2203 6.3510e+02    14.2061     -0.373     -0.541    25.6965 0.0000e+00
     -0.505     -0.235     5.5149     66.045     41.491  42.174826     0.6998      6.768   132.2647 4.8456e+02     6.3103     -0.498     -0.723    25.7353 0.0000e+00
     -0.597     -0.199     5.5229     65.480     41.457  42.089083     0.0827      6.761   135.5997 3.5274e+02     2.0123     -0.617     -0.895    25.7981 0.0000e+00
     -0.632     -0.149     5.5059     65.409     41.234  41.809416    -0.0197      6.723   147.7741 4.8981e+02     1.6588     -0.627     -0.908    25.8438 0.0000e+00
     -0.635     -0.093     5.4673     64.810     38.989  39.491467    -0.5549      6.676   156.4277 8.1650e+02     1.6613     -0.621     -0.901    25.8627 0.0000e+00
     -0.635     -0.042     5.3614     63.658     29.698  30.054288    -1.5440      6.666   136.0365 9.8600e+02     1.6327     -0.624     -0.905    25.8328 0.0000e+00
     -0.635     -0.011     5.2997     62.646     21.844  22.075442    -2.0820      6.680    52.0526 9.0753e+02     1.6205     -0.621     -0.900    25.7534 0.0000e+00
     -0.635     -0.001     5.3710     62.028     29.265  29.519359    -2.1170      6.685   -61.0009 9.2545e+02     1.5816     -0.624     -0.903    25.6873 0.0000e+00
     -0.635 -5.570e-10     5.3141     62.049     44.159  44.468268    -1.9833      6.676  -119.4284 1.0523e+03     0.9580     -0.623     -0.903    25.6353 0.0000e+00
     -0.635 -6.127e-09     5.1873     62.549     58.354  58.679537    -1.7134      6.665  -116.2986 9.8179e+02    -0.1800     -0.623     -0.904    25.5754 0.0000e+00
     -0.635 -6.740e-08     5.1258     63.139     71.011  71.358405    -1.5674      6.657  -101.3681 9.2948e+02    -0.8040     -0.622     -0.902    25.5276 0.0000e+00
     -0.635 -6.740e-08     5.0512     63.403     79.671  80.036185    -1.5582      6.655  -111.5864 1.0955e+03    -0.8473     -0.622     -0.903    25.4720 0.0000e+00
     -0.635 -6.125e-09     5.0822     63.612     83.338  83.695737    -1.5110      6.660  -165.5953 1.2295e+03    -0.7388     -0.622     -0.903    25.3616 0.0000e+00
     -0.634 -5.570e-10     5.1370     64.786     68.908  69.182168    -1.0385      6.662  -203.6475 1.2883e+03     0.2688     -0.622     -0.902    25.2634 0.0000e+00
     -0.634 -5.065e-11     5.2053     66.909     37.834  37.969444    -0.1813      6.653  -167.0304 1.3371e+03     2.0103     -0.622     -0.902    25.2339 0.0000e+00
     -0.634 -4.603e-12     5.2352     69.614     18.054  18.103755     0.2895      6.646  -121.9111 1.3496e+03     2.8967     -0.622     -0.902    25.2258 0.0000e+00
     -0.634 -4.219e-13     5.1869     72.672     13.510  13.534683     0.3336      6.646  -112.5732 1.3308e+03     2.9588     -0.622     -0.902    25.2097 0.0000e+00
     -0.634 -7.608e-14     5.3052     74.212     12.437  12.454408     0.3352      6.647  -112.7188 1.2956e+03     2.9668     -0.622     -0.902    25.1873 0.0000e+00
     -0.634 -9.990e-29     5.5090 -9.990e-29 -9.990e-29 -9.990e-29 -9.990e-29 -9.990e-29 -9.990e-29 1.2738e+03 -9.990e-29     -0.622     -0.902    25.1588 0.0000e+00
     -0.634 -9.990e-29     5.7037 -9.990e-29 -9.990e-29 -9.990e-29 -9.990e-29 -9.990e-29 -9.990e-29 1.2714e+03 -9.990e-29     -0.622     -0.902    25.1253 0.0000e+00
     -0.634 -9.990e-29     6.0350 -9.990e-29 -9.990e-29 -9.990e-29 -9.990e-29 -9.990e-29 -9.990e-29 1.2678e+03 -9.990e-29     -0.622     -0.902    25.0733 0.0000e+00
     -0.634 -9.990e-29     6.2594 -9.990e-29 -9.990e-29 -9.990e-29 -9.990e-29 -9.990e-29 -9.990e-29 1.2643e+03 -9.990e-29     -0.623     -0.903    25.0378 0.0000e+00
