* Sea-Bird SBE19plus  Data File:
* FileName = C:\DATA\072318_fcr50_0006.hex
* Software version 2.6.3.104 SB_Terminal.dll
* Temperature SN = 7809
* Conductivity SN = 7809
* System UpLoad Time = Jul 23 2018 15:34:36
* <ApplicationData>
* <Seaterm232>
* <SoftwareVersion>2.6.3.104</SoftwareVersion>
* <BuildDate>30-Jun-2017</BuildDate>
* </Seaterm232>
* </ApplicationData>
* cast   6 23 Jul 2018 15:02:21 samples 4478 to 5147, avg = 1, stop = mag switch
# nquan = 15
# nvalues = 585                         
# units = specified
# name 0 = depFM: Depth [fresh water, m]
# name 1 = dz/dtM: Descent Rate [m/s]
# name 2 = sbeox0Mg/L: Oxygen, SBE 43 [mg/l]
# name 3 = sbeox0PS: Oxygen, SBE 43 [% saturation]
# name 4 = specc: Specific Conductance [uS/cm]
# name 5 = c0uS/cm: Conductivity [uS/cm]
# name 6 = flECO-AFL: Fluorescence, WET Labs ECO-AFL/FL [mg/m^3]
# name 7 = ph: pH
# name 8 = orp: Oxidation Reduction Potential [mV]
# name 9 = par/sat/log: PAR/Logarithmic, Satlantic
# name 10 = turbWETntu0: Turbidity, WET Labs ECO [NTU]
# name 11 = prdM: Pressure, Strain Gauge [db]
# name 12 = prdE: Pressure, Strain Gauge [psi]
# name 13 = tv290C: Temperature [ITS-90, deg C]
# name 14 = flag:  0.000e+00
# span 0 =     -0.609,      5.311       
# span 1 =     -0.153,      0.119       
# span 2 =     0.1538,    13.0745       
# span 3 =      1.547,    150.082       
# span 4 =      1.066,     50.793       
# span 5 =   1.003094,  39.572276       
# span 6 =    -0.1964,     9.3645       
# span 7 =      6.259,      8.532       
# span 8 =   143.0331,  1239.9583       
# span 9 = 6.1958e-01, 4.8254e+02       
# span 10 =    -0.2349,    52.3420      
# span 11 =     -0.598,      5.209      
# span 12 =     -0.867,      7.555      
# span 13 =    11.6373,    25.2131      
# span 14 = 0.0000e+00, 0.0000e+00      
# interval = seconds: 0.25
# start_time = Jul 23 2018 15:02:21 [Instrument's time stamp, header]
# bad_flag = -9.990e-29
# <Sensors count="9" >
#   <sensor Channel="1" >
#     <!-- Count, Temperature -->
#     <TemperatureSensor SensorID="58" >
#       <SerialNumber>7809</SerialNumber>
#       <CalibrationDate>09-Mar-18</CalibrationDate>
#       <A0>1.21093245e-003</A0>
#       <A1>2.84356597e-004</A1>
#       <A2>-1.94507398e-006</A2>
#       <A3>2.12806664e-007</A3>
#       <Slope>1.00000000</Slope>
#       <Offset>0.0000</Offset>
#     </TemperatureSensor>
#   </sensor>
#   <sensor Channel="2" >
#     <!-- Frequency 0, Conductivity -->
#     <ConductivitySensor SensorID="3" >
#       <SerialNumber>7809</SerialNumber>
#       <CalibrationDate>09-Mar-18</CalibrationDate>
#       <UseG_J>1</UseG_J>
#       <!-- Cell const and series R are applicable only for wide range sensors. -->
#       <SeriesR>0.0000</SeriesR>
#       <CellConst>2000.0000</CellConst>
#       <ConductivityType>0</ConductivityType>
#       <Coefficients equation="0" >
#         <A>0.00000000e+000</A>
#         <B>0.00000000e+000</B>
#         <C>0.00000000e+000</C>
#         <D>0.00000000e+000</D>
#         <M>0.0</M>
#         <CPcor>-9.57000000e-008</CPcor>
#       </Coefficients>
#       <Coefficients equation="1" >
#         <G>-1.00672082e+000</G>
#         <H>1.26906489e-001</H>
#         <I>-1.40584351e-004</I>
#         <J>2.47837121e-005</J>
#         <CPcor>-9.57000000e-008</CPcor>
#         <CTcor>3.2500e-006</CTcor>
#         <!-- WBOTC not applicable unless ConductivityType = 1. -->
#         <WBOTC>0.00000000e+000</WBOTC>
#       </Coefficients>
#       <Slope>1.00000000</Slope>
#       <Offset>0.00000</Offset>
#     </ConductivitySensor>
#   </sensor>
#   <sensor Channel="3" >
#     <!-- Count, Pressure, Strain Gauge -->
#     <PressureSensor SensorID="46" >
#       <SerialNumber>7809</SerialNumber>
#       <CalibrationDate>07-Mar-18</CalibrationDate>
#       <PA0>-4.08176359e-002</PA0>
#       <PA1>4.85188419e-004</PA1>
#       <PA2>-3.51168169e-012</PA2>
#       <PTEMPA0>-5.37806900e+001</PTEMPA0>
#       <PTEMPA1>5.36620721e+001</PTEMPA1>
#       <PTEMPA2>4.87214332e-002</PTEMPA2>
#       <PTCA0>5.25213435e+005</PTCA0>
#       <PTCA1>1.79532409e+000</PTCA1>
#       <PTCA2>-2.84353509e-001</PTCA2>
#       <PTCB0>2.51668750e+001</PTCB0>
#       <PTCB1>3.75000000e-004</PTCB1>
#       <PTCB2>0.00000000e+000</PTCB2>
#       <Offset>0.000000</Offset>
#     </PressureSensor>
#   </sensor>
#   <sensor Channel="4" >
#     <!-- A/D voltage 0, pH -->
#     <pH_Sensor SensorID="43" >
#       <SerialNumber>0363</SerialNumber>
#       <CalibrationDate>16-Mar-18</CalibrationDate>
#       <Slope>4.6194</Slope>
#       <Offset>2.5947</Offset>
#     </pH_Sensor>
#   </sensor>
#   <sensor Channel="5" >
#     <!-- A/D voltage 1, Oxidation Reduction Potential -->
#     <OxidationReductionPotentialSensor SensorID="41" >
#       <SerialNumber>0363</SerialNumber>
#       <CalibrationDate>16-Mar-18</CalibrationDate>
#       <B>2.499480</B>
#       <M>-0.496195</M>
#       <Offset>0.0</Offset>
#     </OxidationReductionPotentialSensor>
#   </sensor>
#   <sensor Channel="6" >
#     <!-- A/D voltage 2, Oxygen, SBE 43 -->
#     <OxygenSensor SensorID="38" >
#       <SerialNumber>0434</SerialNumber>
#       <CalibrationDate>13-Mar-18</CalibrationDate>
#       <Use2007Equation>1</Use2007Equation>
#       <CalibrationCoefficients equation="0" >
#         <!-- Coefficients for Owens-Millard equation. -->
#         <Boc>0.0000</Boc>
#         <Soc>0.0000e+000</Soc>
#         <offset>0.0000</offset>
#         <Pcor>0.00e+000</Pcor>
#         <Tcor>0.0000</Tcor>
#         <Tau>0.0</Tau>
#       </CalibrationCoefficients>
#       <CalibrationCoefficients equation="1" >
#         <!-- Coefficients for Sea-Bird equation - SBE calibration in 2007 and later. -->
#         <Soc>4.5718e-001</Soc>
#         <offset>-0.6113</offset>
#         <A>-4.0649e-003</A>
#         <B> 2.0945e-004</B>
#         <C>-3.3182e-006</C>
#         <D0> 2.5826e+000</D0>
#         <D1> 1.92634e-004</D1>
#         <D2>-4.64803e-002</D2>
#         <E> 3.6000e-002</E>
#         <Tau20> 1.2200</Tau20>
#         <H1>-3.3000e-002</H1>
#         <H2> 5.0000e+003</H2>
#         <H3> 1.4500e+003</H3>
#       </CalibrationCoefficients>
#     </OxygenSensor>
#   </sensor>
#   <sensor Channel="7" >
#     <!-- A/D voltage 3, PAR/Logarithmic, Satlantic -->
#     <PARLog_SatlanticSensor SensorID="76" >
#       <SerialNumber>1122</SerialNumber>
#       <CalibrationDate>22-Jun-2017</CalibrationDate>
#       <a0>9.6090e-001</a0>
#       <a1>8.0780e-001</a1>
#       <Im>1.3589e+000</Im>
#       <Multiplier>1.0000e+000</Multiplier>
#     </PARLog_SatlanticSensor>
#   </sensor>
#   <sensor Channel="8" >
#     <!-- A/D voltage 4, Fluorometer, WET Labs ECO-AFL/FL -->
#     <FluoroWetlabECO_AFL_FL_Sensor SensorID="20" >
#       <SerialNumber>FLNTURT-2496</SerialNumber>
#       <CalibrationDate>25-Jan-2017</CalibrationDate>
#       <ScaleFactor>5.30000000e+001</ScaleFactor>
#       <!-- Dark output -->
#       <Vblank>0.0560</Vblank>
#     </FluoroWetlabECO_AFL_FL_Sensor>
#   </sensor>
#   <sensor Channel="9" >
#     <!-- A/D voltage 5, Turbidity Meter, WET Labs, ECO-NTU -->
#     <TurbidityMeter SensorID="67" >
#       <SerialNumber>FLNTURT-2496</SerialNumber>
#       <CalibrationDate>25-Jan-2017</CalibrationDate>
#       <ScaleFactor>176.000000</ScaleFactor>
#       <!-- Dark output -->
#       <DarkVoltage>0.072000</DarkVoltage>
#     </TurbidityMeter>
#   </sensor>
# </Sensors>
# datcnv_date = Jul 23 2018 15:39:16, 7.26.7.114 [datcnv_vars = 14]
# datcnv_in = C:\DATA\072318_fcr30.hex C:\DATA\SBE19plusV2_7809.xmlcon
# datcnv_skipover = 0
# datcnv_ox_hysteresis_correction = yes
# datcnv_ox_tau_correction = yes
# filter_date = Jul 23 2018 15:39:39, 7.26.7.114
# filter_in = C:\DATA\072318_fcr30.cnv
# filter_low_pass_tc_A = 0.030
# filter_low_pass_tc_B = 0.150
# filter_low_pass_A_vars = prdM prdE tv290C
# filter_low_pass_B_vars = depFM dz/dtM sbeox0Mg/L sbeox0PS specc c0uS/cm flECO-AFL ph orp par/sat/log turbWETntu0
# alignctd_date = Jul 23 2018 15:40:00, 7.26.7.114
# alignctd_in = C:\DATA\072318_fcr30.cnv
# alignctd_adv = dz/dtM 1.000, sbeox0Mg/L 1.000, sbeox0PS 1.000, specc 1.000, c0uS/cm 1.000, flECO-AFL 1.000, ph 1.000, orp 1.000, turbWETntu0 1.000                                                                                 
# file_type = ascii
*END*
     -0.607 -2.543e-12     8.7306     99.918      1.066   1.003094    -0.1843      6.701   562.9238 2.0323e+02    -0.0249     -0.596     -0.864    22.0279 0.0000e+00
     -0.608 -2.797e-11     8.7368     99.989      1.069   1.006178    -0.1861      6.702   568.4650 2.2119e+02    -0.0200     -0.597     -0.865    22.0281 0.0000e+00
     -0.608 -3.077e-10     8.7327     99.942      1.154   1.085580    -0.1791      6.700   581.9488 2.3554e+02    -0.0505     -0.596     -0.864    22.0287 0.0000e+00
     -0.608 -3.384e-09     8.7268     99.876      1.278   1.202176    -0.1744      6.695   604.2098 2.1414e+02    -0.1489     -0.596     -0.864    22.0296 0.0000e+00
     -0.608 -3.723e-08     8.7246     99.853      1.354   1.274495    -0.1842      6.689   638.1814 1.7270e+02    -0.2335     -0.596     -0.864    22.0305 0.0000e+00
     -0.608 -4.095e-07     8.7227     99.833      1.409   1.325836    -0.1964      6.637   720.9853 1.5391e+02    -0.2184     -0.596     -0.865    22.0314 0.0000e+00
     -0.608     -0.000     8.7224     99.831      1.466   1.379045    -0.1931      6.554   832.3220 1.5818e+02    -0.1797     -0.596     -0.864    22.0321 0.0000e+00
     -0.608     -0.000     8.7221     99.829      1.500   1.410527    -0.1815      6.549   880.1163 1.6671e+02    -0.1941     -0.596     -0.865    22.0325 0.0000e+00
     -0.608     -0.001     8.7201     99.807      1.612   1.516232    -0.1848      6.602   877.1836 1.7751e+02    -0.2092     -0.597     -0.865    22.0335 0.0000e+00
     -0.608     -0.001     8.7204     99.811      1.881   1.769309    -0.1961      6.641   876.1041 1.9512e+02    -0.2092     -0.596     -0.865    22.0338 0.0000e+00
     -0.608     -0.001     8.7228     99.839      2.123   1.997268    -0.1895      6.667   878.2499 2.1384e+02    -0.2237     -0.597     -0.866    22.0348 0.0000e+00
     -0.608     -0.000     8.7231     99.844      2.115   1.989495    -0.1775      6.695   886.2642 2.2436e+02    -0.2319     -0.597     -0.865    22.0345 0.0000e+00
     -0.609      0.000     8.7222     99.839      1.915   1.802157    -0.1804      6.722   907.1848 2.3485e+02    -0.2170     -0.597     -0.866    22.0362 0.0000e+00
     -0.609      0.002     8.7173     99.841      1.735   1.634663    -0.1884      6.736   937.5238 2.5343e+02    -0.1975     -0.597     -0.866    22.0344 0.0000e+00
     -0.609      0.009     8.6861     99.843      2.230   2.120457    -0.1913      6.734   963.8270 2.6872e+02    -0.2086     -0.597     -0.866    22.0385 0.0000e+00
     -0.609      0.019     8.6106     99.859      6.383   6.153820    -0.1869      6.731   984.9074 2.7096e+02    -0.2293     -0.596     -0.865    22.0329 0.0000e+00
     -0.608      0.032     8.5180     99.890     13.498  13.101213    -0.1816      6.762  1054.4839 2.6292e+02    -0.2349     -0.598     -0.867    22.0429 0.0000e+00
     -0.600      0.044     8.4470     99.919     18.227  17.796333    -0.1819      6.886  1171.1332 2.5139e+02    -0.2151     -0.594     -0.862    22.0274 0.0000e+00
     -0.582      0.054     8.4035     99.931     19.637  19.270125    -0.1821      7.091  1233.9462 2.4209e+02    -0.1731     -0.572     -0.831    22.1193 0.0000e+00
     -0.560      0.060     8.3773     99.925     20.319  20.004289    -0.1841      7.296  1239.6385 2.3669e+02    -0.1238     -0.548     -0.795    22.6775 0.0000e+00
     -0.540      0.061     8.3612     99.920     24.395  24.070739    -0.1878      7.470  1239.9583 2.3388e+02    -0.0453     -0.529     -0.765    23.3885 0.0000e+00
     -0.523      0.058     8.3488     99.916     30.901  30.533456    -0.1814      7.636  1237.8122 2.2892e+02     0.0123     -0.512     -0.742    23.8326 0.0000e+00
     -0.511      0.053     8.3368     99.906     34.123  33.761695    -0.1708      7.811  1213.6908 2.2868e+02     0.0240     -0.500     -0.725    24.0904 0.0000e+00
     -0.502      0.049     8.3252     99.904     34.527  34.211630    -0.1697      7.998   948.3093 2.4702e+02     0.0048     -0.490     -0.711    24.2363 0.0000e+00
     -0.493      0.053     8.3150     99.914     34.717  34.449253    -0.1770      8.190   462.8125 2.8087e+02     0.0237     -0.486     -0.705    24.3194 0.0000e+00
     -0.481      0.064     8.3073     99.931     34.894  34.665793    -0.1855      8.353   193.6230 3.1429e+02     0.1306     -0.472     -0.685    24.3921 0.0000e+00
     -0.468      0.082     8.2993     99.940     35.050  34.860799    -0.1808      8.456   165.0410 3.3646e+02     0.3207     -0.458     -0.664    24.4619 0.0000e+00
     -0.451      0.101     8.2883     99.945     35.166  35.028574    -0.0929      8.509   171.8645 3.6146e+02     1.5587     -0.449     -0.651    24.5344 0.0000e+00
     -0.420      0.115     8.2788     99.989     35.183  35.106425     0.8227      8.532   182.8588 3.9579e+02    14.8245     -0.417     -0.604    24.6151 0.0000e+00
     -0.378      0.119     8.2767    100.095     35.130  35.103474     2.4899      8.532   180.4421 4.2309e+02    39.1329     -0.370     -0.537    24.6722 0.0000e+00
     -0.335      0.114     8.2797    100.221     35.049  35.056486     3.3941      8.518   175.6846 4.4094e+02    52.3018     -0.327     -0.475    24.7121 0.0000e+00
     -0.299      0.101     8.2844    100.335     34.954  34.982988     3.4843      8.503   180.4001 4.5523e+02    52.3420     -0.289     -0.419    24.7935 0.0000e+00
     -0.276      0.082     8.2919    100.456     34.874  34.913563     3.5810      8.484   174.9928 4.6429e+02    39.6801     -0.264     -0.385    24.8928 0.0000e+00
     -0.266      0.066     8.3004    100.571     34.808  34.852280     3.7363      8.457   156.9392 4.6669e+02    16.3051     -0.258     -0.375    24.9639 0.0000e+00
     -0.262      0.056     8.3093    100.678     34.706  34.750186     3.8090      8.437   147.4446 4.6522e+02     3.5776     -0.259     -0.375    25.0100 0.0000e+00
     -0.257      0.051     8.3199    100.803     34.589  34.631937     3.8071      8.430   146.4056 4.6310e+02     2.4328     -0.254     -0.369    25.0409 0.0000e+00
     -0.244      0.049     8.3307    100.940     34.521  34.565870     3.8230      8.430   152.1193 4.6218e+02     2.3107     -0.244     -0.353    25.0549 0.0000e+00
     -0.223      0.048     8.3415    101.080     34.475  34.523047     3.8361      8.430   156.4733 4.6331e+02     2.2848     -0.220     -0.318    25.0596 0.0000e+00
     -0.200      0.045     8.3533    101.224     34.447  34.495282     3.8187      8.430   154.2229 4.6460e+02     2.2726     -0.192     -0.277    25.0602 0.0000e+00
     -0.188      0.038     8.3651    101.354     34.440  34.484243     3.7962      8.430   152.0988 4.6375e+02     2.2849     -0.181     -0.261    25.0524 0.0000e+00
     -0.185      0.028     8.3750    101.452     34.417  34.453082     3.7934      8.429   147.1386 4.6195e+02     2.3112     -0.181     -0.263    25.0568 0.0000e+00
     -0.184      0.019     8.3822    101.512     34.411  34.436087     3.8041      8.429   143.0331 4.6118e+02     2.3161     -0.182     -0.263    25.0674 0.0000e+00
     -0.183      0.013     8.3875    101.551     34.453  34.469299     3.8146      8.430   149.4378 4.6020e+02     2.3132     -0.181     -0.261    25.0672 0.0000e+00
     -0.180      0.012     8.3912    101.578     34.527  34.537047     3.8199      8.433   163.8335 4.5668e+02     2.3069     -0.178     -0.257    25.0598 0.0000e+00
     -0.176      0.013     8.3931    101.593     34.613  34.620033     3.8217      8.436   172.1138 4.5171e+02     2.3012     -0.173     -0.251    25.0469 0.0000e+00
     -0.172      0.013     8.3932    101.594     34.703  34.710451     3.8465      8.440   172.5490 4.4772e+02     2.2738     -0.168     -0.244    25.0305 0.0000e+00
     -0.168      0.012     8.3936    101.605     34.795  34.804540     3.9080      8.445   169.7836 4.4615e+02     2.2505     -0.165     -0.239    25.0166 0.0000e+00
     -0.165      0.010     8.4057    101.756     34.857  34.868396     3.9492      8.448   160.7902 4.4768e+02     2.2641     -0.162     -0.234    25.0075 0.0000e+00
     -0.162      0.006     8.4529    102.334     34.897  34.910864     3.9402      8.448   152.6028 4.5035e+02     2.2555     -0.158     -0.229    25.0027 0.0000e+00
     -0.161      0.003     8.5211    103.174     34.918  34.936894     3.9283      8.445   150.8925 4.5161e+02     2.2680     -0.156     -0.227    25.0033 0.0000e+00
     -0.161      0.001     8.5506    103.555     34.902  34.929055     3.9335      8.441   151.1240 4.4996e+02     2.3237     -0.157     -0.228    25.0077 0.0000e+00
     -0.163      0.001     8.5213    103.226     34.906  34.943135     3.9392      8.436   150.2405 4.4601e+02     2.3192     -0.161     -0.233    25.0104 0.0000e+00
     -0.164      0.001     8.4531    102.421     34.935  34.980105     3.9421      8.432   149.3293 4.4646e+02     2.2744     -0.162     -0.234    25.0119 0.0000e+00
     -0.163      0.002     8.3614    101.326     34.944  34.994959     3.9861      8.432   148.9692 4.5295e+02     2.2702     -0.159     -0.231    25.0187 0.0000e+00
     -0.161      0.004     8.2569    100.075     34.939  34.995700     4.0770      8.434   148.5537 4.5709e+02     2.2986     -0.159     -0.231    25.0323 0.0000e+00
     -0.159      0.008     8.1462     98.748     34.927  34.989075     4.1314      8.437   148.1775 4.5673e+02     2.3131     -0.157     -0.228    25.0481 0.0000e+00
     -0.157      0.013     8.0352     97.414     34.848  34.914869     4.1383      8.440   148.0344 4.5607e+02     2.2935     -0.153     -0.223    25.0586 0.0000e+00
     -0.157      0.019     7.9382     96.244     34.728  34.797188     4.1692      8.440   148.1141 4.6017e+02     2.2747     -0.154     -0.223    25.0667 0.0000e+00
     -0.154      0.027     7.8690     95.405     34.704  34.773070     4.2299      8.439   148.1086 4.7065e+02     2.2692     -0.153     -0.222    25.0756 0.0000e+00
     -0.147      0.036     7.8256     94.878     34.745  34.813825     4.2648      8.437   148.2263 4.7944e+02     2.2572     -0.147     -0.213    25.0832 0.0000e+00
     -0.133      0.042     7.7914     94.463     34.777  34.845322     4.2698      8.436   148.5046 4.8164e+02     2.2521     -0.131     -0.190    25.0917 0.0000e+00
     -0.118      0.047     7.7512     93.974     34.832  34.899812     4.2988      8.437   148.6338 4.7918e+02     2.2375     -0.115     -0.166    25.0947 0.0000e+00
     -0.104      0.049     7.6987     93.337     34.897  34.964509     4.3591      8.438   148.7559 4.7448e+02     2.2020     -0.103     -0.148    25.0923 0.0000e+00
     -0.090      0.048     7.6342     92.556     34.924  34.992371     4.3930      8.439   149.2074 4.7209e+02     2.1894     -0.087     -0.125    25.0930 0.0000e+00
     -0.079      0.047     7.5637     91.701     34.914  34.982612     4.3954      8.439   150.1348 4.7340e+02     2.2074     -0.076     -0.112    25.0926 0.0000e+00
     -0.070      0.044     7.4901     90.811     34.904  34.973562     4.3964      8.439   151.5371 4.7606e+02     2.2371     -0.071     -0.102    25.0906 0.0000e+00
     -0.059      0.041     7.4182     89.941     34.940  35.009980     4.3964      8.439   156.0095 4.7349e+02     2.2432     -0.058     -0.084    25.0905 0.0000e+00
     -0.047      0.040     7.3607     89.246     34.971  35.041826     4.3869      8.438   161.0182 4.3612e+02     2.2201     -0.045     -0.066    25.0910 0.0000e+00
     -0.036      0.041     7.3377     88.968     34.906  34.977495     4.3734      8.436   165.3778 3.7626e+02     2.2318     -0.034     -0.049    25.0919 0.0000e+00
     -0.028      0.042     7.3577     89.211     34.795  34.867359     4.3708      8.433   174.1328 3.5233e+02     2.2937     -0.025     -0.036    25.0931 0.0000e+00
     -0.021      0.040     7.4072     89.817     34.780  34.853514     4.3179      8.433   178.6848 3.5104e+02     2.3274     -0.022     -0.033    25.0945 0.0000e+00
     -0.009      0.036     7.4827     90.737     34.862  34.937137     4.2029      8.434   176.7074 3.4160e+02     2.3032     -0.012     -0.018    25.0967 0.0000e+00
      0.007      0.032     7.5835     91.962     34.913  34.989170     4.1388      8.432   177.6714 3.3841e+02     2.2765      0.011      0.015    25.0965 0.0000e+00
      0.017      0.029     7.6916     93.274     34.898  34.974487     4.1308      8.431   176.0572 3.5230e+02     2.2795      0.022      0.032    25.0954 0.0000e+00
      0.018      0.022     7.7794     94.339     34.810  34.886654     4.0790      8.432   172.5920 3.6789e+02     2.3085      0.016      0.024    25.0987 0.0000e+00
      0.020      0.007     7.8216     94.849     34.740  34.816455     3.9908      8.434   177.5024 3.7146e+02     2.3221      0.018      0.026    25.1030 0.0000e+00
      0.026     -0.010     7.8113     94.722     34.812  34.887948     3.9461      8.436   184.1492 3.7271e+02     2.2909      0.025      0.038    25.1029 0.0000e+00
      0.031     -0.025     7.7612     94.108     34.915  34.988844     3.9417      8.436   186.4482 3.8274e+02     2.2361      0.034      0.050    25.1046 0.0000e+00
      0.023     -0.035     7.6912     93.255     34.949  35.020073     3.9563      8.437   187.4901 4.0755e+02     2.2086      0.030      0.044    25.1050 0.0000e+00
     -0.000     -0.042     7.6161     92.348     34.939  35.011449     3.9854      8.438   187.9716 4.4071e+02     2.2336     -0.002     -0.001    25.1024 0.0000e+00
     -0.024     -0.044     7.5415     91.451     34.936  35.011609     4.0084      8.440   188.3118 4.6530e+02     2.2646     -0.028     -0.041    25.1043 0.0000e+00
     -0.036     -0.040     7.4694     90.577     34.946  35.022018     4.0138      8.444   188.9360 4.7759e+02     2.2780     -0.037     -0.053    25.0992 0.0000e+00
     -0.042     -0.031     7.4039     89.779     34.936  35.010260     3.9769      8.447   189.6681 4.8097e+02     2.3042     -0.042     -0.060    25.0931 0.0000e+00
     -0.044     -0.021     7.3514     89.140     34.923  34.996482     3.9123      8.447   190.5393 4.7891e+02     2.3367     -0.044     -0.063    25.0980 0.0000e+00
     -0.045     -0.015     7.3153     88.700     34.910  34.982471     3.8846      8.446   191.5534 4.8201e+02     2.3351     -0.043     -0.062    25.1039 0.0000e+00
     -0.046     -0.013     7.2950     88.449     34.898  34.967887     3.8911      8.444   192.2075 4.8254e+02     2.3155     -0.046     -0.066    25.1036 0.0000e+00
     -0.050     -0.012     7.2881     88.352     34.883  34.947185     3.8803      8.443   192.4241 4.7703e+02     2.3133     -0.049     -0.071    25.1005 0.0000e+00
     -0.056     -0.011     7.2907     88.364     34.803  34.859205     3.8449      8.444   192.5372 4.7593e+02     2.3085     -0.054     -0.078    25.0995 0.0000e+00
     -0.061     -0.008     7.2982     88.438     34.681  34.729855     3.8221      8.447   192.7150 4.7688e+02     2.2876     -0.061     -0.088    25.0986 0.0000e+00
     -0.064     -0.005     7.3065     88.527     34.610  34.653590     3.8251      8.449   193.0251 4.7794e+02     2.2751     -0.065     -0.094    25.0959 0.0000e+00
     -0.063     -0.003     7.3105     88.547     34.604  34.635790     3.8260      8.450   193.3612 4.7883e+02     2.2794     -0.063     -0.092    25.0898 0.0000e+00
     -0.059     -0.001     7.3045     88.426     34.631  34.641670     3.8149      8.452   193.5952 4.7920e+02     2.2787     -0.056     -0.083    25.0751 0.0000e+00
     -0.057     -0.001     7.2903     88.205     34.671  34.661133     3.8014      8.455   193.8761 4.7985e+02     2.2666     -0.055     -0.080    25.0611 0.0000e+00
     -0.058     -0.001     7.2733     87.972     34.702  34.680524     3.8006      8.457   194.3482 4.8042e+02     2.2848     -0.057     -0.082    25.0603 0.0000e+00
     -0.061     -0.001     7.2550     87.741     34.711  34.685559     3.8138      8.459   194.7432 4.7905e+02     2.3153     -0.060     -0.086    25.0474 0.0000e+00
     -0.064      0.001     7.2340     87.486     34.685  34.658476     3.8510      8.460   194.8669 4.7529e+02     2.3311     -0.064     -0.093    25.0090 0.0000e+00
     -0.065      0.004     7.2091     87.184     34.634  34.607140     3.9104      8.461   194.8108 4.7301e+02     2.3845     -0.065     -0.094    24.9745 0.0000e+00
     -0.062      0.008     7.1775     86.796     34.603  34.573015     3.9442      8.463   194.6670 4.7127e+02     2.4722     -0.063     -0.091    24.9597 0.0000e+00
     -0.057      0.009     7.1367     86.291     34.598  34.563465     3.9466      8.463   194.8492 4.6750e+02     2.5066     -0.057     -0.083    24.9565 0.0000e+00
     -0.052      0.008     7.0862     85.669     34.594  34.555170     3.9765      8.463   195.4653 4.6386e+02     2.4343     -0.049     -0.072    24.9557 0.0000e+00
     -0.048      0.006     7.0268     84.943     34.579  34.536244     4.0298      8.463   195.9215 4.6192e+02     2.3308     -0.045     -0.066    24.9568 0.0000e+00
     -0.048      0.001     6.9628     84.160     34.571  34.525174     4.0493      8.464   195.8915 4.6206e+02     2.2922     -0.046     -0.068    24.9537 0.0000e+00
     -0.050     -0.003     6.9003     83.399     34.597  34.548363     4.0562      8.464   195.7037 4.6187e+02     2.3041     -0.048     -0.071    24.9444 0.0000e+00
     -0.054     -0.003     6.8427     82.698     34.613  34.562533     4.0667      8.462   195.3717 4.6086e+02     2.3221     -0.053     -0.077    24.9380 0.0000e+00
     -0.058      0.000     6.7911     82.072     34.558  34.505956     4.0659      8.459   194.4588 4.6050e+02     2.3265     -0.055     -0.081    24.9324 0.0000e+00
     -0.059      0.005     6.7470     81.535     34.490  34.435950     4.0649      8.457   193.3561 4.5963e+02     2.2964     -0.059     -0.086    24.9271 0.0000e+00
     -0.057      0.009     6.7098     81.079     34.472  34.414787     4.0638      8.457   193.2244 4.5643e+02     2.2624     -0.059     -0.086    24.9240 0.0000e+00
     -0.049      0.011     6.6762     80.665     34.501  34.440629     4.0617      8.456   192.3495 4.5628e+02     2.2513     -0.048     -0.070    24.9198 0.0000e+00
     -0.042      0.010     6.6433     80.263     34.557  34.494329     4.0764      8.454   191.4675 4.5948e+02     2.2238     -0.039     -0.057    24.9188 0.0000e+00
     -0.038      0.007     6.6131     79.898     34.619  34.555918     4.1043      8.453   194.3478 4.5810e+02     2.1734     -0.037     -0.052    24.9176 0.0000e+00
     -0.038      0.002     6.5945     79.679     34.674  34.613630     4.1139      8.454   197.9221 4.5380e+02     2.1308     -0.036     -0.052    24.9108 0.0000e+00
     -0.042     -0.003     6.5961     79.709     34.676  34.620459     4.1187      8.455   199.5797 4.4601e+02     2.1050     -0.041     -0.059    24.9052 0.0000e+00
     -0.046     -0.006     6.6126     79.916     34.627  34.574975     4.1342      8.456   200.4517 4.3900e+02     2.1050     -0.045     -0.065    24.9021 0.0000e+00
     -0.048     -0.007     6.6283     80.114     34.556  34.508326     4.1358      8.457   200.2912 4.3768e+02     2.1307     -0.047     -0.068    24.9004 0.0000e+00
     -0.050     -0.006     6.6323     80.177     34.491  34.449796     4.1290      8.458   196.2633 4.3747e+02     2.1715     -0.049     -0.070    24.9047 0.0000e+00
     -0.050     -0.003     6.6216     80.065     34.472  34.438971     4.1348      8.459   190.1241 4.3818e+02     2.2017     -0.049     -0.071    24.9163 0.0000e+00
     -0.049      0.001     6.5994     79.804     34.472  34.440964     4.1693      8.460   189.4729 4.3814e+02     2.2216     -0.048     -0.070    24.9203 0.0000e+00
     -0.049      0.003     6.5689     79.433     34.442  34.410384     4.2250      8.461   193.2079 4.3720e+02     2.2595     -0.048     -0.069    24.9217 0.0000e+00
     -0.049      0.003     6.5306     78.966     34.420  34.386821     4.2569      8.462   195.7060 4.3710e+02     2.2935     -0.050     -0.071    24.9342 0.0000e+00
     -0.047      0.003     6.4887     78.454     34.445  34.410134     4.2604      8.464   195.5000 4.3662e+02     2.2974     -0.048     -0.069    24.9486 0.0000e+00
     -0.044      0.003     6.4506     77.984     34.477  34.438180     4.2396      8.464   193.6434 4.3548e+02     2.2459     -0.043     -0.062    24.9533 0.0000e+00
     -0.043      0.003     6.4231     77.643     34.452  34.408334     4.2073      8.464   193.3046 4.3331e+02     2.1892     -0.041     -0.059    24.9490 0.0000e+00
     -0.044      0.002     6.4120     77.502     34.414  34.366854     4.2015      8.464   195.7051 4.2902e+02     2.1924     -0.043     -0.064    24.9469 0.0000e+00
     -0.045      0.001     6.4150     77.530     34.431  34.381261     4.2065      8.465   198.2325 4.2420e+02     2.1930     -0.045     -0.066    24.9454 0.0000e+00
     -0.044      0.000     6.4233     77.623     34.446  34.391966     4.2307      8.466   200.2022 4.2270e+02     2.1967     -0.042     -0.062    24.9372 0.0000e+00
     -0.043     -0.001     6.4316     77.716     34.426  34.369248     4.2828      8.466   202.6571 4.2395e+02     2.2370     -0.040     -0.058    24.9300 0.0000e+00
     -0.043     -0.005     6.4362     77.766     34.421  34.360647     4.3124      8.465   204.2537 4.2135e+02     2.2526     -0.041     -0.060    24.9266 0.0000e+00
     -0.044     -0.013     6.4337     77.731     34.414  34.351479     4.3224      8.463   202.2125 4.1136e+02     2.2328     -0.043     -0.063    24.9213 0.0000e+00
     -0.045     -0.029     6.4217     77.579     34.388  34.321921     4.3209      8.457   195.4434 3.9741e+02     2.2111     -0.044     -0.065    24.9159 0.0000e+00
     -0.049     -0.054     6.3980     77.288     34.389  34.320851     4.2391      8.449   192.5304 3.8656e+02     2.2036     -0.046     -0.066    24.9102 0.0000e+00
     -0.059     -0.086     6.3650     76.886     34.472  34.402055     4.0963      8.447   200.3755 3.7739e+02     2.2038     -0.054     -0.077    24.9054 0.0000e+00
     -0.080     -0.118     6.3305     76.466     34.613  34.541532     4.0184      8.450   204.7748 3.6403e+02     2.1825     -0.073     -0.106    24.9028 0.0000e+00
     -0.117     -0.143     6.3097     76.220     34.679  34.609865     4.0053      8.452   198.9166 3.5337e+02     2.1598     -0.107     -0.155    24.8986 0.0000e+00
     -0.172     -0.153     6.3237     76.409     34.589  34.529566     3.9562      8.450   192.6968 3.4953e+02     2.1742     -0.165     -0.239    24.8934 0.0000e+00
     -0.233     -0.146     6.3746     77.042     34.447  34.396393     3.8652      8.448   186.9601 3.4628e+02     2.2028     -0.234     -0.340    24.8936 0.0000e+00
     -0.282     -0.126     6.4513     77.932     34.401  34.333584     3.8156      8.448   184.1900 3.4273e+02     2.2310     -0.285     -0.413    24.8888 0.0000e+00
     -0.308     -0.095     6.5653     79.176     34.471  34.341785     3.8064      8.451   184.4993 3.4290e+02     2.2712     -0.308     -0.447    24.8909 0.0000e+00
     -0.317     -0.059     6.7283     80.967     34.579  34.368413     3.7536      8.454   182.3545 3.4431e+02     2.3231     -0.313     -0.454    24.9042 0.0000e+00
     -0.318     -0.023     6.9261     83.209     34.675  34.401350     3.6641      8.452   180.3687 3.4409e+02     2.4003     -0.313     -0.453    24.9318 0.0000e+00
     -0.318      0.007     7.1291     85.564     34.734  34.422338     3.6255      8.447   179.8481 3.4233e+02     2.4718     -0.311     -0.451    24.9295 0.0000e+00
     -0.317      0.029     7.3086     87.678     34.761  34.431568     3.6445      8.443   179.1573 3.4023e+02     2.4868     -0.312     -0.452    24.8159 0.0000e+00
     -0.312      0.048     7.4468     89.323     34.785  34.449408     3.7379      8.442   179.1575 3.4326e+02     2.4292     -0.312     -0.453    24.6748 0.0000e+00
     -0.293      0.067     7.5324     90.361     34.778  34.447482     3.9001      8.443   179.5060 3.5102e+02     2.3246     -0.291     -0.422    24.5856 0.0000e+00
     -0.268      0.085     7.5594     90.721     34.724  34.408276     3.9967      8.443   179.7582 3.5716e+02     2.2591     -0.260     -0.377    24.5364 0.0000e+00
     -0.245      0.099     7.5338     90.456     34.654  34.356509     4.0058      8.443   180.4854 3.6117e+02     2.2477     -0.243     -0.353    24.5172 0.0000e+00
     -0.219      0.104     7.4753     89.775     34.618  34.329737     3.9833      8.443   183.7392 3.6544e+02     2.2481     -0.219     -0.320    24.5075 0.0000e+00
     -0.184      0.102     7.4101     88.973     34.635  34.338659     3.9453      8.443   191.1364 3.6904e+02     2.2646     -0.180     -0.261    24.5134 0.0000e+00
     -0.150      0.094     7.3546     88.264     34.651  34.337339     3.9228      8.444   197.5653 3.7089e+02     2.2940     -0.143     -0.208    24.5381 0.0000e+00
     -0.126      0.084     7.3092     87.693     34.639  34.313744     3.9320      8.447   199.3499 3.7241e+02     2.2982     -0.119     -0.173    24.5699 0.0000e+00
     -0.111      0.070     7.2670     87.179     34.636  34.307434     3.9730      8.450   197.1415 3.7360e+02     2.2847     -0.109     -0.158    24.5914 0.0000e+00
     -0.099      0.054     7.2195     86.608     34.653  34.324555     4.0325      8.453   193.1478 3.7618e+02     2.2831     -0.098     -0.142    24.5718 0.0000e+00
     -0.086      0.039     7.1627     85.926     34.659  34.330201     4.0732      8.454   190.4691 3.8202e+02     2.2784     -0.082     -0.119    24.5350 0.0000e+00
     -0.077      0.029     7.0978     85.145     34.642  34.312186     4.0785      8.453   189.4464 3.8651e+02     2.2585     -0.075     -0.109    24.5202 0.0000e+00
     -0.072      0.020     7.0244     84.260     34.629  34.297281     4.0787      8.453   191.1059 3.9090e+02     2.2564     -0.070     -0.102    24.5188 0.0000e+00
     -0.069      0.011     6.9414     83.257     34.612  34.277030     4.0571      8.455   195.2203 3.9879e+02     2.2538     -0.067     -0.097    24.5198 0.0000e+00
     -0.067      0.002     6.8527     82.185     34.596  34.257880     3.9922      8.459   198.8408 4.1065e+02     2.1963     -0.066     -0.096    24.5194 0.0000e+00
     -0.066     -0.004     6.7673     81.155     34.598  34.256280     3.9464      8.461   200.8951 4.2338e+02     2.1404     -0.064     -0.093    24.5181 0.0000e+00
     -0.070     -0.007     6.6927     80.254     34.603  34.257683     3.9356      8.462   201.9038 4.2968e+02     2.1274     -0.067     -0.097    24.5149 0.0000e+00
     -0.076     -0.008     6.6287     79.482     34.623  34.274839     3.9347      8.460   203.2077 4.3138e+02     2.1612     -0.076     -0.110    24.5102 0.0000e+00
     -0.080     -0.007     6.5725     78.802     34.623  34.273158     3.9448      8.456   205.2171 4.3265e+02     2.2438     -0.080     -0.116    24.5043 0.0000e+00
     -0.081     -0.006     6.5269     78.251     34.589  34.237353     3.9480      8.453   206.7545 4.3261e+02     2.3026     -0.080     -0.115    24.4998 0.0000e+00
     -0.080     -0.003     6.4934     77.845     34.576  34.223022     3.9363      8.452   207.5996 4.3158e+02     2.2923     -0.079     -0.115    24.4970 0.0000e+00
     -0.079     -0.001     6.4669     77.525     34.582  34.226922     3.9315      8.452   208.1217 4.3022e+02     2.2409     -0.078     -0.113    24.4925 0.0000e+00
     -0.079      0.001     6.4449     77.256     34.578  34.220978     3.9366      8.452   208.5081 4.2880e+02     2.2005     -0.077     -0.112    24.4884 0.0000e+00
     -0.079      0.001     6.4256     77.021     34.574  34.214668     3.9431      8.452   208.3996 4.2770e+02     2.1997     -0.077     -0.112    24.4862 0.0000e+00
     -0.080      0.001     6.4060     76.782     34.575  34.214146     3.9456      8.453   207.8418 4.2739e+02     2.2004     -0.078     -0.114    24.4842 0.0000e+00
     -0.080      0.002     6.3855     76.532     34.578  34.214666     3.9383      8.455   207.7006 4.2819e+02     2.1790     -0.079     -0.114    24.4816 0.0000e+00
     -0.079      0.002     6.3622     76.248     34.586  34.220951     3.9382      8.456   207.8972 4.2918e+02     2.1541     -0.078     -0.113    24.4785 0.0000e+00
     -0.078      0.001     6.3345     75.913     34.594  34.226621     3.9440      8.457   208.0673 4.2982e+02     2.1442     -0.076     -0.110    24.4752 0.0000e+00
     -0.076      0.000     6.3044     75.548     34.589  34.219692     3.9447      8.458   208.2944 4.3034e+02     2.1512     -0.075     -0.108    24.4718 0.0000e+00
     -0.076     -0.000     6.2717     75.152     34.571  34.200695     3.9461      8.460   208.5790 4.3039e+02     2.1462     -0.074     -0.107    24.4691 0.0000e+00
     -0.077      0.000     6.2370     74.733     34.560  34.187471     3.9608      8.462   208.7550 4.3040e+02     2.1761     -0.076     -0.110    24.4668 0.0000e+00
     -0.080      0.001     6.2014     74.304     34.560  34.186839     3.9939      8.463   208.6146 4.3094e+02     2.2687     -0.079     -0.114    24.4642 0.0000e+00
     -0.081      0.001     6.1646     73.863     34.567  34.193057     4.0156      8.464   208.4316 4.3226e+02     2.3196     -0.081     -0.118    24.4612 0.0000e+00
     -0.080      0.001     6.1295     73.443     34.573  34.199129     4.0120      8.466   208.5204 4.3420e+02     2.3027     -0.079     -0.115    24.4576 0.0000e+00
     -0.076      0.000     6.1010     73.100     34.571  34.196743     3.9862      8.467   208.5697 4.3613e+02     2.2475     -0.073     -0.106    24.4550 0.0000e+00
     -0.074 -4.320e-07     6.0789     72.834     34.731  34.354762     3.9525      8.468   208.4259 4.3848e+02     2.1707     -0.071     -0.102    24.4534 0.0000e+00
     -0.075      0.000     6.0700     72.770     35.134  34.775823     3.9355      8.469   208.4168 4.4153e+02     2.1369     -0.073     -0.105    24.4529 0.0000e+00
     -0.079      0.000     6.1300     73.654     35.437  35.159078     3.9279      8.470   208.8031 4.4444e+02     2.1453     -0.078     -0.113    24.4544 0.0000e+00
     -0.081     -0.001     6.3756     76.879     35.450  35.304665     3.9252      8.470   209.2246 4.4689e+02     2.1804     -0.081     -0.117    24.4553 0.0000e+00
     -0.080     -0.002     6.8609     82.990     35.355  35.329431     3.9304      8.468   209.0396 4.4959e+02     2.2261     -0.080     -0.116    24.4481 0.0000e+00
     -0.077     -0.003     7.4893     90.760     35.283  35.331672     3.9354      8.467   208.5443 4.5244e+02     2.2395     -0.075     -0.109    24.4461 0.0000e+00
     -0.075     -0.003     8.1312     98.634     35.244  35.331872     3.9390      8.467   208.4847 4.5437e+02     2.2514     -0.072     -0.104    24.5652 0.0000e+00
     -0.077     -0.004     8.7069    105.672     35.223  35.331897     3.9645      8.467   208.7492 4.5549e+02     2.2779     -0.075     -0.109    24.8052 0.0000e+00
     -0.082     -0.006     9.1754    111.390     35.212  35.332002     4.0149      8.466   209.2477 4.5720e+02     2.2849     -0.081     -0.117    24.9875 0.0000e+00
     -0.087     -0.009     9.5129    115.506     35.207  35.333156     4.0516      8.464   210.2105 4.6103e+02     2.2749     -0.086     -0.125    25.0786 0.0000e+00
     -0.087     -0.011     9.7004    117.793     35.216  35.345859     4.0595      8.461   211.0118 4.6675e+02     2.2793     -0.086     -0.125    25.1268 0.0000e+00
     -0.085     -0.011     9.7464    118.357     35.227  35.358563     4.0465      8.461   211.2783 4.7178e+02     2.2773     -0.081     -0.118    25.1506 0.0000e+00
     -0.087     -0.010     9.6946    117.729     35.228  35.359708     4.0223      8.464   211.5403 4.7509e+02     2.2510     -0.082     -0.120    25.1656 0.0000e+00
     -0.095     -0.008     9.5965    116.539     35.228  35.359708     4.0068      8.466   211.8566 4.7710e+02     2.2353     -0.094     -0.137    25.1744 0.0000e+00
     -0.101     -0.006     9.4853    115.192     35.226  35.358562     4.0061      8.466   212.0045 4.7773e+02     2.2399     -0.102     -0.148    25.1796 0.0000e+00
     -0.102     -0.003     9.3787    113.898     35.212  35.345859     3.9951      8.465   212.1244 4.7770e+02     2.2461     -0.101     -0.146    25.1810 0.0000e+00
     -0.098      0.000     9.2837    112.743     35.201  35.333155     3.9660      8.464   212.3599 4.7725e+02     2.2495     -0.096     -0.139    25.1809 0.0000e+00
     -0.095      0.004     9.2031    111.759     35.201  35.332001     3.9388      8.463   212.6153 4.7609e+02     2.2507     -0.092     -0.133    25.1810 0.0000e+00
     -0.094      0.006     9.1369    110.953     35.202  35.331906     3.9236      8.463   212.8023 4.7408e+02     2.2302     -0.091     -0.132    25.1828 0.0000e+00
     -0.093      0.005     9.0839    110.309     35.202  35.332001     3.9293      8.464   212.9001 4.7166e+02     2.2450     -0.092     -0.134    25.1845 0.0000e+00
     -0.092      0.003     9.0492    109.889     35.203  35.333155     3.9616      8.464   212.9385 4.6950e+02     2.3079     -0.090     -0.130    25.1829 0.0000e+00
     -0.090      0.001     9.0342    109.710     35.214  35.345859     4.0008      8.465   213.0075 4.6773e+02     2.3199     -0.089     -0.128    25.1800 0.0000e+00
     -0.090      0.001     9.0329    109.699     35.225  35.358563     4.0183      8.466   213.0462 4.6694e+02     2.2980     -0.089     -0.129    25.1786 0.0000e+00
     -0.091      0.002     9.0370    109.754     35.224  35.359717     4.0160      8.467   213.0632 4.6685e+02     2.2867     -0.090     -0.130    25.1786 0.0000e+00
     -0.092      0.002     9.0390    109.780     35.224  35.359822     4.0287      8.468   213.1264 4.6705e+02     2.2447     -0.091     -0.132    25.1793 0.0000e+00
     -0.091      0.002     9.0360    109.743     35.224  35.359831     4.0614      8.469   213.2079 4.6805e+02     2.1872     -0.090     -0.130    25.1810 0.0000e+00
     -0.090      0.002     9.0278    109.643     35.224  35.359823     4.0813      8.469   213.3609 4.6947e+02     2.1714     -0.088     -0.128    25.1842 0.0000e+00
     -0.088      0.002     9.0149    109.487     35.224  35.359719     4.0760      8.469   213.5127 4.7051e+02     2.1756     -0.086     -0.125    25.1864 0.0000e+00
     -0.088      0.001     9.0012    109.321     35.223  35.358584     4.0515      8.468   213.5810 4.7134e+02     2.1770     -0.086     -0.124    25.1873 0.0000e+00
     -0.088      0.000     8.9924    109.216     35.209  35.346098     4.0241      8.468   213.6702 4.7185e+02     2.1878     -0.087     -0.126    25.1876 0.0000e+00
     -0.089     -0.001     8.9920    109.215     35.197  35.335798     4.0117      8.469   213.8174 4.7150e+02     2.1847     -0.088     -0.127    25.1870 0.0000e+00
     -0.089     -0.001     8.9981    109.293     35.222  35.361092     4.0124      8.470   214.0696 4.7094e+02     2.1688     -0.088     -0.128    25.1866 0.0000e+00
     -0.089     -0.001     9.0085    109.422     35.258  35.397840     4.0321      8.471   214.3972 4.7054e+02     2.1485     -0.087     -0.127    25.1868 0.0000e+00
     -0.089     -0.001     9.0205    109.569     35.258  35.398995     4.0665      8.472   214.6810 4.6997e+02     2.1233     -0.088     -0.128    25.1879 0.0000e+00
     -0.089      0.000     9.0252    109.627     35.234  35.375056     4.0790      8.473   214.9190 4.6920e+02     2.1386     -0.088     -0.127    25.1900 0.0000e+00
     -0.090      0.001     9.0209    109.575     35.222  35.362476     4.0728      8.473   215.1244 4.6868e+02     2.1806     -0.088     -0.128    25.1921 0.0000e+00
     -0.090      0.002     9.0154    109.508     35.233  35.373931     4.0738      8.472   215.3578 4.6899e+02     2.1733     -0.088     -0.128    25.1936 0.0000e+00
     -0.090      0.002     9.0106    109.449     35.246  35.386511     4.0723      8.470   215.5030 4.6970e+02     2.1111     -0.089     -0.129    25.1943 0.0000e+00
     -0.088      0.001     9.0050    109.379     35.247  35.387551     4.0644      8.470   215.4176 4.7038e+02     2.0696     -0.088     -0.126    25.1941 0.0000e+00
     -0.086      0.000     8.9987    109.300     35.247  35.386501     4.0614      8.471   215.2716 4.7137e+02     2.0989     -0.085     -0.123    25.1944 0.0000e+00
     -0.086     -0.001     8.9940    109.243     35.234  35.373806     4.0639      8.472   215.2013 4.7182e+02     2.1601     -0.084     -0.122    25.1944 0.0000e+00
     -0.088     -0.002     8.9936    109.238     35.222  35.361102     4.0754      8.472   215.2555 4.7170e+02     2.1998     -0.086     -0.124    25.1938 0.0000e+00
     -0.090     -0.003     8.9949    109.254     35.221  35.359947     4.0999      8.473   215.2383 4.7226e+02     2.2122     -0.089     -0.129    25.1927 0.0000e+00
     -0.092     -0.003     8.9939    109.244     35.220  35.359842     4.1209      8.473   215.5954 4.7292e+02     2.2187     -0.091     -0.131    25.1918 0.0000e+00
     -0.092     -0.005     8.9921    109.225     35.218  35.359822     4.1272      8.473   217.5951 4.7272e+02     2.2480     -0.091     -0.131    25.1916 0.0000e+00
     -0.091     -0.008     8.9919    109.225     35.218  35.359717     4.1392      8.476   220.3155 4.7151e+02     2.2917     -0.090     -0.130    25.1912 0.0000e+00
     -0.091     -0.011     8.9922    109.228     35.217  35.358572     4.1652      8.481   221.9872 4.7051e+02     2.2891     -0.088     -0.128    25.1913 0.0000e+00
     -0.094     -0.014     8.9938    109.247     35.204  35.345974     4.1842      8.485   222.8367 4.7140e+02     2.2469     -0.090     -0.130    25.1928 0.0000e+00
     -0.101     -0.018     8.9980    109.298     35.193  35.334433     4.1939      8.486   223.1871 4.7221e+02     2.2402     -0.098     -0.142    25.1948 0.0000e+00
     -0.110     -0.020     9.0052    109.386     35.205  35.346077     4.1905      8.482   223.2986 4.7101e+02     2.2682     -0.110     -0.159    25.1959 0.0000e+00
     -0.115     -0.017     9.0152    109.506     35.219  35.359716     4.1715      8.472   223.6687 4.7026e+02     2.2803     -0.113     -0.164    25.1955 0.0000e+00
     -0.119     -0.010     9.0235    109.606     35.231  35.372306     4.1565      8.463   224.1345 4.7147e+02     2.2644     -0.115     -0.168    25.1945 0.0000e+00
     -0.124     -0.001     9.0328    109.720     35.230  35.371256     4.1474      8.461   224.3706 4.7168e+02     2.2595     -0.127     -0.183    25.1950 0.0000e+00
     -0.124      0.008     9.0512    109.945     35.205  35.347022     4.1440      8.463   224.1142 4.6898e+02     2.2824     -0.125     -0.181    25.1952 0.0000e+00
     -0.117      0.013     9.0649    110.116     35.190  35.333375     4.1525      8.463   219.9165 4.6601e+02     2.2966     -0.116     -0.166    25.1942 0.0000e+00
     -0.109      0.016     9.0631    110.098     35.189  35.333289     4.1574      8.462   214.7428 4.6382e+02     2.2785     -0.107     -0.155    25.1942 0.0000e+00
     -0.102      0.016     9.0582    110.041     35.201  35.345994     4.1385      8.461   215.2488 4.6250e+02     2.2470     -0.098     -0.144    25.1943 0.0000e+00
     -0.098      0.012     9.0518    109.964     35.214  35.359946     4.0898      8.462   216.6556 4.6351e+02     2.2506     -0.096     -0.139    25.1953 0.0000e+00
     -0.098      0.006     9.0381    109.797     35.229  35.374949     4.0373      8.467   216.6094 4.6506e+02     2.2921     -0.096     -0.140    25.1979 0.0000e+00
     -0.097      0.001     9.0218    109.598     35.255  35.400348     4.0196      8.470   216.5827 4.6638e+02     2.2914     -0.096     -0.138    25.2002 0.0000e+00
     -0.097     -0.002     9.0110    109.465     35.268  35.412958     4.0225      8.471   213.8381 4.6878e+02     2.2416     -0.094     -0.135    25.2009 0.0000e+00
     -0.100     -0.002     9.0055    109.396     35.256  35.400370     4.0163      8.472   208.8063 4.6933e+02     2.2393     -0.098     -0.143    25.2007 0.0000e+00
     -0.103      0.002     9.0085    109.434     35.230  35.375190     4.0277      8.472   205.3019 4.6726e+02     2.2642     -0.101     -0.146    25.2007 0.0000e+00
     -0.104      0.010     9.0197    109.577     35.215  35.362591     4.0590      8.473   204.3339 4.6618e+02     2.2674     -0.102     -0.147    25.2002 0.0000e+00
     -0.104      0.020     9.0286    109.694     35.225  35.375076     4.0644      8.473   204.7591 4.6581e+02     2.2778     -0.104     -0.150    25.1991 0.0000e+00
     -0.098      0.031     9.0369    109.802     35.247  35.399110     4.0563      8.473   205.6248 4.6437e+02     2.2679     -0.099     -0.142    25.1976 0.0000e+00
     -0.086      0.042     9.0432    109.882     35.246  35.399100     4.0898      8.471   206.3688 4.6252e+02     2.2398     -0.085     -0.124    25.1980 0.0000e+00
     -0.070      0.052     9.0418    109.866     35.221  35.374960     4.1570      8.468   206.9587 4.5927e+02     2.2425     -0.069     -0.100    25.2018 0.0000e+00
     -0.054      0.059     9.0398    109.843     35.206  35.361319     4.1984      8.464   205.5296 4.4045e+02     2.2701     -0.053     -0.076    25.2070 0.0000e+00
     -0.037      0.062     9.0364    109.802     35.206  35.361215     4.2038      8.460   202.3395 4.0988e+02     2.2993     -0.036     -0.052    25.2108 0.0000e+00
     -0.021      0.063     9.0225    109.633     35.219  35.373701     4.2307      8.457   199.1035 3.9286e+02     2.2902     -0.020     -0.029    25.2126 0.0000e+00
     -0.006      0.064     8.9978    109.331     35.231  35.385240     4.2946      8.456   195.9153 3.8489e+02     2.2517     -0.006     -0.007    25.2130 0.0000e+00
      0.010      0.066     8.9662    108.946     35.220  35.373690     4.3329      8.455   194.2492 3.7503e+02     2.2608      0.009      0.013    25.2131 0.0000e+00
      0.026      0.070     8.9319    108.528     35.208  35.361091     4.3349      8.453   194.7034 3.6345e+02     2.2787      0.025      0.036    25.2131 0.0000e+00
      0.043      0.074     8.8995    108.133     35.207  35.359946     4.3473      8.452   195.6434 3.4920e+02     2.2537      0.043      0.062    25.2130 0.0000e+00
      0.062      0.078     8.8698    107.773     35.208  35.359851     4.3723      8.453   195.5474 3.3458e+02     2.2339      0.059      0.086    25.2129 0.0000e+00
      0.085      0.080     8.8407    107.418     35.208  35.359936     4.3885      8.454   194.6613 3.1982e+02     2.2527      0.082      0.118    25.2120 0.0000e+00
      0.109      0.080     8.8149    107.104     35.209  35.360976     4.3963      8.455   194.2214 3.0610e+02     2.2974      0.109      0.157    25.2114 0.0000e+00
      0.130      0.080     8.7986    106.905     35.220  35.372431     4.3937      8.456   194.6171 2.9525e+02     2.3170      0.128      0.186    25.2108 0.0000e+00
      0.149      0.079     8.7955    106.866     35.220  35.371381     4.3837      8.457   195.8324 2.8545e+02     2.3070      0.145      0.211    25.2101 0.0000e+00
      0.168      0.077     8.8004    106.924     35.197  35.348282     4.3775      8.457   196.9555 2.7611e+02     2.2990      0.165      0.240    25.2102 0.0000e+00
      0.186      0.075     8.8058    106.991     35.196  35.347232     4.3821      8.458   197.6127 2.6782e+02     2.3113      0.183      0.264    25.2099 0.0000e+00
      0.205      0.073     8.8123    107.070     35.207  35.358687     4.4026      8.460   197.6702 2.5925e+02     2.3332      0.201      0.290    25.2093 0.0000e+00
      0.226      0.073     8.8202    107.167     35.208  35.359728     4.5064      8.461   196.5317 2.5090e+02     2.3197      0.223      0.324    25.2087 0.0000e+00
      0.245      0.073     8.8278    107.259     35.209  35.359822     4.6811      8.460   196.5820 2.4428e+02     2.3006      0.242      0.351    25.2085 0.0000e+00
      0.261      0.074     8.8338    107.329     35.209  35.359831     4.7695      8.458   198.1920 2.3838e+02     2.3157      0.255      0.369    25.2087 0.0000e+00
      0.277      0.074     8.8366    107.361     35.210  35.359832     4.7840      8.456   198.7040 2.3195e+02     2.3193      0.270      0.392    25.2091 0.0000e+00
      0.296      0.074     8.8366    107.357     35.211  35.359832     4.8193      8.455   198.5560 2.2509e+02     2.2826      0.288      0.418    25.2094 0.0000e+00
      0.318      0.074     8.8371    107.360     35.213  35.359834     4.8572      8.455   199.2425 2.1781e+02     2.2389      0.312      0.452    25.2088 0.0000e+00
      0.340      0.073     8.8404    107.397     35.214  35.359844     4.8654      8.456   200.0358 2.1110e+02     2.2490      0.335      0.485    25.2083 0.0000e+00
      0.358      0.070     8.8441    107.441     35.214  35.359958     4.8725      8.458   200.4039 2.0557e+02     2.2820      0.351      0.507    25.2070 0.0000e+00
      0.374      0.067     8.8493    107.503     35.215  35.361207     4.9885      8.459   201.2845 2.0036e+02     2.2715      0.367      0.532    25.2046 0.0000e+00
      0.390      0.063     8.8578    107.604     35.230  35.374952     5.1935      8.460   202.8536 1.9516e+02     2.2445      0.383      0.556    25.2025 0.0000e+00
      0.405      0.061     8.8637    107.674     35.255  35.399101     5.3104      8.462   204.5769 1.9044e+02     2.2295      0.397      0.576    25.2014 0.0000e+00
      0.420      0.060     8.8612    107.643     35.256  35.399101     5.3269      8.464   205.4285 1.8598e+02     2.2431      0.411      0.595    25.2008 0.0000e+00
      0.435      0.060     8.8516    107.524     35.232  35.374953     5.2915      8.464   204.0306 1.8161e+02     2.2867      0.426      0.617    25.2004 0.0000e+00
      0.450      0.060     8.8398    107.379     35.219  35.361209     5.2315      8.462   200.9253 1.7781e+02     2.2992      0.443      0.642    25.1998 0.0000e+00
      0.465      0.064     8.8271    107.223     35.218  35.359959     5.2175      8.458   199.1144 1.7462e+02     2.2418      0.457      0.662    25.1989 0.0000e+00
      0.480      0.070     8.8111    107.027     35.218  35.359846     5.2232      8.453   199.5151 1.7159e+02     2.2042      0.470      0.682    25.1982 0.0000e+00
      0.495      0.078     8.7936    106.814     35.219  35.359845     5.2272      8.451   200.4359 1.6761e+02     2.3016      0.484      0.702    25.1973 0.0000e+00
      0.515      0.086     8.7833    106.689     35.219  35.359949     5.2467      8.451   201.2998 1.6192e+02     2.4421      0.503      0.728    25.1964 0.0000e+00
      0.541      0.092     8.7862    106.723     35.220  35.361095     5.2574      8.451   202.2172 1.5567e+02     2.4997      0.530      0.768    25.1957 0.0000e+00
      0.570      0.095     8.8017    106.911     35.233  35.373695     5.2559      8.452   202.8373 1.5017e+02     2.5096      0.560      0.811    25.1947 0.0000e+00
      0.598      0.094     8.8240    107.182     35.244  35.385253     5.2555      8.453   203.2915 1.4535e+02     2.5010      0.587      0.851    25.1945 0.0000e+00
      0.624      0.088     8.8455    107.443     35.233  35.373798     5.2994      8.454   203.5793 1.4107e+02     2.4567      0.613      0.889    25.1944 0.0000e+00
      0.646      0.080     8.8665    107.698     35.222  35.362241     5.3906      8.455   202.8753 1.3767e+02     2.3710      0.635      0.922    25.1937 0.0000e+00
      0.663      0.073     8.8890    107.971     35.232  35.372558     5.4485      8.457   202.4367 1.3503e+02     2.3191      0.652      0.946    25.1934 0.0000e+00
      0.678      0.069     8.9095    108.218     35.232  35.371499     5.4664      8.457   203.3520 1.3259e+02     2.3175      0.665      0.964    25.1935 0.0000e+00
      0.691      0.068     8.9219    108.368     35.210  35.349432     5.5433      8.458   204.3059 1.2984e+02     2.2903      0.678      0.983    25.1936 0.0000e+00
      0.706      0.069     8.9225    108.375     35.220  35.359836     5.6793      8.458   205.2803 1.2625e+02     2.2648      0.690      1.001    25.1937 0.0000e+00
      0.725      0.070     8.9134    108.265     35.231  35.370250     5.7596      8.458   205.9273 1.2181e+02     2.2853      0.709      1.028    25.1932 0.0000e+00
      0.748      0.072     8.9012    108.116     35.210  35.348296     5.7791      8.458   205.2454 1.1786e+02     2.3239      0.735      1.066    25.1925 0.0000e+00
      0.768      0.072     8.8942    108.031     35.210  35.348476     5.7871      8.457   205.0379 1.1489e+02     2.3342      0.754      1.094    25.1920 0.0000e+00
      0.785      0.071     8.8937    108.023     35.234  35.372433     5.8002      8.454   206.2569 1.1226e+02     2.2875      0.770      1.117    25.1919 0.0000e+00
      0.802      0.069     8.8926    108.009     35.245  35.383869     5.8181      8.452   206.9919 1.1014e+02     2.2478      0.788      1.142    25.1917 0.0000e+00
      0.817      0.067     8.8847    107.913     35.222  35.359701     5.8386      8.451   207.2145 1.0804e+02     2.2815      0.801      1.161    25.1915 0.0000e+00
      0.834      0.065     8.8709    107.743     35.197  35.334302     5.9097      8.452   208.4316 1.0551e+02     2.2985      0.818      1.185    25.1913 0.0000e+00
      0.852      0.062     8.8574    107.576     35.194  35.330858     6.0162      8.455   210.3510 1.0317e+02     2.2697      0.837      1.213    25.1910 0.0000e+00
      0.870      0.059     8.8484    107.467     35.181  35.318061     6.0697      8.458   211.1493 1.0133e+02     2.2690      0.854      1.238    25.1908 0.0000e+00
      0.885      0.055     8.8429    107.399     35.170  35.306608     6.0698      8.460   209.9093 9.9907e+01     2.2901      0.869      1.259    25.1904 0.0000e+00
      0.897      0.051     8.8326    107.275     35.183  35.319423     5.9988      8.463   208.1784 9.8684e+01     2.3121      0.880      1.277    25.1892 0.0000e+00
      0.908      0.049     8.8159    107.071     35.210  35.345975     5.8638      8.465   206.9984 9.7449e+01     2.2905      0.891      1.293    25.1880 0.0000e+00
      0.919      0.049     8.8000    106.877     35.238  35.373559     5.7880      8.466   206.4837 9.6171e+01     2.2417      0.901      1.307    25.1875 0.0000e+00
      0.930      0.052     8.7892    106.746     35.263  35.398853     5.7719      8.465   207.0317 9.4762e+01     2.2416      0.912      1.322    25.1875 0.0000e+00
      0.942      0.057     8.7852    106.698     35.262  35.397719     5.7615      8.462   207.0844 9.3135e+01     2.2585      0.924      1.340    25.1877 0.0000e+00
      0.956      0.062     8.7872    106.721     35.224  35.359847     5.7909      8.460   207.2077 9.1155e+01     2.2640      0.937      1.358    25.1875 0.0000e+00
      0.974      0.067     8.7930    106.790     35.187  35.322058     5.8514      8.458   207.9199 8.8807e+01     2.2763      0.955      1.384    25.1869 0.0000e+00
      0.994      0.071     8.8048    106.931     35.188  35.321944     5.8765      8.457   207.1779 8.6625e+01     2.2845      0.977      1.417    25.1870 0.0000e+00
      1.014      0.073     8.8185    107.097     35.224  35.358474     5.8833      8.454   206.6671 8.4830e+01     2.3033      0.996      1.444    25.1876 0.0000e+00
      1.033      0.074     8.8235    107.158     35.248  35.382611     5.9432      8.451   206.9928 8.3045e+01     2.3207      1.013      1.469    25.1874 0.0000e+00
      1.051      0.073     8.8196    107.113     35.225  35.359701     6.0311      8.449   206.7285 8.1235e+01     2.2805      1.032      1.496    25.1859 0.0000e+00
      1.070      0.071     8.8127    107.029     35.200  35.335552     6.0724      8.448   206.4825 7.9401e+01     2.2452      1.049      1.521    25.1843 0.0000e+00
      1.089      0.070     8.8003    106.877     35.210  35.344707     6.0757      8.446   206.6858 7.7636e+01     2.2598      1.067      1.550    25.1837 0.0000e+00
      1.107      0.070     8.7790    106.617     35.210  35.343354     6.1171      8.445   207.0359 7.6183e+01     2.2733      1.086      1.575    25.1843 0.0000e+00
      1.124      0.069     8.7542    106.314     35.186  35.319196     6.2051      8.445   207.1014 7.4861e+01     2.2873      1.102      1.598    25.1855 0.0000e+00
      1.141      0.069     8.7374    106.109     35.174  35.306690     6.2667      8.445   207.2197 7.3394e+01     2.3068      1.118      1.622    25.1861 0.0000e+00
      1.159      0.070     8.7358    106.088     35.187  35.319184     6.2832      8.445   207.6916 7.1839e+01     2.2955      1.136      1.648    25.1854 0.0000e+00
      1.176      0.071     8.7438    106.184     35.211  35.343218     6.3221      8.445   207.5591 7.0343e+01     2.2729      1.154      1.674    25.1845 0.0000e+00
      1.194      0.072     8.7509    106.269     35.211  35.343207     6.4058      8.444   207.3386 6.8799e+01     2.2773      1.170      1.697    25.1836 0.0000e+00
      1.214      0.073     8.7544    106.312     35.187  35.319049     6.4587      8.443   208.1225 6.7187e+01     2.2876      1.190      1.726    25.1823 0.0000e+00
      1.234      0.073     8.7568    106.340     35.174  35.305200     6.4662      8.442   209.3792 6.5733e+01     2.2754      1.211      1.757    25.1816 0.0000e+00
      1.252      0.073     8.7589    106.365     35.172  35.302805     6.5147      8.442   210.9179 6.4391e+01     2.2822      1.227      1.781    25.1813 0.0000e+00
      1.269      0.072     8.7565    106.335     35.159  35.290093     6.6034      8.442   212.3584 6.2962e+01     2.3707      1.243      1.803    25.1808 0.0000e+00
      1.289      0.070     8.7487    106.241     35.148  35.278543     6.6382      8.442   212.5138 6.1532e+01     2.4602      1.264      1.833    25.1807 0.0000e+00
      1.308      0.067     8.7406    106.142     35.159  35.290195     6.6319      8.442   211.8507 6.0195e+01     2.4792      1.283      1.860    25.1808 0.0000e+00
      1.326      0.063     8.7349    106.072     35.173  35.303940     6.6376      8.443   211.8268 5.9000e+01     2.4779      1.301      1.886    25.1803 0.0000e+00
      1.342      0.058     8.7365    106.092     35.187  35.317685     6.6611      8.444   211.7947 5.8025e+01     2.4137      1.317      1.909    25.1798 0.0000e+00
      1.355      0.054     8.7456    106.203     35.198  35.329339     6.6950      8.444   211.3755 5.7210e+01     2.2830      1.329      1.928    25.1797 0.0000e+00
      1.366      0.051     8.7560    106.331     35.186  35.317809     6.7079      8.444   210.9748 5.6391e+01     2.2409      1.339      1.942    25.1798 0.0000e+00
      1.377      0.050     8.7628    106.414     35.173  35.305315     6.7070      8.444   210.3056 5.5553e+01     2.2704      1.350      1.958    25.1797 0.0000e+00
      1.389      0.052     8.7659    106.452     35.173  35.305315     6.6840      8.443   209.8233 5.4743e+01     2.2737      1.362      1.976    25.1799 0.0000e+00
      1.402      0.056     8.7657    106.449     35.186  35.317801     6.6316      8.443   209.6171 5.3824e+01     2.2814      1.374      1.993    25.1805 0.0000e+00
      1.416      0.061     8.7617    106.399     35.198  35.329246     6.5975      8.442   209.4466 5.2749e+01     2.3015      1.389      2.013    25.1809 0.0000e+00
      1.432      0.066     8.7594    106.371     35.186  35.316655     6.5938      8.440   209.4822 5.1606e+01     2.3034      1.404      2.036    25.1810 0.0000e+00
      1.451      0.070     8.7631    106.415     35.162  35.292602     6.6418      8.438   209.5321 5.0395e+01     2.2739      1.421      2.061    25.1808 0.0000e+00
      1.471      0.072     8.7705    106.504     35.162  35.292506     6.7276      8.436   209.7056 4.9129e+01     2.2500      1.442      2.091    25.1805 0.0000e+00
      1.491      0.072     8.7808    106.628     35.186  35.315500     6.7761      8.435   210.0321 4.7956e+01     2.2589      1.463      2.121    25.1803 0.0000e+00
      1.510      0.071     8.7948    106.797     35.187  35.316531     6.7878      8.433   210.3813 4.6934e+01     2.2594      1.481      2.148    25.1801 0.0000e+00
      1.527      0.068     8.8090    106.969     35.176  35.304971     6.8596      8.431   210.9173 4.5993e+01     2.2557      1.498      2.173    25.1796 0.0000e+00
      1.544      0.065     8.8172    107.068     35.174  35.302776     7.0007      8.430   211.4361 4.5115e+01     2.2444      1.514      2.196    25.1791 0.0000e+00
      1.559      0.063     8.8189    107.088     35.161  35.289977     7.0789      8.431   211.4061 4.4318e+01     2.2148      1.529      2.218    25.1785 0.0000e+00
      1.575      0.063     8.8141    107.028     35.148  35.277264     7.0882      8.432   210.8990 4.3543e+01     2.2331      1.545      2.240    25.1778 0.0000e+00
      1.590      0.063     8.7992    106.848     35.147  35.276109     7.0664      8.431   210.4667 4.2728e+01     2.3135      1.560      2.262    25.1774 0.0000e+00
      1.606      0.064     8.7782    106.590     35.148  35.276005     7.0082      8.430   210.8255 4.1901e+01     2.4237      1.575      2.284    25.1773 0.0000e+00
      1.622      0.067     8.7594    106.360     35.149  35.276005     6.9735      8.428   212.3976 4.1072e+01     2.4976      1.590      2.307    25.1778 0.0000e+00
      1.639      0.070     8.7439    106.170     35.149  35.276117     6.9684      8.426   213.6429 4.0203e+01     2.5042      1.606      2.330    25.1776 0.0000e+00
      1.657      0.071     8.7340    106.050     35.150  35.277355     6.9650      8.426   213.4927 3.9262e+01     2.5046      1.626      2.356    25.1766 0.0000e+00
      1.677      0.071     8.7367    106.082     35.164  35.290980     6.9693      8.427   213.1627 3.8264e+01     2.4712      1.645      2.386    25.1756 0.0000e+00
      1.697      0.069     8.7496    106.237     35.188  35.313802     6.9740      8.427   213.3531 3.7366e+01     2.3753      1.666      2.417    25.1746 0.0000e+00
      1.716      0.066     8.7695    106.475     35.175  35.299209     6.9663      8.428   213.6440 3.6695e+01     2.2911      1.685      2.444    25.1742 0.0000e+00
      1.731      0.061     8.7905    106.724     35.120  35.241582     6.9498      8.429   214.0129 3.6111e+01     2.2468      1.698      2.463    25.1737 0.0000e+00
      1.745      0.056     8.7975    106.796     35.072  35.188714     6.9033      8.430   214.4579 3.5515e+01     2.2362      1.711      2.481    25.1732 0.0000e+00
      1.759      0.052     8.7840    106.613     35.058  35.168151     6.8268      8.430   214.4640 3.4970e+01     2.2548      1.725      2.503    25.1723 0.0000e+00
      1.771      0.049     8.7605    106.307     35.080  35.183510     6.7791      8.429   214.5171 3.4472e+01     2.2578      1.737      2.519    25.1717 0.0000e+00
      1.782      0.048     8.7407    106.045     35.088  35.183838     6.7765      8.427   215.1861 3.3980e+01     2.2423      1.748      2.535    25.1689 0.0000e+00
      1.794      0.047     8.7314    105.905     35.023  35.108580     6.8137      8.425   216.2720 3.3501e+01     2.2507      1.759      2.553    25.1616 0.0000e+00
      1.806      0.046     8.7287    105.822     34.905  34.972280     6.8702      8.422   217.0632 3.3032e+01     2.2667      1.771      2.569    25.1524 0.0000e+00
      1.817      0.045     8.7238    105.677     34.834  34.869736     6.8988      8.418   216.2347 3.2542e+01     2.2833      1.782      2.585    25.1409 0.0000e+00
      1.830      0.045     8.7176    105.521     34.878  34.884991     6.9027      8.413   214.4278 3.2082e+01     2.2988      1.795      2.603    25.1292 0.0000e+00
      1.842      0.047     8.7195    105.510     34.908  34.902615     6.9174      8.403   213.9735 3.1699e+01     2.3015      1.807      2.621    25.1199 0.0000e+00
      1.852      0.052     8.7409    105.720     34.851  34.828728     6.9386      8.381   215.3018 3.1319e+01     2.3162      1.815      2.633    25.1001 0.0000e+00
      1.863      0.060     8.8049    106.328     34.835  34.753829     6.9480      8.352   216.3787 3.0865e+01     2.3249      1.826      2.648    25.0467 0.0000e+00
      1.876      0.067     8.9316    107.586     34.872  34.695640     6.9574      8.322   216.4112 3.0249e+01     2.3144      1.839      2.666    24.9887 0.0000e+00
      1.895      0.072     9.1040    109.386     34.905  34.633183     6.9514      8.294   216.6403 2.9395e+01     2.2807      1.855      2.691    24.9850 0.0000e+00
      1.920      0.077     9.2860    111.369     34.911  34.570190     6.9213      8.268   217.2557 2.8459e+01     2.2532      1.882      2.731    24.9909 0.0000e+00
      1.945      0.079     9.4660    113.407     34.822  34.442035     6.9055      8.242   218.0012 2.7720e+01     2.2871      1.911      2.770    24.9018 0.0000e+00
      1.965      0.077     9.6623    115.650     34.704  34.290463     6.9075      8.217   219.1158 2.7171e+01     2.3243      1.928      2.796    24.7367 0.0000e+00
      1.982      0.074     9.8863    118.185     34.658  34.198404     6.9181      8.192   220.2353 2.6648e+01     2.3069      1.943      2.819    24.5914 0.0000e+00
      1.999      0.070    10.1173    120.773     34.603  34.091101     7.0615      8.167   220.8687 2.6128e+01     2.2296      1.961      2.844    24.4873 0.0000e+00
      2.016      0.067    10.3292    123.088     34.520  33.945755     7.3265      8.145   221.1814 2.5638e+01     2.1523      1.977      2.868    24.4470 0.0000e+00
      2.032      0.066    10.5173    125.060     34.492  33.838311     7.4667      8.124   221.6072 2.5162e+01     2.1353      1.993      2.891    24.4105 0.0000e+00
      2.049      0.067    10.6964    126.908     34.480  33.744634     7.4693      8.103   222.4023 2.4672e+01     2.1458      2.009      2.914    24.3300 0.0000e+00
      2.066      0.068    10.8804    128.826     34.384  33.575180     7.4506      8.085   223.1376 2.4209e+01     2.1869      2.026      2.938    24.2615 0.0000e+00
      2.083      0.069    11.0640    130.722     34.326  33.440756     7.4243      8.069   223.4418 2.3781e+01     2.2355      2.043      2.963    24.1728 0.0000e+00
      2.100      0.073    11.2357    132.455     34.358  33.389526     7.3991      8.053   223.6715 2.3296e+01     2.2763      2.058      2.986    24.0478 0.0000e+00
      2.119      0.078    11.4040    134.132     34.389  33.336731     7.3856      8.036   224.8822 2.2780e+01     2.3139      2.078      3.015    23.9190 0.0000e+00
      2.139      0.083    11.5959    136.007     34.468  33.310421     7.3426      8.021   226.7236 2.2272e+01     2.2938      2.098      3.042    23.8231 0.0000e+00
      2.159      0.087    11.8226    138.202     34.610  33.325317     7.2569      8.009   227.6088 2.1707e+01     2.2464      2.116      3.069    23.7093 0.0000e+00
      2.183      0.087    12.0568    140.524     34.790  33.389629     7.2124      8.001   228.1868 2.1057e+01     2.2292      2.139      3.102    23.5786 0.0000e+00
      2.211      0.085    12.2588    142.676     34.910  33.452700     7.2001      7.995   228.7213 2.0399e+01     2.2384      2.168      3.144    23.4783 0.0000e+00
      2.236      0.082    12.4298    144.663     34.912  33.452676     7.0440      7.987   228.2207 1.9918e+01     2.2354      2.197      3.186    23.3322 0.0000e+00
      2.255      0.078    12.6039    146.630     34.927  33.452866     6.7587      7.976   227.5545 1.9594e+01     2.1932      2.213      3.210    23.1342 0.0000e+00
      2.270      0.076    12.7835    148.386     35.082  33.518509     6.5991      7.961   228.1517 1.9242e+01     2.1248      2.226      3.228    22.9491 0.0000e+00
      2.285      0.077    12.9343    149.578     35.323  33.611081     6.5851      7.945   229.4187 1.8868e+01     2.0805      2.241      3.251    22.8697 0.0000e+00
      2.302      0.080    13.0329    150.082     35.564  33.682723     6.6538      7.929   230.1404 1.8477e+01     2.0534      2.256      3.271    22.9141 0.0000e+00
      2.323      0.085    13.0745    149.960     35.793  33.749349     6.7772      7.914   231.1127 1.7971e+01     2.0109      2.275      3.300    22.9305 0.0000e+00
      2.349      0.089    13.0570    149.286     36.020  33.844795     6.8370      7.901   232.4851 1.7399e+01     1.9637      2.303      3.341    22.7968 0.0000e+00
      2.377      0.090    12.9850    148.101     36.226  33.947351     6.8431      7.887   232.7958 1.6906e+01     1.9101      2.333      3.384    22.5773 0.0000e+00
      2.401      0.090    12.8593    146.369     36.403  34.036471     6.8607      7.872   232.6315 1.6487e+01     1.9122      2.356      3.417    22.3505 0.0000e+00
      2.423      0.088    12.6840    144.107     36.611  34.160023     7.0035      7.856   232.8215 1.6095e+01     1.9281      2.377      3.447    22.1178 0.0000e+00
      2.443      0.083    12.4746    141.411     36.782  34.234283     7.2643      7.841   232.5129 1.5742e+01     1.9189      2.397      3.476    21.9628 0.0000e+00
      2.463      0.079    12.2238    138.297     36.795  34.172012     7.4048      7.826   231.5665 1.5387e+01     1.9230      2.414      3.502    21.8483 0.0000e+00
      2.484      0.077    11.9228    134.810     36.815  34.169214     7.4336      7.810   230.7578 1.5042e+01     1.8865      2.436      3.534    21.7299 0.0000e+00
      2.504      0.077    11.6023    131.114     37.079  34.390984     7.6957      7.791   230.5634 1.4773e+01     1.8122      2.457      3.564    21.6666 0.0000e+00
      2.521      0.079    11.2955    127.316     37.515  34.693757     8.1847      7.770   231.8838 1.4530e+01     1.7576      2.472      3.586    21.5336 0.0000e+00
      2.539      0.084    10.9937    123.363     38.005  34.971530     8.4557      7.749   234.5918 1.4226e+01     1.7452      2.488      3.609    21.3866 0.0000e+00
      2.559      0.087    10.6867    119.319     38.476  35.208475     8.4822      7.729   236.7193 1.3862e+01     1.7222      2.509      3.639    21.3973 0.0000e+00
      2.583      0.088    10.3843    115.387     38.750  35.271613     8.5508      7.709   237.1298 1.3446e+01     1.6636      2.531      3.672    21.4261 0.0000e+00
      2.611      0.087    10.0639    111.401     38.865  35.226512     8.6976      7.693   236.8013 1.3013e+01     1.6463      2.559      3.712    21.2734 0.0000e+00
      2.639      0.085     9.6722    106.807     38.979  35.234648     8.7955      7.676   237.4804 1.2694e+01     1.6961      2.593      3.759    21.0061 0.0000e+00
      2.660      0.080     9.1788    101.160     39.145  35.306339     8.8161      7.657   238.9743 1.2494e+01     1.7163      2.612      3.788    20.7501 0.0000e+00
      2.674      0.074     8.5662     94.153     39.365  35.394493     8.8546      7.637   239.6338 1.2309e+01     1.6774      2.621      3.802    20.4889 0.0000e+00
      2.688      0.068     7.8507     86.022     39.520  35.411054     8.9306      7.617   238.9161 1.2095e+01     1.6540      2.635      3.822    20.2799 0.0000e+00
      2.706      0.064     7.1133     77.795     39.564  35.379361     8.9713      7.597   239.1579 1.1849e+01     1.6773      2.653      3.848    20.1835 0.0000e+00
      2.725      0.063     6.4317     70.318     39.589  35.392331     8.9795      7.577   240.5793 1.1630e+01     1.7145      2.673      3.876    20.1169 0.0000e+00
      2.740      0.063     5.8474     63.892     39.674  35.440827     9.0752      7.558   240.7858 1.1463e+01     1.6767      2.688      3.899    19.9645 0.0000e+00
      2.755      0.062     5.3739     58.602     39.782  35.457519     9.2553      7.539   240.4507 1.1282e+01     1.5553      2.701      3.916    19.7660 0.0000e+00
      2.771      0.062     5.0091     54.529     39.867  35.466990     9.3568      7.519   241.0015 1.1090e+01     1.4677      2.717      3.941    19.6665 0.0000e+00
      2.787      0.063     4.7668     51.819     40.029  35.555245     9.3645      7.497   242.6278 1.0945e+01     1.4718      2.735      3.965    19.7056 0.0000e+00
      2.801      0.066     4.6514     50.416     40.324  35.698757     9.3483      7.476   243.7671 1.0801e+01     1.4834      2.746      3.983    19.7081 0.0000e+00
      2.816      0.070     4.6155     49.816     40.635  35.804524     9.2154      7.454   244.3647 1.0598e+01     1.4553      2.762      4.004    19.5382 0.0000e+00
      2.835      0.074     4.6082     49.544     40.900  35.880982     8.9799      7.432   245.0350 1.0346e+01     1.4374      2.780      4.031    19.4544 0.0000e+00
      2.857      0.077     4.6072     49.383     41.162  35.987765     8.8535      7.412   244.3863 1.0094e+01     1.4504      2.800      4.062    19.4587 0.0000e+00
      2.879      0.078     4.5812     48.978     41.388  36.079083     8.8265      7.393   243.9212 9.8778e+00     1.4895      2.823      4.096    19.2844 0.0000e+00
      2.899      0.077     4.5014     48.017     41.513  36.095626     8.6267      7.375   244.7467 9.6700e+00     1.5143      2.842      4.123    19.0396 0.0000e+00
      2.919      0.072     4.3575     46.427     41.525  36.060611     8.2667      7.358   245.3328 9.4813e+00     1.5060      2.863      4.153    18.8409 0.0000e+00
      2.939      0.065     4.1500     44.220     41.494  36.036813     8.0671      7.343   245.4150 9.3288e+00     1.5113      2.884      4.183    18.7058 0.0000e+00
      2.956      0.058     3.8999     41.568     41.509  36.061990     8.0331      7.327   245.2237 9.1973e+00     1.5165      2.899      4.205    18.5846 0.0000e+00
      2.968      0.053     3.6348     38.732     41.579  36.110948     7.9556      7.310   244.9136 9.1007e+00     1.5082      2.912      4.224    18.4460 0.0000e+00
      2.977      0.051     3.3786     35.953     41.659  36.120548     7.8203      7.291   244.5903 9.0007e+00     1.5025      2.920      4.236    18.3863 0.0000e+00
      2.986      0.053     3.1621     33.543     41.879  36.177990     7.7388      7.271   244.2402 8.8657e+00     1.4781      2.927      4.245    18.4206 0.0000e+00
      2.998      0.058     3.0074     31.763     42.445  36.487679     7.6968      7.249   244.6386 8.7133e+00     1.4581      2.939      4.263    18.4461 0.0000e+00
      3.015      0.067     2.9152     30.657     43.105  36.879014     7.4038      7.227   246.5671 8.5424e+00     1.4123      2.955      4.287    18.4341 0.0000e+00
      3.034      0.077     2.8688     30.052     43.476  37.034273     6.8886      7.207   248.5431 8.3587e+00     1.3217      2.974      4.314    18.3892 0.0000e+00
      3.055      0.084     2.8361     29.604     43.649  37.030633     6.6142      7.191   249.3439 8.1663e+00     1.2773      2.993      4.341    18.2100 0.0000e+00
      3.080      0.086     2.7849     28.979     43.798  37.025389     6.5772      7.177   250.3133 7.9545e+00     1.2729      3.019      4.377    17.9702 0.0000e+00
      3.107      0.083     2.6895     27.924     43.919  37.034230     6.4133      7.163   252.1755 7.7563e+00     1.2685      3.050      4.424    17.7707 0.0000e+00
      3.131      0.077     2.5267     26.200     44.031  37.073893     6.1212      7.149   254.0497 7.6256e+00     1.2845      3.073      4.457    17.5831 0.0000e+00
      3.148      0.068     2.2927     23.755     44.130  37.123719     5.9673      7.136   254.6487 7.5302e+00     1.2836      3.087      4.476    17.4097 0.0000e+00
      3.163      0.058     2.0103     20.821     44.153  37.128412     5.9499      7.121   254.4268 7.4296e+00     1.2584      3.102      4.498    17.2463 0.0000e+00
      3.176      0.051     1.7088     17.698     44.158  37.130612     5.9202      7.106   254.7230 7.3474e+00     1.2537      3.116      4.519    17.1388 0.0000e+00
      3.186      0.047     1.4196     14.698     44.279  37.213847     5.6728      7.089   254.5296 7.3081e+00     1.2581      3.126      4.533    17.0925 0.0000e+00
      3.194      0.047     1.1771     12.168     44.480  37.308915     5.2283      7.070   252.6916 7.2778e+00     1.2499      3.133      4.543    17.0489 0.0000e+00
      3.204      0.052     0.9951     10.256     44.661  37.327054     4.9848      7.052   250.9973 7.2004e+00     1.2457      3.140      4.555    17.0349 0.0000e+00
      3.217      0.060     0.8720      8.952     44.829  37.305935     4.9342      7.033   251.0808 7.0953e+00     1.2685      3.153      4.574    17.0436 0.0000e+00
      3.232      0.071     0.7981      8.161     45.031  37.307490     4.7173      7.013   252.5820 6.9875e+00     1.2815      3.169      4.596    17.0439 0.0000e+00
      3.251      0.082     0.7547      7.690     45.251  37.345640     4.3477      6.995   254.7802 6.8429e+00     1.2803      3.186      4.621    16.9661 0.0000e+00
      3.275      0.087     0.7243      7.362     45.422  37.385855     4.1593      6.980   256.6650 6.6701e+00     1.2845      3.210      4.656    16.7901 0.0000e+00
      3.304      0.087     0.6903      7.006     45.533  37.412429     4.1480      6.968   257.9909 6.5177e+00     1.2715      3.241      4.700    16.6090 0.0000e+00
      3.332      0.081     0.6385      6.475     45.583  37.412747     4.1108      6.957   258.4218 6.3957e+00     1.2150      3.271      4.744    16.4126 0.0000e+00
      3.355      0.070     0.5634      5.710     45.590  37.389648     4.0496      6.945   257.4873 6.2937e+00     1.1202      3.294      4.777    16.2386 0.0000e+00
      3.370      0.056     0.4705      4.766     45.618  37.387227     4.0236      6.933   256.4140 6.2287e+00     1.0710      3.307      4.797    16.1394 0.0000e+00
      3.379      0.044     0.3754      3.800     45.639  37.383452     4.0179      6.921   256.0271 6.1976e+00     1.0785      3.316      4.809    16.0702 0.0000e+00
      3.384      0.035     0.2949      2.984     45.617  37.343974     4.0444      6.911   256.1648 6.1484e+00     1.0575      3.319      4.815    16.0283 0.0000e+00
      3.389      0.031     0.2341      2.368     45.591  37.291044     4.1059      6.901   256.6166 6.0831e+00     1.0310      3.323      4.819    16.0025 0.0000e+00
      3.394      0.032     0.1901      1.921     45.599  37.251682     4.1361      6.891   257.2748 6.0410e+00     1.0641      3.329      4.826    15.9719 0.0000e+00
      3.404      0.036     0.1634      1.648     45.694  37.249163     4.1423      6.881   257.9277 5.9942e+00     1.0909      3.337      4.840    15.9496 0.0000e+00
      3.415      0.041     0.1538      1.547     45.851  37.260503     4.1628      6.870   258.0578 5.9220e+00     1.0803      3.350      4.857    15.9356 0.0000e+00
      3.426      0.045     0.1590      1.594     45.992  37.261583     4.1905      6.859   257.9017 5.8598e+00     1.0579      3.360      4.873    15.8956 0.0000e+00
      3.440      0.046     0.1734      1.734     46.097  37.262078     4.2023      6.849   257.6745 5.8054e+00     1.0337      3.372      4.892    15.8549 0.0000e+00
      3.454      0.046     0.1900      1.898     46.186  37.266390     4.2039      6.839   257.1176 5.7506e+00     1.0627      3.388      4.914    15.7794 0.0000e+00
      3.465      0.047     0.2046      2.041     46.324  37.313641     4.2004      6.827   256.5889 5.6983e+00     1.1035      3.398      4.929    15.6228 0.0000e+00
      3.475      0.050     0.2174      2.165     46.589  37.452131     4.1235      6.813   256.7887 5.6426e+00     1.0995      3.407      4.942    15.4900 0.0000e+00
      3.485      0.053     0.2306      2.292     46.893  37.606663     3.9722      6.798   257.6407 5.5866e+00     1.0750      3.417      4.957    15.4094 0.0000e+00
      3.498      0.057     0.2445      2.425     47.061  37.657254     3.8789      6.784   258.7164 5.5158e+00     1.0511      3.429      4.972    15.3387 0.0000e+00
      3.514      0.061     0.2595      2.570     47.095  37.619019     3.8313      6.771   259.9861 5.4294e+00     1.0556      3.445      4.995    15.2749 0.0000e+00
      3.533      0.063     0.2750      2.721     47.107  37.588989     3.4154      6.759   260.7743 5.3376e+00     1.1282      3.464      5.025    15.2010 0.0000e+00
      3.553      0.062     0.2868      2.837     47.143  37.611770     2.6544      6.749   260.9341 5.2554e+00     1.2587      3.484      5.053    15.0889 0.0000e+00
      3.570      0.059     0.2928      2.897     47.255  37.703866     2.2402      6.739   261.4018 5.1943e+00     1.3217      3.503      5.080    14.9971 0.0000e+00
      3.584      0.055     0.2953      2.920     47.512  37.876622     2.2026      6.729   262.2997 5.1352e+00     1.2795      3.516      5.100    14.9303 0.0000e+00
      3.594      0.050     0.2944      2.907     47.742  37.985185     2.2457      6.720   262.8424 5.0831e+00     1.2971      3.524      5.111    14.8742 0.0000e+00
      3.604      0.046     0.2892      2.851     47.763  37.936377     2.3383      6.710   263.1452 5.0425e+00     1.4128      3.532      5.123    14.8833 0.0000e+00
      3.616      0.042     0.2817      2.776     47.680  37.858191     2.3855      6.701   263.2936 4.9942e+00     1.4577      3.546      5.144    14.9057 0.0000e+00
      3.629      0.040     0.2723      2.685     47.662  37.865735     2.4022      6.692   262.7443 4.9400e+00     1.4431      3.560      5.164    14.8801 0.0000e+00
      3.639      0.038     0.2608      2.572     47.847  38.027620     2.5682      6.685   262.6118 4.8858e+00     1.4798      3.569      5.177    14.7754 0.0000e+00
      3.648      0.036     0.2501      2.465     48.114  38.227262     2.8585      6.678   263.4987 4.8417e+00     1.5348      3.577      5.187    14.6801 0.0000e+00
      3.655      0.034     0.2411      2.375     48.176  38.246562     3.0166      6.673   263.7454 4.8114e+00     1.5590      3.585      5.198    14.6860 0.0000e+00
      3.663      0.033     0.2329      2.294     48.300  38.324465     3.0373      6.667   262.7559 4.7756e+00     1.5587      3.592      5.209    14.7236 0.0000e+00
      3.671      0.035     0.2264      2.228     48.842  38.724424     3.0353      6.660   261.9444 4.7274e+00     1.5923      3.600      5.222    14.7464 0.0000e+00
      3.679      0.039     0.2221      2.181     49.491  39.143341     3.0290      6.653   261.7636 4.6885e+00     1.6604      3.608      5.233    14.7340 0.0000e+00
      3.688      0.045     0.2201      2.154     49.911  39.323296     3.0349      6.646   262.4626 4.6623e+00     1.7119      3.615      5.244    14.6806 0.0000e+00
      3.699      0.051     0.2187      2.133     50.171  39.375224     3.0413      6.639   263.9429 4.6137e+00     1.7262      3.626      5.260    14.6650 0.0000e+00
      3.714      0.056     0.2192      2.132     50.353  39.389801     3.0233      6.630   265.1211 4.5369e+00     1.7109      3.641      5.281    14.6742 0.0000e+00
      3.732      0.060     0.2226      2.161     50.528  39.435861     2.7993      6.619   267.1574 4.4594e+00     1.7706      3.659      5.308    14.5682 0.0000e+00
      3.750      0.062     0.2257      2.190     50.728  39.550799     2.3833      6.609   269.8074 4.3991e+00     1.8995      3.678      5.334    14.3831 0.0000e+00
      3.767      0.062     0.2276      2.208     50.779  39.572276     2.1566      6.599   269.9744 4.3498e+00     1.9570      3.694      5.358    14.2294 0.0000e+00
      3.782      0.058     0.2281      2.211     50.723  39.504914     2.1353      6.590   268.4878 4.2896e+00     1.9767      3.709      5.380    14.1009 0.0000e+00
      3.797      0.054     0.2261      2.190     50.735  39.498736     2.1166      6.583   267.8366 4.2200e+00     2.0462      3.725      5.402    13.9959 0.0000e+00
      3.811      0.051     0.2217      2.147     50.762  39.497570     2.0869      6.575   267.6923 4.1648e+00     2.1259      3.739      5.423    13.9723 0.0000e+00
      3.821      0.049     0.2167      2.095     50.762  39.427254     2.0701      6.565   267.6893 4.1287e+00     2.1780      3.748      5.436    13.9735 0.0000e+00
      3.831      0.049     0.2104      2.030     50.788  39.347364     2.0781      6.556   268.1457 4.0852e+00     2.2190      3.755      5.446    13.9282 0.0000e+00
      3.843      0.050     0.2034      1.960     50.793  39.293931     2.1743      6.550   268.3057 4.0239e+00     2.2545      3.768      5.465    13.9207 0.0000e+00
      3.858      0.051     0.1977      1.906     50.675  39.225872     2.3510      6.543   267.6443 3.9480e+00     2.2718      3.784      5.489    13.9253 0.0000e+00
      3.872      0.054     0.1936      1.867     50.478  39.096324     2.4503      6.535   267.1181 3.8760e+00     2.2748      3.797      5.507    13.8494 0.0000e+00
      3.885      0.059     0.1928      1.856     50.365  38.934789     2.4563      6.528   267.5362 3.8265e+00     2.2918      3.810      5.524    13.7166 0.0000e+00
      3.899      0.064     0.1968      1.889     50.298  38.733969     2.4040      6.522   268.7424 3.7795e+00     2.3240      3.824      5.546    13.6355 0.0000e+00
      3.915      0.070     0.2023      1.935     50.028  38.383471     2.3054      6.515   269.7426 3.7241e+00     2.3288      3.839      5.568    13.6954 0.0000e+00
      3.933      0.075     0.2061      1.965     49.683  38.000490     2.2573      6.509   270.3368 3.6575e+00     2.2889      3.855      5.592    13.7739 0.0000e+00
      3.954      0.077     0.2101      1.999     49.547  37.788116     2.2633      6.503   271.3665 3.5720e+00     2.2693      3.877      5.623    13.6811 0.0000e+00
      3.979      0.077     0.2172      2.063     49.493  37.657973     2.2502      6.498   271.8687 3.4801e+00     2.3361      3.903      5.660    13.4869 0.0000e+00
      4.002      0.073     0.2322      2.203     49.382  37.506863     2.2182      6.492   271.2459 3.4174e+00     2.4550      3.927      5.696    13.3493 0.0000e+00
      4.020      0.067     0.2648      2.508     49.257  37.358638     2.2061      6.487   271.3219 3.3809e+00     2.5163      3.944      5.720    13.2413 0.0000e+00
      4.034      0.059     0.3263      3.087     49.116  37.199877     2.2054      6.483   272.0989 3.3344e+00     2.4972      3.958      5.739    13.1216 0.0000e+00
      4.047      0.052     0.4239      4.006     48.985  37.048407     2.1824      6.480   272.6396 3.2871e+00     2.4993      3.969      5.756    13.0314 0.0000e+00
      4.057      0.046     0.5603      5.289     48.886  36.924806     2.1487      6.476   273.6440 3.2559e+00     2.5724      3.979      5.770    12.9705 0.0000e+00
      4.068      0.042     0.7353      6.935     48.757  36.785355     2.1385      6.472   274.9501 3.2212e+00     2.6480      3.990      5.786    12.9182 0.0000e+00
      4.079      0.039     0.9437      8.893     48.603  36.632829     2.1417      6.469   275.5261 3.1774e+00     2.6813      4.001      5.802    12.8673 0.0000e+00
      4.089      0.037     1.1734     11.050     48.524  36.541723     2.1314      6.466   275.1871 3.1427e+00     2.7000      4.010      5.816    12.8113 0.0000e+00
      4.098      0.035     1.4145     13.313     48.601  36.573147     2.0876      6.463   274.6373 3.1133e+00     2.7526      4.018      5.829    12.7606 0.0000e+00
      4.107      0.033     1.6643     15.658     48.698  36.631577     2.0260      6.460   274.2986 3.0824e+00     2.8291      4.028      5.842    12.7189 0.0000e+00
      4.114      0.033     1.9195     18.057     48.594  36.549379     2.0021      6.458   273.4152 3.0570e+00     2.8622      4.035      5.852    12.6807 0.0000e+00
      4.121      0.034     2.1785     20.489     48.416  36.405149     2.0111      6.455   272.0445 3.0356e+00     2.8785      4.042      5.862    12.6483 0.0000e+00
      4.129      0.036     2.4348     22.887     48.290  36.285293     2.0333      6.451   272.4380 3.0120e+00     2.9031      4.049      5.872    12.6191 0.0000e+00
      4.139      0.039     2.6658     25.039     48.108  36.116591     2.0593      6.447   274.3008 2.9830e+00     2.8856      4.058      5.885    12.6009 0.0000e+00
      4.149      0.044     2.8574     26.818     47.936  35.953496     2.0672      6.445   274.6937 2.9537e+00     2.8496      4.069      5.903    12.6075 0.0000e+00
      4.160      0.049     3.0132     28.257     47.828  35.837907     2.0553      6.443   274.4342 2.9196e+00     2.9259      4.079      5.916    12.6019 0.0000e+00
      4.173      0.053     3.1420     29.442     47.736  35.735384     1.8512      6.440   275.3797 2.8691e+00     3.7470      4.090      5.933    12.5677 0.0000e+00
      4.189      0.056     3.2528     30.459     47.683  35.666731     1.4650      6.437   276.4885 2.8173e+00     5.2088      4.108      5.959    12.5342 0.0000e+00
      4.205      0.057     3.3554     31.403     47.683  35.643044     1.2542      6.434   277.3443 2.7732e+00     6.0125      4.124      5.982    12.4999 0.0000e+00
      4.221      0.057     3.4685     32.443     47.710  35.639529     1.2235      6.430   278.3275 2.7332e+00     6.1098      4.138      6.002    12.4614 0.0000e+00
      4.236      0.055     3.6112     33.754     47.726  35.624206     1.1491      6.428   278.5676 2.6998e+00     6.5681      4.155      6.026    12.4250 0.0000e+00
      4.250      0.052     3.7895     35.394     47.716  35.584786     1.0348      6.426   277.9245 2.6693e+00     7.4645      4.169      6.046    12.3938 0.0000e+00
      4.262      0.048     4.0015     37.345     47.705  35.544018     0.9817      6.424   277.2631 2.6358e+00     7.9762      4.179      6.061    12.3718 0.0000e+00
      4.275      0.045     4.2345     39.492     47.704  35.512398     0.9749      6.420   277.5400 2.6007e+00     8.0247      4.192      6.079    12.3501 0.0000e+00
      4.286      0.042     4.4615     41.579     47.669  35.456534     0.9164      6.416   278.0029 2.5734e+00     7.9896      4.204      6.097    12.3199 0.0000e+00
      4.295      0.040     4.6660     43.456     47.600  35.376729     0.8257      6.413   277.1810 2.5468e+00     7.9489      4.212      6.109    12.2844 0.0000e+00
      4.304      0.038     4.8439     45.085     47.545  35.309733     0.7885      6.410   276.3775 2.5172e+00     7.9603      4.220      6.121    12.2499 0.0000e+00
      4.314      0.037     4.9897     46.414     47.541  35.281691     0.7877      6.406   276.3765 2.5002e+00     8.0044      4.230      6.136    12.2181 0.0000e+00
      4.323      0.036     5.1072     47.480     47.587  35.291744     0.7888      6.404   276.0504 2.4832e+00     8.0252      4.239      6.148    12.1866 0.0000e+00
      4.332      0.036     5.2028     48.343     47.634  35.304209     0.8291      6.403   275.2738 2.4583e+00     7.9981      4.247      6.160    12.1571 0.0000e+00
      4.342      0.037     5.2783     49.022     47.662  35.305335     0.9080      6.401   274.8159 2.4449e+00     7.9815      4.258      6.176    12.1301 0.0000e+00
      4.351      0.039     5.3422     49.595     47.686  35.305332     0.9615      6.400   274.6447 2.4343e+00     8.0075      4.267      6.189    12.1035 0.0000e+00
      4.359      0.042     5.4030     50.140     47.705  35.304161     0.9885      6.397   274.5812 2.4138e+00     8.0075      4.274      6.200    12.0771 0.0000e+00
      4.369      0.047     5.4602     50.651     47.709  35.291153     1.0585      6.394   275.1666 2.3803e+00     7.7679      4.284      6.215    12.0539 0.0000e+00
      4.381      0.052     5.5184     51.171     47.710  35.275081     1.1652      6.392   275.7848 2.3318e+00     7.3376      4.297      6.231    12.0332 0.0000e+00
      4.395      0.058     5.5777     51.697     47.685  35.236867     1.2213      6.389   275.7753 2.2888e+00     7.1391      4.311      6.252    12.0149 0.0000e+00
      4.410      0.064     5.6267     52.124     47.593  35.146702     1.2229      6.384   276.0847 2.2563e+00     7.1677      4.324      6.272    11.9992 0.0000e+00
      4.428      0.068     5.6661     52.463     47.522  35.074203     1.2027      6.380   276.7721 2.2241e+00     7.3178      4.342      6.297    11.9832 0.0000e+00
      4.449      0.071     5.7021     52.781     47.519  35.059018     1.1702      6.377   277.0313 2.1930e+00     7.5808      4.363      6.328    11.9662 0.0000e+00
      4.469      0.071     5.7370     53.094     47.572  35.090125     1.1527      6.375   277.2393 2.1545e+00     7.7227      4.382      6.356    11.9459 0.0000e+00
      4.488      0.070     5.7748     53.428     47.645  35.132701     1.1462      6.374   278.0827 2.1123e+00     7.7816      4.401      6.385    11.9208 0.0000e+00
      4.505      0.067     5.8164     53.789     47.665  35.129123     1.0831      6.371   278.9693 2.0837e+00     8.0804      4.419      6.409    11.8963 0.0000e+00
      4.520      0.064     5.8579     54.149     47.665  35.110366     0.9499      6.367   278.8388 2.0562e+00     8.5589      4.432      6.427    11.8840 0.0000e+00
      4.535      0.061     5.8996     54.514     47.667  35.096463     0.8584      6.365   278.1397 2.0101e+00     8.7750      4.446      6.449    11.8808 0.0000e+00
      4.552      0.059     5.9451     54.919     47.672  35.088043     0.8410      6.363   278.0017 1.9654e+00     8.7708      4.464      6.474    11.8691 0.0000e+00
      4.568      0.059     5.9895     55.313     47.753  35.135593     0.8593      6.361   278.6337 1.9422e+00     8.8126      4.481      6.499    11.8475 0.0000e+00
      4.581      0.059     6.0240     55.617     47.893  35.226720     0.8956      6.361   279.6716 1.9086e+00     8.8531      4.492      6.517    11.8256 0.0000e+00
      4.594      0.060     6.0485     55.829     48.007  35.300515     0.9126      6.359   280.7429 1.8551e+00     8.8641      4.505      6.534    11.8100 0.0000e+00
      4.609      0.061     6.0666     55.984     48.058  35.329076     0.9094      6.356   282.2074 1.8151e+00     8.8539      4.518      6.553    11.7990 0.0000e+00
      4.625      0.063     6.0791     56.089     48.053  35.317947     0.9023      6.353   284.5592 1.7835e+00     8.8218      4.534      6.576    11.7864 0.0000e+00
      4.643      0.064     6.0845     56.129     48.030  35.292995     0.8537      6.351   285.6905 1.7454e+00     8.9024      4.553      6.603    11.7730 0.0000e+00
      4.660      0.062     6.0804     56.082     48.023  35.281470     0.7626      6.348   284.5281 1.7110e+00     9.0969      4.570      6.628    11.7623 0.0000e+00
      4.678      0.060     6.0641     55.925     48.063  35.305631     0.7026      6.345   283.1522 1.6713e+00     9.2195      4.588      6.654    11.7540 0.0000e+00
      4.694      0.059     6.0366     55.667     48.102  35.331033     0.6883      6.342   281.9606 1.6268e+00     9.2865      4.605      6.678    11.7461 0.0000e+00
      4.705      0.060     6.0001     55.327     48.111  35.334499     0.6911      6.338   281.6501 1.6062e+00     9.4188      4.616      6.694    11.7377 0.0000e+00
      4.715      0.062     5.9569     54.922     48.135  35.347538     0.6989      6.334   282.3227 1.5914e+00     9.5682      4.621      6.702    11.7299 0.0000e+00
      4.730      0.062     5.9125     54.507     48.161  35.361627     0.7001      6.331   282.3498 1.5466e+00     9.6272      4.636      6.725    11.7244 0.0000e+00
      4.752      0.063     5.8728     54.136     48.188  35.377801     0.6969      6.328   282.2357 1.4854e+00     9.6438      4.661      6.760    11.7225 0.0000e+00
      4.772      0.064     5.8371     53.804     48.244  35.416041     0.7058      6.326   282.4060 1.4360e+00     9.6165      4.682      6.790    11.7201 0.0000e+00
      4.788      0.065     5.8030     53.486     48.284  35.442835     0.7157      6.324   282.3430 1.4023e+00     9.5412      4.698      6.813    11.7141 0.0000e+00
      4.801      0.064     5.7736     53.213     48.293  35.447665     0.7066      6.322   282.3352 1.3665e+00     9.4958      4.708      6.829    11.7087 0.0000e+00
      4.814      0.063     5.7509     53.001     48.331  35.474450     0.6967      6.320   282.4840 1.3338e+00     9.4649      4.719      6.845    11.7052 0.0000e+00
      4.831      0.063     5.7299     52.805     48.386  35.512584     0.6973      6.318   282.4213 1.3153e+00     9.4422      4.737      6.871    11.7022 0.0000e+00
      4.851      0.064     5.7074     52.595     48.410  35.527591     0.7051      6.316   282.4381 1.2879e+00     9.4350      4.757      6.900    11.6997 0.0000e+00
      4.869      0.066     5.6819     52.357     48.416  35.528852     0.7167      6.313   283.0314 1.2463e+00     9.4391      4.776      6.927    11.6979 0.0000e+00
      4.885      0.068     5.6545     52.101     48.419  35.527831     0.7185      6.309   283.8296 1.2102e+00     9.4620      4.792      6.949    11.6967 0.0000e+00
      4.899      0.070     5.6281     51.854     48.405  35.515232     0.6992      6.305   284.6039 1.1840e+00     9.5586      4.803      6.966    11.6945 0.0000e+00
      4.915      0.071     5.6011     51.603     48.392  35.503569     0.6769      6.301   285.7680 1.1512e+00     9.7219      4.817      6.986    11.6917 0.0000e+00
      4.935      0.071     5.5705     51.318     48.409  35.513859     0.6786      6.300   287.2359 1.1082e+00     9.8497      4.839      7.018    11.6890 0.0000e+00
      4.958      0.068     5.5395     51.031     48.409  35.512599     0.6828      6.298   287.8111 1.0607e+00     9.9133      4.862      7.053    11.6859 0.0000e+00
      4.979      0.063     5.5133     50.787     48.378  35.488335     0.6725      6.295   286.6139 1.0067e+00     9.9116      4.884      7.084    11.6828 0.0000e+00
      4.995      0.058     5.4933     50.601     48.361  35.474570     0.6730      6.292   285.1509 9.7181e-01     9.8896      4.900      7.107    11.6808 0.0000e+00
      5.006      0.053     5.4809     50.486     48.361  35.473216     0.6892      6.292   284.7488 9.7030e-01     9.8914      4.911      7.123    11.6788 0.0000e+00
      5.014      0.051     5.4748     50.428     48.361  35.471957     0.7027      6.290   284.7632 9.7732e-01     9.9033      4.917      7.132    11.6768 0.0000e+00
      5.021      0.053     5.4735     50.415     48.345  35.459347     0.7076      6.285   285.0665 9.5477e-01     9.9112      4.922      7.139    11.6754 0.0000e+00
      5.034      0.058     5.4796     50.470     48.331  35.447797     0.7208      6.281   285.5769 9.1050e-01     9.9563      4.934      7.156    11.6739 0.0000e+00
      5.053      0.064     5.4931     50.592     48.349  35.459356     0.7519      6.279   285.9446 8.8357e-01    10.0528      4.954      7.185    11.6724 0.0000e+00
      5.074      0.069     5.5101     50.746     48.369  35.472061     0.7717      6.277   286.5009 8.6437e-01    10.1011      4.976      7.218    11.6713 0.0000e+00
      5.094      0.071     5.5277     50.908     48.373  35.474353     0.7677      6.276   286.8825 8.4179e-01    10.1129      4.996      7.246    11.6703 0.0000e+00
      5.112      0.069     5.5442     51.060     48.390  35.487068     0.7495      6.276   286.7728 8.1528e-01    10.1336      5.014      7.272    11.6690 0.0000e+00
      5.129      0.065     5.5592     51.199     48.406  35.498753     0.7261      6.275   286.5510 7.9333e-01    10.1380      5.030      7.296    11.6673 0.0000e+00
      5.145      0.061     5.5750     51.343     48.394  35.488590     0.7137      6.274   286.2664 7.8775e-01    10.1056      5.047      7.320    11.6652 0.0000e+00
      5.160      0.059     5.5907     51.483     48.402  35.491235     0.7101      6.273   285.7397 7.7240e-01    10.0773      5.061      7.340    11.6646 0.0000e+00
      5.173      0.057     5.6030     51.592     48.462  35.530723     0.7284      6.271   285.1736 7.4460e-01    10.1923      5.072      7.356    11.6651 0.0000e+00
      5.188      0.055     5.6097     51.647     48.542  35.584884     0.7601      6.269   285.1000 7.3150e-01    10.3983      5.087      7.378    11.6656 0.0000e+00
      5.202      0.053     5.6117     51.661     48.619  35.637899     0.7633      6.268   285.3663 7.2134e-01    10.4920      5.101      7.399    11.6646 0.0000e+00
      5.216      0.052     5.6107     51.647     48.659  35.663528     0.7576      6.267   285.3820 6.9832e-01    10.4713      5.115      7.418    11.6611 0.0000e+00
      5.230      0.050     5.6071     51.610     48.632  35.640660     0.7557      6.266   285.5480 6.7982e-01    10.4528      5.129      7.439    11.6563 0.0000e+00
      5.242      0.047     5.5983     51.527     48.600  35.615491     0.7405      6.264   286.4255 6.7446e-01    10.4819      5.141      7.457    11.6510 0.0000e+00
      5.253      0.044     5.5814     51.372     48.598  35.613308     0.7209      6.262   286.9586 6.7178e-01    10.5183      5.152      7.472    11.6469 0.0000e+00
      5.264      0.040     5.5582     51.158     48.599  35.614269     0.7118      6.262   286.2294 6.6949e-01    10.5265      5.163      7.488    11.6431 0.0000e+00
      5.275      0.035     5.5315     50.911     48.617  35.627111     0.7132      6.262   285.0083 6.6561e-01    10.5192      5.174      7.504    11.6396 0.0000e+00
      5.284      0.031     5.5033     50.652     48.637  35.641532     0.7007      6.262   284.1533 6.6162e-01    10.5227      5.182      7.516    11.6386 0.0000e+00
      5.291      0.028     5.4761     50.402     48.664  35.661587     0.6798      6.260   283.8080 6.6271e-01    10.5373      5.189      7.525    11.6383 0.0000e+00
      5.296      0.026     5.4631     50.282     48.687  35.679007     0.6728      6.259   283.7581 6.5753e-01    10.5436      5.195      7.533    11.6379 0.0000e+00
      5.301 -9.990e-29 -9.990e-29 -9.990e-29 -9.990e-29 -9.990e-29 -9.990e-29 -9.990e-29 -9.990e-29 6.4616e-01 -9.990e-29      5.198      7.540    11.6373 0.0000e+00
      5.306 -9.990e-29 -9.990e-29 -9.990e-29 -9.990e-29 -9.990e-29 -9.990e-29 -9.990e-29 -9.990e-29 6.3880e-01 -9.990e-29      5.204      7.548    11.6373 0.0000e+00
      5.310 -9.990e-29 -9.990e-29 -9.990e-29 -9.990e-29 -9.990e-29 -9.990e-29 -9.990e-29 -9.990e-29 6.2787e-01 -9.990e-29      5.208      7.553    11.6383 0.0000e+00
      5.311 -9.990e-29 -9.990e-29 -9.990e-29 -9.990e-29 -9.990e-29 -9.990e-29 -9.990e-29 -9.990e-29 6.1958e-01 -9.990e-29      5.209      7.555    11.6386 0.0000e+00
