* Sea-Bird SBE19plus  Data File:
* FileName = C:\DATA\MSN2_CTD_CASTS_072419\072419_bvr50_b_0002.hex
* Software version 2.8.0.119 SB_Terminal.dll
* Temperature SN = 7809
* Conductivity SN = 7809
* System UpLoad Time = Jul 24 2019 18:33:01
* <ApplicationData>
* <Seaterm232>
* <SoftwareVersion>2.8.0.119</SoftwareVersion>
* <BuildDate>07-Nov-2018</BuildDate>
* </Seaterm232>
* </ApplicationData>
* cast   2 24 Jul 2019 18:21:38 samples 1573 to 2767, avg = 1, stop = mag switch
# nquan = 16
# nvalues = 1064                        
# units = specified
# name 0 = depFM: Depth [fresh water, m]
# name 1 = dz/dtM: Descent Rate [m/s]
# name 2 = sbeox0Mg/L: Oxygen, SBE 43 [mg/l]
# name 3 = sbeox0PS: Oxygen, SBE 43 [% saturation]
# name 4 = specc: Specific Conductance [uS/cm]
# name 5 = c0uS/cm: Conductivity [uS/cm]
# name 6 = flECO-AFL: Fluorescence, WET Labs ECO-AFL/FL [mg/m^3]
# name 7 = ph: pH
# name 8 = orp: Oxidation Reduction Potential [mV]
# name 9 = par/sat/log: PAR/Logarithmic, Satlantic
# name 10 = turbWETntu0: Turbidity, WET Labs ECO [NTU]
# name 11 = prdM: Pressure, Strain Gauge [db]
# name 12 = prdE: Pressure, Strain Gauge [psi]
# name 13 = tv290C: Temperature [ITS-90, deg C]
# name 14 = density00: Density [density, kg/m^3]
# name 15 = flag:  0.000e+00
# span 0 =     -0.676,     10.568       
# span 1 =     -0.027,      0.144       
# span 2 =    -0.1936,     8.1674       
# span 3 =     -1.924,    104.410       
# span 4 =      0.656,    291.403       
# span 5 =   0.703640, 195.121890       
# span 6 =    -0.5384,    26.3282       
# span 7 =      0.333,      8.381       
# span 8 = -1240.7455,   604.0399       
# span 9 = 1.2345e-01, 1.0176e+03       
# span 10 =    -4.1264,    17.1984      
# span 11 =     -0.664,     10.364      
# span 12 =     -0.963,     15.031      
# span 13 =     8.4615,    28.5982      
# span 14 =   996.0704,   999.9889      
# span 15 = 0.0000e+00, 0.0000e+00      
# interval = seconds: 0.25
# start_time = Jul 24 2019 18:21:38 [Instrument's time stamp, header]
# bad_flag = -9.990e-29
# <Sensors count="9" >
#   <sensor Channel="1" >
#     <!-- Count, Temperature -->
#     <TemperatureSensor SensorID="58" >
#       <SerialNumber>7809</SerialNumber>
#       <CalibrationDate>24-Mar-19</CalibrationDate>
#       <A0>1.21792325e-003</A0>
#       <A1>2.81669265e-004</A1>
#       <A2>-1.60333336e-006</A2>
#       <A3>1.98414625e-007</A3>
#       <Slope>1.00000000</Slope>
#       <Offset>0.0000</Offset>
#     </TemperatureSensor>
#   </sensor>
#   <sensor Channel="2" >
#     <!-- Frequency 0, Conductivity -->
#     <ConductivitySensor SensorID="3" >
#       <SerialNumber>7809</SerialNumber>
#       <CalibrationDate>24-Mar-19</CalibrationDate>
#       <UseG_J>1</UseG_J>
#       <!-- Cell const and series R are applicable only for wide range sensors. -->
#       <SeriesR>0.0000</SeriesR>
#       <CellConst>2000.0000</CellConst>
#       <ConductivityType>0</ConductivityType>
#       <Coefficients equation="0" >
#         <A>0.00000000e+000</A>
#         <B>0.00000000e+000</B>
#         <C>0.00000000e+000</C>
#         <D>0.00000000e+000</D>
#         <M>0.0</M>
#         <CPcor>-9.57000000e-008</CPcor>
#       </Coefficients>
#       <Coefficients equation="1" >
#         <G>-1.00589325e+000</G>
#         <H>1.26816302e-001</H>
#         <I>-1.51560448e-004</I>
#         <J>2.67137274e-005</J>
#         <CPcor>-9.57000000e-008</CPcor>
#         <CTcor>3.2500e-006</CTcor>
#         <!-- WBOTC not applicable unless ConductivityType = 1. -->
#         <WBOTC>0.00000000e+000</WBOTC>
#       </Coefficients>
#       <Slope>1.00000000</Slope>
#       <Offset>0.00000</Offset>
#     </ConductivitySensor>
#   </sensor>
#   <sensor Channel="3" >
#     <!-- Count, Pressure, Strain Gauge -->
#     <PressureSensor SensorID="46" >
#       <SerialNumber>7809</SerialNumber>
#       <CalibrationDate>11-Mar-19</CalibrationDate>
#       <PA0>4.56561833e-002</PA0>
#       <PA1>4.85095118e-004</PA1>
#       <PA2>-2.88327090e-012</PA2>
#       <PTEMPA0>-5.48784562e+001</PTEMPA0>
#       <PTEMPA1>5.53756816e+001</PTEMPA1>
#       <PTEMPA2>-5.86727098e-001</PTEMPA2>
#       <PTCA0>5.25246745e+005</PTCA0>
#       <PTCA1>1.22304214e+001</PTCA1>
#       <PTCA2>-3.56745036e-001</PTCA2>
#       <PTCB0>2.51668750e+001</PTCB0>
#       <PTCB1>3.75000000e-004</PTCB1>
#       <PTCB2>0.00000000e+000</PTCB2>
#       <Offset>0.000000</Offset>
#     </PressureSensor>
#   </sensor>
#   <sensor Channel="4" >
#     <!-- A/D voltage 0, Oxygen, SBE 43 -->
#     <OxygenSensor SensorID="38" >
#       <SerialNumber>0434</SerialNumber>
#       <CalibrationDate>13-Apr-19</CalibrationDate>
#       <Use2007Equation>1</Use2007Equation>
#       <CalibrationCoefficients equation="0" >
#         <!-- Coefficients for Owens-Millard equation. -->
#         <Boc>0.0000</Boc>
#         <Soc>0.0000e+000</Soc>
#         <offset>0.0000</offset>
#         <Pcor>0.00e+000</Pcor>
#         <Tcor>0.0000</Tcor>
#         <Tau>0.0</Tau>
#       </CalibrationCoefficients>
#       <CalibrationCoefficients equation="1" >
#         <!-- Coefficients for Sea-Bird equation - SBE calibration in 2007 and later. -->
#         <Soc>4.2007e-001</Soc>
#         <offset>-0.6109</offset>
#         <A>-4.3656e-003</A>
#         <B> 1.7017e-004</B>
#         <C>-2.5341e-006</C>
#         <D0> 2.5826e+000</D0>
#         <D1> 1.92634e-004</D1>
#         <D2>-4.64803e-002</D2>
#         <E> 3.6000e-002</E>
#         <Tau20> 1.1800</Tau20>
#         <H1>-3.3000e-002</H1>
#         <H2> 5.0000e+003</H2>
#         <H3> 1.4500e+003</H3>
#       </CalibrationCoefficients>
#     </OxygenSensor>
#   </sensor>
#   <sensor Channel="5" >
#     <!-- A/D voltage 1, PAR/Logarithmic, Satlantic -->
#     <PARLog_SatlanticSensor SensorID="76" >
#       <SerialNumber>1122</SerialNumber>
#       <CalibrationDate>08-May-2019</CalibrationDate>
#       <a0>9.7456e-001</a0>
#       <a1>8.1640e-001</a1>
#       <Im>1.3589e+000</Im>
#       <Multiplier>1.0000e+000</Multiplier>
#     </PARLog_SatlanticSensor>
#   </sensor>
#   <sensor Channel="6" >
#     <!-- A/D voltage 2, pH -->
#     <pH_Sensor SensorID="43" >
#       <SerialNumber>0363</SerialNumber>
#       <CalibrationDate>15-Apr-19</CalibrationDate>
#       <Slope>4.5952</Slope>
#       <Offset>2.5370</Offset>
#     </pH_Sensor>
#   </sensor>
#   <sensor Channel="7" >
#     <!-- A/D voltage 3, Oxidation Reduction Potential -->
#     <OxidationReductionPotentialSensor SensorID="41" >
#       <SerialNumber>0363</SerialNumber>
#       <CalibrationDate>15-Apr-19</CalibrationDate>
#       <B>2.499480</B>
#       <M>-0.496195</M>
#       <Offset>0.0</Offset>
#     </OxidationReductionPotentialSensor>
#   </sensor>
#   <sensor Channel="8" >
#     <!-- A/D voltage 4, Fluorometer, WET Labs ECO-AFL/FL -->
#     <FluoroWetlabECO_AFL_FL_Sensor SensorID="20" >
#       <SerialNumber>FLNTURT-2496</SerialNumber>
#       <CalibrationDate>08-May-2019</CalibrationDate>
#       <ScaleFactor>5.00000000e+001</ScaleFactor>
#       <!-- Dark output -->
#       <Vblank>0.0550</Vblank>
#     </FluoroWetlabECO_AFL_FL_Sensor>
#   </sensor>
#   <sensor Channel="9" >
#     <!-- A/D voltage 5, Turbidity Meter, WET Labs, ECO-NTU -->
#     <TurbidityMeter SensorID="67" >
#       <SerialNumber>FLNTURT-2496</SerialNumber>
#       <CalibrationDate>08-May-2019</CalibrationDate>
#       <ScaleFactor>189.000000</ScaleFactor>
#       <!-- Dark output -->
#       <DarkVoltage>0.071000</DarkVoltage>
#     </TurbidityMeter>
#   </sensor>
# </Sensors>
# datcnv_date = Jul 24 2019 18:34:29, 7.26.7.129 [datcnv_vars = 15]
# datcnv_in = C:\DATA\MSN2_CTD_CASTS_072419\072419_bvr50_b.hex C:\DATA\SBE19plusV2_7809.xmlcon
# datcnv_skipover = 0
# datcnv_ox_hysteresis_correction = yes
# datcnv_ox_tau_correction = yes
# filter_date = Jul 24 2019 18:34:48, 7.26.7.129
# filter_in = C:\DATA\072419_bvr50_b.cnv
# filter_low_pass_tc_A = 0.030
# filter_low_pass_tc_B = 0.150
# filter_low_pass_A_vars = prdM prdE tv290C density00
# filter_low_pass_B_vars = depFM dz/dtM sbeox0Mg/L sbeox0PS specc c0uS/cm flECO-AFL ph orp par/sat/log turbWETntu0
# alignctd_date = Jul 24 2019 18:35:06, 7.26.7.129
# alignctd_in = C:\DATA\072419_bvr50_b.cnv
# alignctd_adv = dz/dtM 1.000, sbeox0Mg/L 1.000, sbeox0PS 1.000, specc 1.000, c0uS/cm 1.000, flECO-AFL 1.000, ph 1.000, orp 1.000, turbWETntu0 1.000                                                                                 
# file_type = ascii
*END*
     -0.675 -8.691e-16     7.6821     99.174      0.705   0.755627    -0.1124      6.731 -1240.7455 1.0008e+03    -0.2814     -0.662     -0.961    28.5982   996.0704 0.0000e+00
     -0.675 -9.560e-15     7.6840     99.194      0.716   0.767132    -0.1361      6.732 -1240.7455 1.0038e+03    -0.3221     -0.662     -0.960    28.5960   996.0711 0.0000e+00
     -0.675 -1.052e-13     7.6851     99.204      0.705   0.755456    -0.2307      6.732 -1240.7455 1.0020e+03    -0.4601     -0.663     -0.961    28.5938   996.0717 0.0000e+00
     -0.675 -1.157e-12     7.6848     99.196      0.691   0.741175    -0.3888      6.732 -1240.7455 9.9346e+02    -0.7373     -0.662     -0.962    28.5920   996.0723 0.0000e+00
     -0.676 -1.272e-11     7.6854     99.200      0.673   0.721183    -0.4705      6.735 -1240.7455 9.8847e+02    -0.9208     -0.663     -0.961    28.5900   996.0730 0.0000e+00
     -0.676 -1.400e-10     7.6875     99.222      0.657   0.703799    -0.4813      6.736 -1240.7455 9.9142e+02    -0.9744     -0.663     -0.962    28.5880   996.0735 0.0000e+00
     -0.676 -1.540e-09     7.6889     99.237      0.672   0.721069    -0.4758      6.732 -1240.7455 9.9331e+02    -0.9269     -0.663     -0.961    28.5858   996.0741 0.0000e+00
     -0.676 -1.694e-08     7.6893     99.241      0.690   0.739919    -0.3523      6.730 -1240.7455 9.8901e+02    -0.4448     -0.663     -0.962    28.5832   996.0748 0.0000e+00
     -0.676 -1.863e-07     7.6897     99.243      0.692   0.741633    -0.1324      6.729 -1240.7455 9.8351e+02     0.3656     -0.663     -0.962    28.5806   996.0756 0.0000e+00
     -0.676 -1.863e-07     7.6898     99.242      0.692   0.741789    -0.0106      6.728 -1240.7455 9.7370e+02     0.8087     -0.663     -0.962    28.5784   996.0762 0.0000e+00
     -0.676 -1.693e-08     7.6912     99.258      0.692   0.741812     0.0108      6.728 -1240.7455 9.3630e+02     0.8498     -0.663     -0.962    28.5767   996.0767 0.0000e+00
     -0.676 -1.539e-09     7.6936     99.288      0.692   0.741903     0.0053      6.728 -1240.7455 7.3848e+02     0.6659     -0.663     -0.961    28.5753   996.0771 0.0000e+00
     -0.676 -1.400e-10     7.6935     99.284      0.693   0.742889    -0.0252      6.728 -1240.7455 4.0278e+02     0.3223     -0.663     -0.962    28.5737   996.0776 0.0000e+00
     -0.676 -1.272e-11     7.6916     99.257      0.703   0.753742    -0.0549      6.728 -1240.7455 2.0980e+02     0.1689     -0.663     -0.962    28.5726   996.0779 0.0000e+00
     -0.676 -1.157e-12     7.6913     99.251      0.696   0.746397    -0.0672      6.729 -1240.7455 1.7820e+02     0.1552     -0.663     -0.961    28.5716   996.0782 0.0000e+00
     -0.676 -1.052e-13     7.6921     99.258      0.669   0.717442    -0.0792      6.729 -1240.7455 1.7079e+02    -0.4666     -0.663     -0.962    28.5705   996.0785 0.0000e+00
     -0.676 -9.560e-15     7.6920     99.254      0.672   0.720440    -0.1047      6.729 -1240.7455 1.6980e+02    -1.6469     -0.663     -0.962    28.5696   996.0788 0.0000e+00
     -0.676 -8.668e-16     7.6918     99.248      0.671   0.719299    -0.1154      6.731 -1240.7455 1.7048e+02    -2.2845     -0.663     -0.962    28.5680   996.0791 0.0000e+00
     -0.676 -5.449e-17     7.6925     99.254      0.656   0.703640    -0.1125      6.732 -1240.7455 1.7024e+02    -2.3095     -0.663     -0.962    28.5662   996.0797 0.0000e+00
     -0.676 2.6245e-16     7.6928     99.257      0.672   0.721181    -0.2175      6.729 -1240.7455 1.6955e+02    -1.8507     -0.664     -0.963    28.5650   996.0801 0.0000e+00
     -0.676 2.9653e-15     7.6928     99.256      0.692   0.741313    -0.4229      6.727 -1240.7455 1.6772e+02    -0.9980     -0.663     -0.962    28.5631   996.0806 0.0000e+00
     -0.676 3.2625e-14     7.6943     99.270      0.707   0.756983    -0.5319      6.730 -1240.7455 1.6348e+02    -0.5526     -0.663     -0.962    28.5610   996.0811 0.0000e+00
     -0.676 3.5888e-13     7.6959     99.285      0.732   0.783933    -0.5384      6.732 -1240.7455 1.6146e+02    -0.5297     -0.663     -0.962    28.5593   996.0817 0.0000e+00
     -0.676 3.9477e-12     7.6973     99.298      0.760   0.813718    -0.5279      6.729 -1240.7455 1.6971e+02    -0.5578     -0.663     -0.962    28.5586   996.0820 0.0000e+00
     -0.676 4.3424e-11     7.6986     99.312      0.806   0.863682    -0.4216      6.724 -1240.7455 1.8727e+02    -0.5648     -0.663     -0.962    28.5585   996.0819 0.0000e+00
     -0.676 4.7767e-10     7.6999     99.324      0.941   1.007887    -0.2244      6.715 -1240.7453 1.9880e+02    -0.5160     -0.663     -0.962    28.5561   996.0827 0.0000e+00
     -0.676 5.2544e-09     7.7004     99.328      1.145   1.226743    -0.1202      6.686 -1240.7430 1.9377e+02    -0.5241     -0.663     -0.962    28.5518   996.0839 0.0000e+00
     -0.676 5.7798e-08     7.6995     99.315      1.266   1.355625    -0.1157      6.524 -1240.7182 1.8448e+02    -0.6301     -0.663     -0.961    28.5491   996.0847 0.0000e+00
     -0.676 6.3578e-07     7.6986     99.303      1.272   1.362351    -0.1087      5.255 -1240.4447 1.8647e+02    -1.5030     -0.663     -0.962    28.5471   996.0853 0.0000e+00
     -0.676      0.000     7.6993     99.311      1.221   1.308073    -0.0968      2.228 -1237.4370 1.9210e+02    -3.1799     -0.663     -0.961    28.5449   996.0859 0.0000e+00
     -0.676      0.000     7.7007     99.326      1.185   1.269588    -0.0931      0.333 -1204.3525 1.9017e+02    -4.1264     -0.664     -0.963    28.5435   996.0863 0.0000e+00
     -0.676      0.001     7.7017     99.332      1.252   1.340562    -0.0892      1.797  -840.4230 1.8598e+02    -4.0985     -0.663     -0.962    28.5432   996.0864 0.0000e+00
     -0.676      0.004     7.7086     99.347      1.493   1.595971     0.0880      4.128    34.2449 1.8913e+02    -3.0389     -0.663     -0.961    28.5424   996.0866 0.0000e+00
     -0.676      0.012     7.7286     99.387      2.842   3.027140     0.4370      5.503   604.0399 2.0156e+02    -1.1470     -0.663     -0.962    28.5421   996.0866 0.0000e+00
     -0.676      0.026     7.7531     99.420      7.229   7.682174     0.6279      6.366   419.8007 2.1265e+02    -0.1660     -0.663     -0.961    28.5400   996.0873 0.0000e+00
     -0.673      0.045     7.7665     99.425     14.874  15.795499     0.6272      6.984   202.0430 2.3396e+02    -0.0595     -0.663     -0.963    28.5411   996.0870 0.0000e+00
     -0.663      0.065     7.7688     99.413     22.515  23.907321     0.5409      7.417   204.9022 2.9746e+02     0.6324     -0.656     -0.952    28.5362   996.0884 0.0000e+00
     -0.639      0.085     7.7680     99.401     26.741  28.395045     0.4006      7.705   219.6558 3.7852e+02     1.8747     -0.630     -0.913    28.3908   996.1304 0.0000e+00
     -0.609      0.104     7.7682     99.406     27.803  29.523711     0.3271      7.902   226.5890 4.2163e+02     2.5736     -0.596     -0.865    28.1681   996.1951 0.0000e+00
     -0.577      0.121     7.7687     99.414     27.837  29.560089     0.3187      8.052   229.0205 4.4818e+02     2.9546     -0.566     -0.821    28.0861   996.2208 0.0000e+00
     -0.545      0.133     7.7689     99.415     27.812  29.532832     0.3252      8.164   238.9882 4.6745e+02     6.4815     -0.536     -0.777    28.0841   996.2241 0.0000e+00
     -0.511      0.141     7.7721     99.451     27.793  29.511391     0.4407      8.233   251.4312 5.0592e+02    13.0677     -0.501     -0.726    28.0853   996.2250 0.0000e+00
     -0.475      0.144     7.7800     99.552     27.774  29.491188     0.6571      8.259   259.3575 6.2019e+02    16.8137     -0.467     -0.678    28.0880   996.2244 0.0000e+00
     -0.435      0.139     7.7925     99.715     27.762  29.478907     0.7743      8.261   263.7561 7.1611e+02    17.1984     -0.428     -0.622    28.0889   996.2242 0.0000e+00
     -0.391      0.128     7.8076     99.909     27.772  29.489797     0.7826      8.256   266.4128 7.4473e+02    16.8673     -0.380     -0.553    28.0908   996.2239 0.0000e+00
     -0.352      0.109     7.8220    100.092     27.778  29.495970     0.8963      8.232   269.0229 7.5334e+02    12.9423     -0.340     -0.494    28.0829   996.2264 0.0000e+00
     -0.325      0.085     7.8347    100.249     27.774  29.490087     1.1255      8.191   270.7073 7.3000e+02     5.7248     -0.314     -0.455    28.0832   996.2265 0.0000e+00
     -0.310      0.059     7.8447    100.364     27.770  29.482117     1.2569      8.161   271.2915 6.1890e+02     1.7661     -0.302     -0.437    28.0875   996.2253 0.0000e+00
     -0.305      0.034     7.8467    100.376     27.756  29.463040     1.2711      8.154   273.1605 4.3650e+02     1.3562     -0.299     -0.434    28.0876   996.2252 0.0000e+00
     -0.303      0.018     7.8376    100.250     27.747  29.449775     1.2876      8.177   275.8399 3.1723e+02     1.0311     -0.297     -0.429    28.0874   996.2253 0.0000e+00
     -0.304      0.009     7.8204    100.025     27.747  29.448621     1.3272      8.224   278.1341 3.5680e+02     0.5229     -0.296     -0.429    28.0850   996.2259 0.0000e+00
     -0.307      0.006     7.7944     99.690     27.748  29.449084     1.3511      8.269   279.9060 4.3036e+02     0.2264     -0.302     -0.438    28.0772   996.2281 0.0000e+00
     -0.307      0.007     7.7479     99.090     27.755  29.455376     1.3513      8.303   281.1749 4.7105e+02     0.1659     -0.304     -0.441    28.0672   996.2309 0.0000e+00
     -0.302      0.011     7.6615     97.985     27.761  29.461248     1.3728      8.332   282.2908 5.7992e+02     0.1179     -0.294     -0.426    28.0617   996.2326 0.0000e+00
     -0.297      0.014     7.5247     96.236     27.757  29.456623     1.4203      8.357   283.5888 5.7804e+02     0.0394     -0.290     -0.419    28.0606   996.2329 0.0000e+00
     -0.294      0.014     7.3636     94.178     27.762  29.462911     1.4489      8.373   285.5985 5.0734e+02    -0.0281     -0.292     -0.423    28.0580   996.2336 0.0000e+00
     -0.288      0.011     7.2218     92.367     27.771  29.473823     1.4504      8.378   288.2639 6.1829e+02    -0.0430     -0.283     -0.411    28.0551   996.2345 0.0000e+00
     -0.281      0.007     7.1082     90.915     27.759  29.461663     1.4473      8.379   289.8323 7.3847e+02     0.4493     -0.272     -0.395    28.0551   996.2346 0.0000e+00
     -0.280      0.005     6.9983     89.511     27.741  29.442791     1.4461      8.379   289.9353 7.4721e+02     1.4333     -0.273     -0.396    28.0556   996.2344 0.0000e+00
     -0.285      0.005     6.8775     87.966     27.735  29.435982     1.4523      8.381   290.7131 7.2876e+02     1.9903     -0.281     -0.408    28.0568   996.2340 0.0000e+00
     -0.288      0.005     6.7599     86.463     27.740  29.442790     1.4620      8.381   292.1812 7.2893e+02     2.0388     -0.285     -0.413    28.0592   996.2333 0.0000e+00
     -0.285      0.006     6.6547     85.119     27.758  29.461659     1.4670      8.376   293.3185 6.8819e+02     1.9868     -0.280     -0.406    28.0596   996.2332 0.0000e+00
     -0.281      0.007     6.5530     83.819     27.768  29.473782     1.5135      8.366   294.1392 5.3759e+02     1.6899     -0.276     -0.400    28.0594   996.2333 0.0000e+00
     -0.276      0.008     6.4492     82.493     27.757  29.462463     1.5994      8.357   294.7907 3.8190e+02     1.2022     -0.271     -0.393    28.0602   996.2331 0.0000e+00
     -0.272      0.009     6.3427     81.133     27.746  29.451705     1.6389      8.348   295.5172 3.1275e+02     0.9400     -0.264     -0.383    28.0611   996.2329 0.0000e+00
     -0.272      0.009     6.2328     79.732     27.763  29.470607     1.6350      8.336   296.2979 3.2865e+02     0.9118     -0.265     -0.385    28.0623   996.2325 0.0000e+00
     -0.274      0.008     6.1261     78.372     27.789  29.500666     1.6311      8.322   297.1747 3.9380e+02     0.9603     -0.270     -0.391    28.0633   996.2323 0.0000e+00
     -0.273      0.005     6.0312     77.163     27.785  29.497900     1.6266      8.308   298.0315 3.9248e+02     1.0673     -0.269     -0.392    28.0644   996.2319 0.0000e+00
     -0.268     -0.002     5.9442     76.053     27.786  29.500625     1.6322      8.298   298.6545 3.5407e+02     1.1228     -0.263     -0.382    28.0659   996.2315 0.0000e+00
     -0.263     -0.010     5.8576     74.947     27.876  29.597056     1.6377      8.292   299.3734 3.4944e+02     1.1081     -0.255     -0.369    28.0688   996.2308 0.0000e+00
     -0.263     -0.019     5.7754     73.898     28.042  29.775554     1.5806      8.283   300.2714 3.1682e+02     1.1516     -0.255     -0.370    28.0733   996.2295 0.0000e+00
     -0.271     -0.025     5.7124     73.097     28.201  29.945681     1.4703      8.268   301.0799 4.5217e+02     1.2555     -0.264     -0.382    28.0765   996.2285 0.0000e+00
     -0.286     -0.027     5.6807     72.696     28.255  30.004353     1.4061      8.252   301.8364 7.7407e+02     1.3153     -0.280     -0.406    28.0782   996.2279 0.0000e+00
     -0.301     -0.024     5.6744     72.619     28.167  29.913894     1.3936      8.238   302.6208 8.1117e+02     1.3500     -0.299     -0.435    28.0803   996.2273 0.0000e+00
     -0.310     -0.019     5.6788     72.679     28.062  29.803713     1.3357      8.228   303.3363 6.7046e+02     1.3145     -0.308     -0.447    28.0824   996.2268 0.0000e+00
     -0.310     -0.010     5.6866     72.780     28.071  29.814269     1.2269      8.221   303.6911 6.4159e+02     1.1812     -0.305     -0.443    28.0850   996.2261 0.0000e+00
     -0.304     -0.000     5.6942     72.880     28.165  29.914632     1.1701      8.212   303.8985 6.4801e+02     1.1148     -0.297     -0.430    28.0895   996.2248 0.0000e+00
     -0.301      0.008     5.7013     72.975     28.246  30.001985     1.1692      8.199   304.3812 7.7836e+02     1.1346     -0.292     -0.424    28.0938   996.2236 0.0000e+00
     -0.302      0.013     5.7138     73.136     28.286  30.045594     1.1643      8.184   304.8817 8.9076e+02     1.1257     -0.297     -0.431    28.0955   996.2231 0.0000e+00
     -0.301      0.017     5.7355     73.415     28.300  30.061199     1.1546      8.169   305.1322 8.9480e+02     1.1051     -0.298     -0.432    28.0970   996.2226 0.0000e+00
     -0.296      0.020     5.7625     73.763     28.302  30.063761     1.1464      8.155   305.2588 9.0350e+02     1.1156     -0.291     -0.422    28.0993   996.2221 0.0000e+00
     -0.288      0.023     5.7872     74.080     28.314  30.076579     1.1434      8.142   305.4656 9.0045e+02     1.1213     -0.282     -0.409    28.1012   996.2216 0.0000e+00
     -0.280      0.026     5.8013     74.263     28.325  30.089282     1.1442      8.130   305.4817 8.9186e+02     1.1081     -0.275     -0.398    28.1025   996.2212 0.0000e+00
     -0.272      0.027     5.7978     74.220     28.325  30.090447     1.1819      8.120   305.1957 8.7993e+02     1.1532     -0.266     -0.386    28.1039   996.2209 0.0000e+00
     -0.264      0.026     5.7743     73.922     28.325  30.090667     1.2615      8.111   305.1051 8.6748e+02     1.2729     -0.258     -0.375    28.1048   996.2206 0.0000e+00
     -0.259      0.025     5.7325     73.389     28.325  30.091946     1.3095      8.101   305.4179 8.6584e+02     1.3424     -0.254     -0.368    28.1060   996.2203 0.0000e+00
     -0.253      0.022     5.6745     72.649     28.337  30.105906     1.3192      8.092   305.9659 8.8186e+02     1.3387     -0.249     -0.361    28.1080   996.2198 0.0000e+00
     -0.247      0.020     5.6073     71.791     28.361  30.132551     1.3189      8.083   306.4837 9.0890e+02     1.3259     -0.243     -0.352    28.1099   996.2193 0.0000e+00
     -0.242      0.018     5.5423     70.960     28.387  30.160319     1.3141      8.070   306.9457 9.3337e+02     1.3199     -0.237     -0.343    28.1119   996.2187 0.0000e+00
     -0.237      0.015     5.4886     70.273     28.412  30.187838     1.3221      8.055   307.5079 9.4886e+02     1.3316     -0.232     -0.336    28.1139   996.2182 0.0000e+00
     -0.234      0.012     5.4519     69.805     28.434  30.211480     1.3381      8.042   308.0331 9.5582e+02     1.3684     -0.230     -0.333    28.1156   996.2177 0.0000e+00
     -0.231      0.010     5.4360     69.602     28.475  30.255819     1.3417      8.031   308.4771 9.5579e+02     1.4049     -0.227     -0.330    28.1171   996.2172 0.0000e+00
     -0.229      0.008     5.4399     69.652     28.557  30.343225     1.3317      8.021   308.9189 9.5224e+02     1.3795     -0.224     -0.325    28.1178   996.2171 0.0000e+00
     -0.228      0.007     5.4602     69.911     28.651  30.443434     1.3211      8.011   309.2444 9.4843e+02     1.3232     -0.223     -0.324    28.1181   996.2171 0.0000e+00
     -0.228      0.006     5.4932     70.335     28.779  30.579109     1.3266      8.002   309.4877 9.4506e+02     1.3139     -0.224     -0.325    28.1192   996.2168 0.0000e+00
     -0.226      0.005     5.5362     70.886     28.966  30.778060     1.3551      7.994   309.7106 9.4251e+02     1.2994     -0.223     -0.323    28.1201   996.2165 0.0000e+00
     -0.224      0.005     5.5897     71.570     29.123  30.945346     1.3875      7.987   309.9601 9.4205e+02     1.2459     -0.219     -0.318    28.1204   996.2164 0.0000e+00
     -0.223      0.005     5.6503     72.347     29.189  31.015413     1.3979      7.978   310.3534 9.4135e+02     1.1595     -0.217     -0.315    28.1206   996.2164 0.0000e+00
     -0.222      0.004     5.7062     73.063     29.166  30.990700     1.3934      7.969   310.7658 9.3679e+02     1.0735     -0.218     -0.317    28.1206   996.2164 0.0000e+00
     -0.220      0.002     5.7492     73.616     29.081  30.900368     1.4117      7.960   311.0753 9.3183e+02     1.0913     -0.217     -0.315    28.1205   996.2166 0.0000e+00
     -0.218      0.000     5.7900     74.137     28.997  30.811569     1.4453      7.953   311.3418 9.2853e+02     1.1459     -0.214     -0.309    28.1205   996.2166 0.0000e+00
     -0.218     -0.001     5.8475     74.872     28.931  30.741931     1.4531      7.948   311.5789 9.2270e+02     1.1433     -0.212     -0.307    28.1209   996.2165 0.0000e+00
     -0.220     -0.001     5.9254     75.870     28.885  30.692914     1.4461      7.945   311.8776 9.1786e+02     1.0918     -0.216     -0.313    28.1218   996.2163 0.0000e+00
     -0.224     -0.001     6.0051     76.893     28.857  30.663079     1.4377      7.941   312.2855 9.2461e+02     1.0485     -0.220     -0.319    28.1224   996.2160 0.0000e+00
     -0.224     -0.001     6.0661     77.674     28.830  30.635006     1.4215      7.936   312.6395 9.4055e+02     1.0787     -0.221     -0.320    28.1217   996.2162 0.0000e+00
     -0.222      0.000     6.1048     78.169     28.804  30.607302     1.4061      7.929   312.9745 9.4809e+02     1.0968     -0.218     -0.315    28.1211   996.2164 0.0000e+00
     -0.221      0.002     6.1270     78.454     28.780  30.581918     1.3899      7.922   313.3245 9.4262e+02     1.0700     -0.217     -0.314    28.1216   996.2162 0.0000e+00
     -0.221      0.002     6.1371     78.584     28.780  30.581908     1.3818      7.916   313.6014 9.3495e+02     1.0820     -0.217     -0.315    28.1226   996.2159 0.0000e+00
     -0.220      0.001     6.1367     78.580     28.803  30.607174     1.3865      7.910   313.9137 9.3081e+02     1.1439     -0.216     -0.313    28.1231   996.2158 0.0000e+00
     -0.219      0.001     6.1264     78.447     28.828  30.633602     1.3935      7.904   314.2610 9.3047e+02     1.2286     -0.214     -0.311    28.1232   996.2157 0.0000e+00
     -0.220      0.001     6.1068     78.197     28.841  30.647637     1.3983      7.898   314.5306 9.3352e+02     1.2870     -0.216     -0.313    28.1237   996.2156 0.0000e+00
     -0.221      0.000     6.0779     77.828     28.843  30.649954     1.3921      7.892   314.8511 9.3708e+02     1.2931     -0.218     -0.315    28.1241   996.2155 0.0000e+00
     -0.220      0.000     6.0418     77.367     28.854  30.661626     1.3880      7.887   315.2964 9.3742e+02     1.3026     -0.216     -0.314    28.1244   996.2154 0.0000e+00
     -0.220      0.001     6.0043     76.888     28.854  30.661855     1.3929      7.882   315.6993 9.3723e+02     1.3361     -0.215     -0.312    28.1246   996.2154 0.0000e+00
     -0.220      0.002     5.9739     76.498     28.845  30.652721     1.3904      7.875   315.9365 9.3842e+02     1.3369     -0.215     -0.313    28.1250   996.2153 0.0000e+00
     -0.219      0.002     5.9559     76.267     28.868  30.678093     1.3836      7.868   316.0994 9.3853e+02     1.3124     -0.215     -0.312    28.1262   996.2149 0.0000e+00
     -0.218      0.001     5.9487     76.176     28.903  30.714820     1.3702      7.863   316.3775 9.3900e+02     1.2691     -0.214     -0.310    28.1269   996.2147 0.0000e+00
     -0.217      0.001     5.9479     76.167     28.904  30.716070     1.3505      7.858   316.6320 9.4185e+02     1.1751     -0.213     -0.309    28.1268   996.2147 0.0000e+00
     -0.217      0.000     5.9492     76.182     28.883  30.693204     1.3444      7.853   316.7676 9.4588e+02     1.1256     -0.213     -0.309    28.1267   996.2148 0.0000e+00
     -0.218 1.9094e-08     5.9482     76.170     28.882  30.692164     1.3487      7.848   316.9856 9.4840e+02     1.1287     -0.214     -0.311    28.1272   996.2147 0.0000e+00
     -0.218 2.1003e-07     5.9428     76.100     28.892  30.703493     1.3771      7.843   317.2016 9.4692e+02     1.1148     -0.214     -0.311    28.1275   996.2145 0.0000e+00
     -0.218 2.4457e-07     5.9291     75.926     28.892  30.703274     1.4271      7.837   317.2281 9.4321e+02     1.1208     -0.214     -0.311    28.1276   996.2145 0.0000e+00
     -0.218 4.3671e-07     5.9018     75.578     28.878  30.689515     1.4502      7.832   317.3070 9.4055e+02     1.1358     -0.214     -0.311    28.1273   996.2146 0.0000e+00
     -0.217      0.000     5.8644     75.100     28.854  30.664039     1.4491      7.827   317.5531 9.3648e+02     1.1326     -0.214     -0.310    28.1272   996.2146 0.0000e+00
     -0.217      0.000     5.8262     74.612     28.840  30.649052     1.4395      7.822   317.6223 9.3241e+02     1.1149     -0.212     -0.308    28.1274   996.2146 0.0000e+00
     -0.218      0.001     5.7894     74.143     28.826  30.635216     1.3945      7.817   317.5413 9.3433e+02     1.1514     -0.214     -0.310    28.1278   996.2145 0.0000e+00
     -0.219      0.001     5.7514     73.657     28.815  30.623659     1.3300      7.813   317.6058 9.4055e+02     1.2787     -0.216     -0.313    28.1289   996.2141 0.0000e+00
     -0.218      0.002     5.7091     73.117     28.826  30.636225     1.3011      7.810   317.7146 9.4797e+02     1.3763     -0.215     -0.312    28.1301   996.2138 0.0000e+00
     -0.217      0.005     5.6653     72.558     28.847  30.660241     1.2969      7.807   317.7384 9.5887e+02     1.3818     -0.212     -0.308    28.1306   996.2137 0.0000e+00
     -0.216      0.009     5.6294     72.098     28.847  30.660231     1.2883      7.802   317.8076 9.6988e+02     1.3453     -0.210     -0.305    28.1313   996.2134 0.0000e+00
     -0.215      0.012     5.6033     71.764     28.825  30.636096     1.2835      7.792   317.8628 9.7277e+02     1.3275     -0.211     -0.306    28.1334   996.2128 0.0000e+00
     -0.212      0.014     5.5807     71.475     28.811  30.622250     1.2821      7.774   317.8042 9.6942e+02     1.3632     -0.209     -0.304    28.1349   996.2124 0.0000e+00
     -0.205      0.014     5.5605     71.216     28.809  30.619722     1.2802      7.752   317.7867 9.6926e+02     1.3832     -0.201     -0.292    28.1358   996.2122 0.0000e+00
     -0.199      0.014     5.5517     71.102     28.796  30.605525     1.2952      7.725   317.8232 9.7737e+02     1.3077     -0.193     -0.280    28.1360   996.2122 0.0000e+00
     -0.195      0.013     5.5647     71.266     28.771  30.577502     1.3243      7.695   317.9007 9.8628e+02     1.2040     -0.190     -0.276    28.1359   996.2122 0.0000e+00
     -0.194      0.010     5.5933     71.630     28.731  30.534709     1.3373      7.674   318.0361 9.9092e+02     1.1460     -0.191     -0.277    28.1365   996.2121 0.0000e+00
     -0.192      0.007     5.6184     71.950     28.671  30.468833     1.3405      7.669   318.0836 9.9819e+02     1.1304     -0.189     -0.273    28.1369   996.2120 0.0000e+00
     -0.190      0.007     5.6289     72.084     28.621  30.415514     1.3715      7.665   318.1315 1.0038e+03     1.1787     -0.186     -0.269    28.1355   996.2124 0.0000e+00
     -0.190      0.008     5.6246     72.029     28.604  30.397659     1.4251      7.655   318.1844 9.9917e+02     1.2714     -0.186     -0.271    28.1332   996.2129 0.0000e+00
     -0.190      0.010     5.6075     71.811     28.586  30.379854     1.4599      7.640   318.1202 9.9617e+02     1.3330     -0.188     -0.273    28.1313   996.2135 0.0000e+00
     -0.187      0.013     5.5806     71.466     28.536  30.327132     1.4717      7.627   318.2159 1.0060e+03     1.3337     -0.185     -0.268    28.1300   996.2139 0.0000e+00
     -0.181      0.016     5.5581     71.176     28.481  30.267825     1.4544      7.612   318.4822 1.0176e+03     1.3122     -0.178     -0.258    28.1291   996.2142 0.0000e+00
     -0.176      0.017     5.5611     71.214     28.451  30.233835     1.4074      7.585   318.5864 1.0161e+03     1.3034     -0.172     -0.250    28.1288   996.2143 0.0000e+00
     -0.171      0.017     5.6005     71.717     28.391  30.169964     1.3879      7.555   318.4430 9.9015e+02     1.2927     -0.168     -0.244    28.1304   996.2138 0.0000e+00
     -0.165      0.013     5.6706     72.614     28.294  30.066629     1.4017      7.545   318.2971 9.3805e+02     1.3141     -0.162     -0.235    28.1309   996.2137 0.0000e+00
     -0.160      0.010     5.7559     73.705     28.231  29.999637     1.3919      7.554   318.2849 8.8771e+02     1.3655     -0.156     -0.226    28.1292   996.2142 0.0000e+00
     -0.159      0.009     5.8403     74.785     28.226  29.994481     1.3471      7.567   318.2963 8.6010e+02     1.3578     -0.154     -0.223    28.1276   996.2147 0.0000e+00
     -0.161      0.010     5.9118     75.700     28.236  30.004281     1.2945      7.578   318.3487 8.3690e+02     1.3183     -0.158     -0.229    28.1268   996.2149 0.0000e+00
     -0.163      0.014     5.9736     76.489     28.225  29.991226     1.2665      7.582   318.4014 8.0868e+02     1.3143     -0.163     -0.235    28.1262   996.2150 0.0000e+00
     -0.159      0.019     6.0434     77.379     28.200  29.963526     1.2686      7.578   318.4179 8.0001e+02     1.3420     -0.158     -0.229    28.1253   996.2152 0.0000e+00
     -0.151      0.027     6.1279     78.459     28.162  29.923167     1.3027      7.568   318.4615 8.2770e+02     1.3580     -0.148     -0.214    28.1257   996.2152 0.0000e+00
     -0.142      0.035     6.2126     79.543     28.126  29.883953     1.3592      7.551   318.4987 8.6896e+02     1.3439     -0.140     -0.203    28.1251   996.2155 0.0000e+00
     -0.132      0.040     6.2771     80.368     28.113  29.870090     1.3874      7.529   318.6093 8.8943e+02     1.3355     -0.131     -0.189    28.1228   996.2161 0.0000e+00
     -0.120      0.041     6.3017     80.685     28.124  29.882456     1.3920      7.505   318.9389 8.8121e+02     1.3216     -0.118     -0.172    28.1208   996.2167 0.0000e+00
     -0.106      0.038     6.2807     80.416     28.147  29.906567     1.3979      7.481   319.3002 8.6094e+02     1.3072     -0.105     -0.151    28.1189   996.2173 0.0000e+00
     -0.094      0.033     6.2284     79.746     28.149  29.907815     1.3974      7.459   319.6226 8.4484e+02     1.3261     -0.091     -0.131    28.1179   996.2176 0.0000e+00
     -0.085      0.026     6.1629     78.909     28.139  29.897536     1.3959      7.442   319.9112 8.2964e+02     1.3528     -0.081     -0.118    28.1183   996.2175 0.0000e+00
     -0.080      0.018     6.0969     78.065     28.149  29.909195     1.3964      7.434   320.0368 7.7647e+02     1.3353     -0.079     -0.114    28.1188   996.2174 0.0000e+00
     -0.078      0.011     6.0391     77.326     28.160  29.921885     1.3947      7.434   320.1951 6.9547e+02     1.2459     -0.078     -0.112    28.1188   996.2175 0.0000e+00
     -0.078      0.005     5.9950     76.763     28.162  29.924060     1.3935      7.438   320.5336 6.6650e+02     1.1235     -0.076     -0.110    28.1188   996.2174 0.0000e+00
     -0.079      0.001     5.9658     76.391     28.172  29.935501     1.3902      7.441   320.8607 6.9067e+02     1.0684     -0.077     -0.112    28.1193   996.2173 0.0000e+00
     -0.079     -0.002     5.9486     76.172     28.169  29.933318     1.3885      7.443   320.9663 6.9121e+02     1.1039     -0.078     -0.114    28.1205   996.2169 0.0000e+00
     -0.079     -0.003     5.9365     76.017     28.135  29.897661     1.3821      7.446   320.9504 6.4443e+02     1.1594     -0.078     -0.113    28.1216   996.2166 0.0000e+00
     -0.081     -0.003     5.9223     75.837     28.123  29.885076     1.3562      7.450   321.0123 6.1290e+02     1.1494     -0.078     -0.115    28.1226   996.2163 0.0000e+00
     -0.084     -0.003     5.8990     75.539     28.144  29.908063     1.3348      7.452   321.1123 6.2446e+02     1.0814     -0.082     -0.120    28.1237   996.2160 0.0000e+00
     -0.085     -0.003     5.8587     75.022     28.158  29.921793     1.3314      7.456   321.1273 6.4204e+02     1.0581     -0.084     -0.123    28.1244   996.2158 0.0000e+00
     -0.083     -0.003     5.8025     74.303     28.160  29.924184     1.3768      7.461   321.1068 6.3857e+02     1.0644     -0.081     -0.120    28.1255   996.2155 0.0000e+00
     -0.082     -0.003     5.7429     73.539     28.172  29.936975     1.4674      7.463   321.2093 6.2786e+02     1.0261     -0.079     -0.115    28.1266   996.2152 0.0000e+00
     -0.084     -0.002     5.6889     72.849     28.183  29.949553     1.5168      7.462   321.3346 6.3436e+02     1.0207     -0.082     -0.119    28.1267   996.2151 0.0000e+00
     -0.088      0.001     5.6392     72.214     28.183  29.949355     1.5145      7.460   321.2454 6.3987e+02     1.0980     -0.086     -0.124    28.1260   996.2153 0.0000e+00
     -0.089      0.006     5.5888     71.570     28.169  29.934576     1.5081      7.455   320.8191 6.3622e+02     1.1417     -0.088     -0.127    28.1260   996.2154 0.0000e+00
     -0.088      0.014     5.5347     70.878     28.134  29.897774     1.5011      7.442   320.1376 6.3565e+02     1.1562     -0.087     -0.126    28.1263   996.2152 0.0000e+00
     -0.084      0.026     5.4781     70.153     28.122  29.885079     1.4806      7.418   319.5437 6.6743e+02     1.2075     -0.083     -0.121    28.1268   996.2151 0.0000e+00
     -0.076      0.038     5.4235     69.454     28.143  29.907987     1.4605      7.391   319.2309 6.8478e+02     1.2379     -0.076     -0.111    28.1275   996.2149 0.0000e+00
     -0.064      0.049     5.3705     68.774     28.155  29.920950     1.4490      7.371   319.0229 6.0738e+02     1.2612     -0.064     -0.094    28.1284   996.2148 0.0000e+00
     -0.048      0.058     5.3134     68.041     28.150  29.914919     1.4446      7.356   318.7499 5.4154e+02     1.2920     -0.047     -0.069    28.1291   996.2146 0.0000e+00
     -0.030      0.066     5.2559     67.305     28.075  29.835064     1.4423      7.342   318.5109 4.8542e+02     1.2825     -0.029     -0.042    28.1297   996.2145 0.0000e+00
     -0.011      0.072     5.2294     66.965     27.905  29.653384     1.4393      7.323   318.4564 3.6589e+02     1.2780     -0.010     -0.015    28.1298   996.2146 0.0000e+00
      0.007      0.077     5.3329     68.287     27.756  29.494823     1.4419      7.301   318.5219 3.2064e+02     1.3026      0.008      0.011    28.1294   996.2148 0.0000e+00
      0.026      0.080     5.6723     72.619     27.711  29.440707     1.4742      7.282   318.6134 3.7779e+02     1.2523      0.024      0.035    28.1280   996.2152 0.0000e+00
      0.047      0.082     6.2069     79.437     27.723  29.443206     1.5357      7.264   318.6174 3.9960e+02     1.1289      0.045      0.065    28.1269   996.2156 0.0000e+00
      0.072      0.084     6.7872     86.836     27.750  29.461570     1.5690      7.252   318.4840 3.5424e+02     1.0887      0.070      0.102    28.1278   996.2154 0.0000e+00
      0.095      0.088     7.3017     93.398     27.767  29.472384     1.5743      7.254   318.3773 3.3742e+02     1.0935      0.095      0.137    28.1287   996.2152 0.0000e+00
      0.115      0.092     7.7048     98.545     27.746  29.447039     1.6257      7.261   318.4449 3.3816e+02     1.1212      0.113      0.163    28.1187   996.2182 0.0000e+00
      0.135      0.093     7.9835    102.102     27.712  29.408924     1.7223      7.265   318.6999 2.7878e+02     1.2269      0.132      0.191    28.0964   996.2246 0.0000e+00
      0.159      0.093     8.1363    104.039     27.701  29.392220     1.7712      7.268   319.0504 2.0228e+02     1.2906      0.154      0.223    28.0750   996.2307 0.0000e+00
      0.188      0.093     8.1674    104.410     27.690  29.371966     1.7664      7.268   319.5003 1.6671e+02     1.3014      0.185      0.269    28.0616   996.2347 0.0000e+00
      0.216      0.092     8.1005    103.522     27.683  29.354369     1.7686      7.265   320.0093 1.6386e+02     1.3244      0.216      0.312    28.0588   996.2357 0.0000e+00
      0.237      0.091     7.9848    102.009     27.707  29.369779     1.7889      7.260   320.4722 1.6644e+02     1.3400      0.234      0.338    28.0566   996.2364 0.0000e+00
      0.256      0.088     7.8703    100.524     27.712  29.367933     1.8122      7.251   320.8817 1.6574e+02     1.3270      0.250      0.362    28.0473   996.2391 0.0000e+00
      0.278      0.085     7.7808     99.368     27.682  29.332038     1.8242      7.240   321.2609 1.9049e+02     1.2971      0.272      0.395    28.0330   996.2433 0.0000e+00
      0.301      0.082     7.7142     98.503     27.672  29.316454     1.8215      7.231   321.6153 2.1927e+02     1.2735      0.296      0.428    28.0131   996.2491 0.0000e+00
      0.323      0.079     7.6638     97.839     27.669  29.306403     1.8150      7.228   321.8977 1.9457e+02     1.2059      0.316      0.459    27.9920   996.2551 0.0000e+00
      0.345      0.076     7.6248     97.312     27.647  29.273945     1.8148      7.226   322.1800 1.5921e+02     1.1023      0.340      0.493    27.9801   996.2586 0.0000e+00
      0.364      0.072     7.5932     96.871     27.627  29.241236     1.8180      7.224   322.5330 1.5279e+02     1.0693      0.359      0.520    27.9747   996.2602 0.0000e+00
      0.379      0.069     7.5673     96.500     27.627  29.228140     1.8199      7.221   322.8105 1.5485e+02     1.1020      0.371      0.539    27.9669   996.2625 0.0000e+00
      0.394      0.064     7.5462     96.191     27.652  29.242476     1.8194      7.213   322.8670 1.6348e+02     1.1693      0.386      0.559    27.9559   996.2657 0.0000e+00
      0.411      0.058     7.5280     95.936     27.702  29.287665     1.8213      7.204   322.8729 1.8193e+02     1.2608      0.402      0.583    27.9389   996.2705 0.0000e+00
      0.429      0.049     7.5123     95.739     27.741  29.330363     1.8341      7.198   323.0542 2.0718e+02     1.3242      0.421      0.611    27.9166   996.2770 0.0000e+00
      0.444      0.039     7.4997     95.598     27.720  29.314592     1.8437      7.195   323.2520 2.5924e+02     1.3459      0.439      0.635    27.8924   996.2839 0.0000e+00
      0.454      0.028     7.4899     95.487     27.690  29.287333     1.8430      7.194   323.2851 3.3904e+02     1.2936      0.448      0.649    27.8656   996.2915 0.0000e+00
      0.457      0.015     7.4834     95.410     27.717  29.318038     1.8603      7.193   323.2831 3.6053e+02     1.1831      0.450      0.653    27.8481   996.2965 0.0000e+00
      0.455      0.004     7.4804     95.384     27.761  29.368598     1.8874      7.192   323.3131 3.1445e+02     1.1245      0.447      0.648    27.8538   996.2949 0.0000e+00
      0.453     -0.004     7.4801     95.403     27.776  29.391062     1.8933      7.191   323.3036 3.4406e+02     1.1098      0.444      0.643    27.8708   996.2900 0.0000e+00
      0.451     -0.008     7.4839     95.478     27.776  29.399317     1.8536      7.191   323.3408 4.1728e+02     1.1361      0.443      0.643    27.8801   996.2874 0.0000e+00
      0.448     -0.005     7.4917     95.605     27.772  29.404967     1.7899      7.189   323.5912 3.7983e+02     1.2457      0.440      0.639    27.8785   996.2879 0.0000e+00
      0.443      0.005     7.5017     95.752     27.757  29.395945     1.7641      7.183   323.9217 3.2477e+02     1.3536      0.434      0.629    27.8846   996.2861 0.0000e+00
      0.441      0.025     7.5132     95.906     27.715  29.353687     1.7663      7.168   324.0676 3.4787e+02     1.3920      0.431      0.624    27.9005   996.2816 0.0000e+00
      0.443      0.050     7.5252     96.048     27.645  29.274733     1.7646      7.152   324.1506 3.5223e+02     1.3490      0.431      0.625    27.9161   996.2772 0.0000e+00
      0.454      0.075     7.5340     96.116     27.590  29.202693     1.7789      7.139   324.2371 2.9238e+02     1.2926      0.438      0.634    27.9336   996.2722 0.0000e+00
      0.482      0.097     7.5365     96.064     27.595  29.180563     1.8091      7.131   324.2521 2.1631e+02     1.3001      0.467      0.678    27.9474   996.2685 0.0000e+00
      0.522      0.110     7.5293     95.880     27.640  29.197461     1.8176      7.128   324.2465 1.7785e+02     1.3419      0.512      0.744    27.9515   996.2676 0.0000e+00
      0.563      0.113     7.5073     95.530     27.679  29.216612     1.8121      7.127   324.2552 1.7785e+02     1.3709      0.555      0.805    27.9479   996.2688 0.0000e+00
      0.595      0.107     7.4733     95.058     27.696  29.221741     1.8294      7.126   324.2714 1.9017e+02     1.3564      0.587      0.853    27.9260   996.2750 0.0000e+00
      0.618      0.093     7.4414     94.630     27.679  29.196004     1.8628      7.124   324.2704 2.1772e+02     1.3309      0.608      0.882    27.8684   996.2914 0.0000e+00
      0.635      0.078     7.4214     94.356     27.650  29.159205     1.8853      7.123   324.2431 2.3428e+02     1.3247      0.623      0.904    27.8046   996.3095 0.0000e+00
      0.650      0.064     7.4122     94.213     27.656  29.157486     1.8940      7.122   324.1992 2.0881e+02     1.3139      0.638      0.926    27.7653   996.3208 0.0000e+00
      0.665      0.052     7.4062     94.112     27.681  29.175211     1.8815      7.121   324.2560 2.0689e+02     1.2981      0.651      0.945    27.7434   996.3269 0.0000e+00
      0.680      0.042     7.4018     94.054     27.690  29.183163     1.8460      7.121   324.5006 2.2590e+02     1.2978      0.665      0.966    27.7336   996.3297 0.0000e+00
      0.692      0.035     7.4073     94.142     27.690  29.190178     1.8207      7.120   324.7473 2.0238e+02     1.3103      0.682      0.989    27.7264   996.3319 0.0000e+00
      0.698      0.030     7.4220     94.361     27.686  29.196587     1.8191      7.119   324.8292 1.9006e+02     1.3184      0.687      0.996    27.7074   996.3372 0.0000e+00
      0.698      0.027     7.4398     94.617     27.677  29.197218     1.8084      7.116   324.8029 2.0651e+02     1.3299      0.683      0.990    27.6869   996.3430 0.0000e+00
      0.702      0.027     7.4580     94.869     27.671  29.197831     1.7784      7.113   324.6872 2.1110e+02     1.3511      0.686      0.996    27.6847   996.3436 0.0000e+00
      0.709      0.032     7.4746     95.088     27.675  29.204013     1.7592      7.109   324.6349 2.2703e+02     1.3454      0.696      1.009    27.6994   996.3395 0.0000e+00
      0.719      0.040     7.4897     95.275     27.681  29.208513     1.7583      7.104   324.7730 2.5307e+02     1.3267      0.705      1.022    27.7212   996.3334 0.0000e+00
      0.729      0.051     7.5038     95.439     27.667  29.188789     1.7588      7.097   324.9799 2.2893e+02     1.3210      0.714      1.035    27.7420   996.3276 0.0000e+00
      0.742      0.061     7.5116     95.519     27.642  29.155874     1.7569      7.087   325.1570 1.9386e+02     1.3090      0.726      1.053    27.7544   996.3242 0.0000e+00
      0.760      0.069     7.5103     95.473     27.625  29.127774     1.7605      7.077   325.2795 1.9588e+02     1.3131      0.745      1.080    27.7581   996.3232 0.0000e+00
      0.780      0.074     7.5030     95.331     27.616  29.102803     1.7679      7.068   325.2570 2.0593e+02     1.3381      0.764      1.109    27.7547   996.3243 0.0000e+00
      0.802      0.076     7.4876     95.071     27.640  29.107720     1.7601      7.064   325.1426 2.0398e+02     1.3486      0.785      1.139    27.7448   996.3271 0.0000e+00
      0.826      0.074     7.4639     94.711     27.674  29.123750     1.7357      7.062   325.1873 1.9359e+02     1.3422      0.810      1.174    27.7335   996.3304 0.0000e+00
      0.848      0.069     7.4411     94.385     27.669  29.106238     1.7152      7.060   325.2822 1.8903e+02     1.3271      0.833      1.208    27.7192   996.3345 0.0000e+00
      0.863      0.063     7.4246     94.151     27.657  29.086313     1.7033      7.056   325.2570 1.7922e+02     1.3295      0.848      1.231    27.6909   996.3426 0.0000e+00
      0.873      0.054     7.4158     94.020     27.652  29.073172     1.7049      7.051   325.2269 1.6498e+02     1.3714      0.855      1.241    27.6469   996.3550 0.0000e+00
      0.885      0.044     7.4139     93.981     27.657  29.074231     1.7261      7.046   325.2628 1.6155e+02     1.3749      0.866      1.256    27.6063   996.3665 0.0000e+00
      0.899      0.035     7.4154     93.998     27.681  29.099110     1.7514      7.045   325.3466 1.6765e+02     1.3055      0.883      1.280    27.5873   996.3718 0.0000e+00
      0.910      0.026     7.4198     94.058     27.700  29.120188     1.7595      7.043   325.3795 1.8840e+02     1.2533      0.895      1.299    27.5777   996.3746 0.0000e+00
      0.914      0.018     7.4239     94.121     27.714  29.138738     1.7630      7.043   325.3165 2.1544e+02     1.2687      0.899      1.304    27.5625   996.3789 0.0000e+00
      0.914      0.012     7.4249     94.153     27.703  29.133063     1.7937      7.044   325.3595 2.5071e+02     1.2943      0.895      1.299    27.5524   996.3817 0.0000e+00
      0.913      0.009     7.4245     94.169     27.679  29.115030     1.8274      7.045   325.5554 2.6086e+02     1.3006      0.895      1.298    27.5538   996.3813 0.0000e+00
      0.913      0.011     7.4249     94.178     27.674  29.111050     1.8242      7.044   325.7060 1.9809e+02     1.3122      0.896      1.299    27.5569   996.3805 0.0000e+00
      0.914      0.017     7.4281     94.200     27.655  29.084953     1.8156      7.042   325.8038 1.4165e+02     1.3372      0.894      1.297    27.5600   996.3795 0.0000e+00
      0.918      0.026     7.4354     94.256     27.636  29.053270     1.8093      7.037   325.8768 1.3091e+02     1.3737      0.898      1.303    27.5729   996.3759 0.0000e+00
      0.926      0.035     7.4420     94.292     27.643  29.045197     1.7828      7.031   326.0724 1.2850e+02     1.3597      0.908      1.318    27.5928   996.3703 0.0000e+00
      0.938      0.042     7.4448     94.287     27.661  29.050766     1.7647      7.022   326.3617 1.3001e+02     1.2990      0.920      1.334    27.5958   996.3696 0.0000e+00
      0.953      0.047     7.4449     94.273     27.672  29.057136     1.7627      7.007   326.5353 1.4895e+02     1.2942      0.936      1.356    27.5809   996.3738 0.0000e+00
      0.966      0.047     7.4419     94.239     27.672  29.058760     1.7766      6.991   326.6236 1.8028e+02     1.3345      0.949      1.376    27.5609   996.3795 0.0000e+00
      0.979      0.046     7.4384     94.204     27.681  29.070408     1.8021      6.980   326.6549 1.8285e+02     1.3283      0.960      1.392    27.5269   996.3891 0.0000e+00
      0.992      0.044     7.4384     94.209     27.680  29.071078     1.8116      6.976   326.7410 1.7413e+02     1.2845      0.975      1.414    27.4974   996.3974 0.0000e+00
      1.002      0.042     7.4414     94.242     27.677  29.066863     1.8140      6.977   326.8913 1.9050e+02     1.2640      0.985      1.428    27.4922   996.3990 0.0000e+00
      1.009      0.040     7.4457     94.280     27.697  29.082888     1.8216      6.980   327.0953 2.0320e+02     1.2769      0.988      1.434    27.4976   996.3975 0.0000e+00
      1.018      0.038     7.4506     94.319     27.697  29.074484     1.8260      6.982   327.3146 2.1160e+02     1.3099      0.997      1.446    27.5042   996.3957 0.0000e+00
      1.031      0.036     7.4542     94.338     27.662  29.028683     1.8325      6.984   327.3917 2.1295e+02     1.3352      1.011      1.467    27.5086   996.3944 0.0000e+00
      1.041      0.034     7.4575     94.346     27.620  28.973233     1.8398      6.987   327.4253 1.7269e+02     1.3198      1.023      1.482    27.5059   996.3952 0.0000e+00
      1.050      0.033     7.4630     94.361     27.578  28.911605     1.8356      6.992   327.5489 1.3096e+02     1.2882      1.030      1.493    27.4955   996.3982 0.0000e+00
      1.057      0.033     7.4673     94.327     27.551  28.854547     1.8162      6.995   327.6819 1.1586e+02     1.3132      1.037      1.506    27.4804   996.4025 0.0000e+00
      1.063      0.035     7.4684     94.217     27.529  28.790886     1.7877      6.996   327.8286 1.0408e+02     1.3594      1.043      1.512    27.4651   996.4068 0.0000e+00
      1.068      0.039     7.4640     94.019     27.499  28.712837     1.7683      6.994   328.0312 9.8309e+01     1.3562      1.046      1.516    27.4482   996.4115 0.0000e+00
      1.078      0.044     7.4508     93.716     27.503  28.672152     1.7641      6.991   328.2390 1.1060e+02     1.3398      1.056      1.531    27.4188   996.4197 0.0000e+00
      1.093      0.048     7.4341     93.402     27.543  28.679582     1.7800      6.989   328.4486 1.2701e+02     1.3251      1.071      1.553    27.3664   996.4343 0.0000e+00
      1.109      0.052     7.4173     93.127     27.559  28.675725     1.8044      6.989   328.5010 1.2880e+02     1.3090      1.088      1.578    27.2899   996.4557 0.0000e+00
      1.124      0.053     7.4004     92.872     27.525  28.625490     1.8164      6.988   328.4416 1.3780e+02     1.3095      1.104      1.601    27.2004   996.4806 0.0000e+00
      1.136      0.052     7.3886     92.668     27.499  28.579749     1.8375      6.986   328.4187 1.4976e+02     1.3306      1.114      1.616    27.1106   996.5054 0.0000e+00
      1.149      0.049     7.3842     92.521     27.515  28.566770     1.8690      6.983   328.3970 1.4413e+02     1.3677      1.127      1.634    27.0479   996.5228 0.0000e+00
      1.162      0.048     7.3834     92.408     27.515  28.531961     1.8856      6.982   328.4373 1.3781e+02     1.3650      1.140      1.653    27.0148   996.5319 0.0000e+00
      1.175      0.048     7.3856     92.353     27.487  28.476054     1.8915      6.981   328.4758 1.2925e+02     1.2977      1.152      1.671    26.9928   996.5380 0.0000e+00
      1.185      0.050     7.3940     92.384     27.497  28.461777     1.8964      6.980   328.4315 1.1651e+02     1.2421      1.164      1.687    26.9703   996.5443 0.0000e+00
      1.195      0.053     7.4068     92.474     27.542  28.486189     1.9103      6.979   328.3315 1.1363e+02     1.2834      1.170      1.697    26.9072   996.5616 0.0000e+00
      1.207      0.055     7.4193     92.587     27.587  28.517404     1.9383      6.977   328.2139 1.2024e+02     1.3714      1.182      1.714    26.8307   996.5826 0.0000e+00
      1.224      0.056     7.4312     92.717     27.597  28.521930     1.9572      6.974   328.2134 1.3369e+02     1.3873      1.201      1.742    26.7936   996.5928 0.0000e+00
      1.243      0.056     7.4444     92.871     27.558  28.477460     1.9569      6.972   328.3255 1.4687e+02     1.3452      1.219      1.768    26.7485   996.6052 0.0000e+00
      1.259      0.054     7.4589     93.026     27.514  28.423852     1.9524      6.971   328.3652 1.5062e+02     1.3216      1.237      1.793    26.6969   996.6193 0.0000e+00
      1.272      0.050     7.4713     93.127     27.490  28.381316     1.9714      6.971   328.4356 1.5019e+02     1.3311      1.249      1.810    26.6764   996.6250 0.0000e+00
      1.282      0.045     7.4769     93.130     27.475  28.343801     2.0048      6.971   328.4878 1.4534e+02     1.3291      1.259      1.824    26.6668   996.6277 0.0000e+00
      1.292      0.043     7.4746     93.035     27.441  28.287466     2.0093      6.969   328.3947 1.3579e+02     1.2971      1.268      1.839    26.6658   996.6280 0.0000e+00
      1.301      0.044     7.4693     92.887     27.390  28.207701     2.0002      6.966   328.4286 1.2704e+02     1.2713      1.275      1.850    26.6548   996.6309 0.0000e+00
      1.310      0.048     7.4621     92.693     27.358  28.140670     2.0070      6.961   328.4674 1.2210e+02     1.2800      1.284      1.861    26.6185   996.6408 0.0000e+00
      1.321      0.054     7.4502     92.438     27.364  28.111397     2.0145      6.957   328.3466 1.2405e+02     1.3038      1.293      1.876    26.5724   996.6534 0.0000e+00
      1.337      0.059     7.4360     92.148     27.397  28.107494     2.0121      6.954   328.3451 1.3031e+02     1.2958      1.309      1.899    26.5399   996.6622 0.0000e+00
      1.356      0.063     7.4275     91.931     27.418  28.093414     2.0124      6.952   328.4500 1.3055e+02     1.2821      1.329      1.928    26.4948   996.6745 0.0000e+00
      1.375      0.064     7.4308     91.879     27.423  28.068000     2.0275      6.948   328.4095 1.2509e+02     1.3031      1.351      1.959    26.4227   996.6940 0.0000e+00
      1.392      0.063     7.4436     91.963     27.433  28.053951     2.0561      6.948   328.2862 1.3292e+02     1.3196      1.366      1.980    26.3624   996.7104 0.0000e+00
      1.407      0.061     7.4623     92.131     27.450  28.050398     2.0717      6.949   328.2499 1.4568e+02     1.3171      1.378      1.999    26.2913   996.7296 0.0000e+00
      1.422      0.057     7.4839     92.335     27.445  28.025014     2.0692      6.947   328.3147 1.3892e+02     1.3059      1.396      2.025    26.2204   996.7486 0.0000e+00
      1.435      0.052     7.5032     92.510     27.441  28.000782     2.0257      6.943   328.3822 1.3022e+02     1.2828      1.409      2.042    26.1664   996.7631 0.0000e+00
      1.447      0.046     7.5158     92.620     27.466  28.011155     1.9355      6.941   328.3768 1.2941e+02     1.3000      1.417      2.055    26.1209   996.7753 0.0000e+00
      1.462      0.038     7.5216     92.673     27.484  28.023522     1.8892      6.944   328.3351 1.2777e+02     1.3502      1.435      2.081    26.0881   996.7841 0.0000e+00
      1.474      0.032     7.5232     92.681     27.488  28.023407     1.8905      6.948   328.3083 1.2634e+02     1.3647      1.450      2.102    26.0517   996.7939 0.0000e+00
      1.479      0.029     7.5218     92.639     27.483  28.009758     1.8986      6.951   328.3109 1.2262e+02     1.3448      1.452      2.105    26.0089   996.8053 0.0000e+00
      1.479      0.028     7.5191     92.575     27.469  27.985379     1.9272      6.954   328.3667 1.2354e+02     1.3054      1.449      2.102    25.9778   996.8136 0.0000e+00
      1.482      0.031     7.5176     92.537     27.472  27.982407     1.9493      6.958   328.5528 1.2208e+02     1.2823      1.451      2.105    25.9731   996.8148 0.0000e+00
      1.490      0.036     7.5178     92.532     27.466  27.973807     1.9495      6.959   328.7545 1.1253e+02     1.2948      1.461      2.118    25.9717   996.8153 0.0000e+00
      1.502      0.043     7.5171     92.517     27.440  27.944845     1.9468      6.958   328.8269 1.0936e+02     1.2924      1.472      2.136    25.9536   996.8202 0.0000e+00
      1.516      0.048     7.5120     92.445     27.447  27.949450     1.9513      6.955   328.8256 1.1712e+02     1.2860      1.486      2.155    25.9291   996.8267 0.0000e+00
      1.532      0.049     7.5023     92.317     27.466  27.966038     1.9523      6.952   328.8249 1.2221e+02     1.3166      1.502      2.178    25.9190   996.8294 0.0000e+00
      1.547      0.046     7.4901     92.159     27.458  27.955067     1.9499      6.950   328.8183 1.1687e+02     1.3346      1.518      2.202    25.9195   996.8293 0.0000e+00
      1.560      0.043     7.4796     92.013     27.453  27.943678     1.9491      6.950   328.9169 1.1329e+02     1.3070      1.532      2.223    25.9142   996.8308 0.0000e+00
      1.567      0.043     7.4710     91.879     27.473  27.955228     1.9425      6.948   329.1576 1.1418e+02     1.2777      1.537      2.230    25.9081   996.8324 0.0000e+00
      1.573      0.044     7.4637     91.762     27.494  27.967805     1.9385      6.944   329.3198 1.1431e+02     1.2752      1.541      2.235    25.9040   996.8335 0.0000e+00
      1.581      0.047     7.4601     91.694     27.503  27.968845     1.9447      6.939   329.3287 1.1110e+02     1.3088      1.548      2.245    25.9014   996.8343 0.0000e+00
      1.594      0.048     7.4590     91.650     27.512  27.967793     1.9488      6.932   329.3510 1.0436e+02     1.3568      1.559      2.262    25.8916   996.8369 0.0000e+00
      1.613      0.048     7.4588     91.605     27.513  27.955063     1.9438      6.927   329.4182 1.0029e+02     1.3641      1.582      2.296    25.8718   996.8422 0.0000e+00
      1.631      0.046     7.4575     91.546     27.513  27.941799     1.9367      6.927   329.3666 9.8190e+01     1.3648      1.602      2.325    25.8539   996.8470 0.0000e+00
      1.644      0.042     7.4481     91.402     27.515  27.934290     1.9320      6.932   329.3293 9.4808e+01     1.3653      1.613      2.340    25.8413   996.8503 0.0000e+00
      1.650      0.038     7.4257     91.114     27.513  27.927710     1.9392      6.935   329.3971 8.9825e+01     1.3370      1.619      2.350    25.8277   996.8540 0.0000e+00
      1.653      0.036     7.3949     90.729     27.513  27.925669     1.9373      6.937   329.4978 8.4259e+01     1.3172      1.620      2.349    25.7979   996.8619 0.0000e+00
      1.658      0.037     7.3620     90.313     27.501  27.909614     1.9091      6.939   329.6865 8.1424e+01     1.3227      1.623      2.353    25.7663   996.8702 0.0000e+00
      1.668      0.042     7.3303     89.896     27.525  27.923911     1.8929      6.939   329.7855 8.1217e+01     1.3386      1.635      2.372    25.7534   996.8737 0.0000e+00
      1.683      0.049     7.3039     89.531     27.587  27.971629     1.8978      6.934   329.7488 8.1874e+01     1.3127      1.652      2.396    25.7456   996.8758 0.0000e+00
      1.697      0.055     7.2843     89.248     27.607  27.978986     1.9155      6.927   329.8455 8.3189e+01     1.2717      1.663      2.412    25.7434   996.8765 0.0000e+00
      1.713      0.057     7.2648     88.981     27.587  27.949401     1.9427      6.925   330.0079 8.3656e+01     1.2685      1.678      2.433    25.7398   996.8775 0.0000e+00
      1.730      0.057     7.2383     88.641     27.574  27.931126     1.9489      6.927   330.0776 8.3694e+01     1.2730      1.699      2.464    25.7212   996.8825 0.0000e+00
      1.745      0.057     7.2069     88.245     27.595  27.948351     1.9478      6.930   330.1716 8.5086e+01     1.2940      1.713      2.485    25.6928   996.8901 0.0000e+00
      1.757      0.057     7.1789     87.890     27.618  27.967323     1.9552      6.929   330.2841 8.6744e+01     1.3256      1.722      2.498    25.6628   996.8979 0.0000e+00
      1.770      0.056     7.1581     87.626     27.624  27.970183     1.9684      6.925   330.4061 8.7528e+01     1.3275      1.735      2.516    25.6459   996.9024 0.0000e+00
      1.784      0.055     7.1431     87.439     27.638  27.982923     1.9952      6.922   330.6141 8.5277e+01     1.3169      1.749      2.535    25.6398   996.9041 0.0000e+00
      1.800      0.055     7.1335     87.318     27.651  27.994473     2.0111      6.921   330.8193 8.3219e+01     1.3284      1.764      2.558    25.6332   996.9059 0.0000e+00
      1.817      0.055     7.1286     87.253     27.641  27.982940     2.0128      6.919   330.9946 8.3980e+01     1.3362      1.783      2.587    25.6247   996.9083 0.0000e+00
      1.831      0.054     7.1262     87.217     27.631  27.970366     2.0149      6.917   331.0996 8.5388e+01     1.3128      1.797      2.606    25.6182   996.9100 0.0000e+00
      1.842      0.051     7.1243     87.187     27.632  27.969327     2.0111      6.916   331.1422 8.5152e+01     1.3078      1.805      2.619    25.6174   996.9102 0.0000e+00
      1.855      0.050     7.1228     87.162     27.635  27.970367     2.0103      6.915   331.2508 8.2588e+01     1.3416      1.819      2.638    25.6164   996.9106 0.0000e+00
      1.867      0.050     7.1215     87.142     27.650  27.982942     2.0135      6.910   331.3807 8.1928e+01     1.3608      1.832      2.657    25.6123   996.9117 0.0000e+00
      1.877      0.051     7.1188     87.102     27.663  27.994477     2.0065      6.904   331.5085 8.2446e+01     1.3425      1.841      2.670    25.6078   996.9130 0.0000e+00
      1.889      0.052     7.1174     87.079     27.653  27.982943     2.0028      6.899   331.6769 8.0720e+01     1.3175      1.850      2.684    25.6032   996.9142 0.0000e+00
      1.905      0.053     7.1225     87.137     27.643  27.970369     2.0036      6.896   331.8677 7.8801e+01     1.2874      1.867      2.709    25.5996   996.9152 0.0000e+00
      1.921      0.055     7.1312     87.242     27.643  27.969329     2.0000      6.895   332.0092 7.7802e+01     1.2738      1.886      2.734    25.5968   996.9160 0.0000e+00
      1.934      0.056     7.1370     87.315     27.643  27.970368     1.9852      6.895   332.1836 7.5778e+01     1.2839      1.898      2.752    25.5930   996.9171 0.0000e+00
      1.948      0.056     7.1386     87.339     27.654  27.982943     1.9537      6.893   332.4273 7.3153e+01     1.2791      1.908      2.767    25.5884   996.9183 0.0000e+00
      1.963      0.054     7.1391     87.349     27.664  27.994488     1.9399      6.888   332.5466 7.0662e+01     1.2810      1.925      2.791    25.5853   996.9192 0.0000e+00
      1.978      0.050     7.1421     87.388     27.652  27.983067     1.9488      6.886   332.5931 6.8002e+01     1.3065      1.941      2.815    25.5842   996.9196 0.0000e+00
      1.992      0.047     7.1491     87.474     27.640  27.971741     1.9836      6.887   332.7313 6.5198e+01     1.3906      1.954      2.834    25.5857   996.9193 0.0000e+00
      2.004      0.044     7.1571     87.571     27.653  27.984430     2.0405      6.891   332.9277 6.2597e+01     1.5125      1.968      2.853    25.5893   996.9184 0.0000e+00
      2.012      0.040     7.1625     87.633     27.680  28.009599     2.0644      6.894   333.0751 6.0816e+01     1.5680      1.974      2.863    25.5915   996.9178 0.0000e+00
      2.019      0.037     7.1649     87.655     27.695  28.022279     2.0641      6.898   333.1371 5.8771e+01     1.5696      1.978      2.870    25.5921   996.9177 0.0000e+00
      2.029      0.037     7.1629     87.623     27.686  28.010849     2.0802      6.901   333.2466 5.6107e+01     1.5642      1.989      2.886    25.5940   996.9173 0.0000e+00
      2.038      0.040     7.1529     87.492     27.676  27.998285     2.1122      6.903   333.4526 5.4104e+01     1.5690      1.999      2.899    25.5938   996.9174 0.0000e+00
      2.048      0.045     7.1347     87.260     27.679  27.997247     2.1294      6.904   333.5631 5.3104e+01     1.5615      2.007      2.911    25.5899   996.9183 0.0000e+00
      2.059      0.051     7.1127     86.981     27.684  27.998297     2.1235      6.904   333.6361 5.2655e+01     1.5072      2.018      2.927    25.5861   996.9194 0.0000e+00
      2.072      0.056     7.0895     86.688     27.700  28.010976     2.1278      6.901   333.8186 5.2634e+01     1.4687      2.031      2.946    25.5814   996.9208 0.0000e+00
      2.087      0.060     7.0666     86.399     27.715  28.023655     2.1811      6.895   333.8770 5.2983e+01     1.4902      2.045      2.967    25.5758   996.9223 0.0000e+00
      2.105      0.060     7.0497     86.185     27.718  28.024705     2.2654      6.890   333.8261 5.3517e+01     1.5372      2.063      2.993    25.5693   996.9240 0.0000e+00
      2.125      0.056     7.0399     86.061     27.718  28.023667     2.3058      6.888   333.9776 5.4142e+01     1.5455      2.086      3.025    25.5624   996.9259 0.0000e+00
      2.142      0.050     7.0331     85.974     27.707  28.011093     2.3056      6.889   334.1591 5.4851e+01     1.5242      2.103      3.050    25.5568   996.9275 0.0000e+00
      2.153      0.043     7.0281     85.910     27.697  27.999558     2.2806      6.892   334.2146 5.6192e+01     1.5421      2.112      3.063    25.5512   996.9290 0.0000e+00
      2.159      0.037     7.0251     85.871     27.709  28.011093     2.2290      6.895   334.2185 5.7572e+01     1.5650      2.118      3.072    25.5462   996.9304 0.0000e+00
      2.164      0.035     7.0234     85.851     27.721  28.023677     2.1935      6.897   334.1202 5.8537e+01     1.5389      2.121      3.077    25.5433   996.9311 0.0000e+00
      2.170      0.036     7.0244     85.866     27.721  28.024820     2.1891      6.897   334.0588 5.9503e+01     1.5215      2.126      3.085    25.5417   996.9316 0.0000e+00
      2.179      0.039     7.0272     85.901     27.721  28.024914     2.2021      6.896   334.1644 5.9285e+01     1.5510      2.136      3.100    25.5395   996.9321 0.0000e+00
      2.191      0.044     7.0291     85.926     27.721  28.024810     2.2120      6.896   334.3644 5.8450e+01     1.5690      2.146      3.114    25.5375   996.9327 0.0000e+00
      2.205      0.048     7.0324     85.963     27.720  28.023562     2.2132      6.897   334.4974 5.8391e+01     1.5748      2.163      3.137    25.5382   996.9327 0.0000e+00
      2.219      0.051     7.0380     86.028     27.708  28.009825     2.2075      6.897   334.5689 5.8668e+01     1.5878      2.178      3.158    25.5411   996.9320 0.0000e+00
      2.232      0.052     7.0420     86.071     27.686  27.985601     2.2387      6.896   334.7119 5.8538e+01     1.6610      2.187      3.173    25.5422   996.9317 0.0000e+00
      2.246      0.052     7.0423     86.064     27.689  27.984447     2.3219      6.895   334.8506 5.8014e+01     1.7713      2.202      3.194    25.5424   996.9317 0.0000e+00
      2.260      0.049     7.0391     86.017     27.704  27.995870     2.3729      6.892   334.8689 5.7595e+01     1.7751      2.216      3.214    25.5406   996.9323 0.0000e+00
      2.274      0.046     7.0306     85.908     27.706  27.996814     2.3780      6.892   334.8464 5.7306e+01     1.7401      2.230      3.233    25.5390   996.9328 0.0000e+00
      2.285      0.045     7.0146     85.709     27.706  27.995859     2.3748      6.895   334.8375 5.7098e+01     1.7406      2.242      3.251    25.5357   996.9337 0.0000e+00
      2.295      0.045     6.9961     85.472     27.699  27.984321     2.3423      6.897   334.8473 5.6411e+01     1.7482      2.251      3.265    25.5274   996.9358 0.0000e+00
      2.302      0.046     6.9816     85.278     27.705  27.984203     2.2804      6.897   334.9647 5.5502e+01     1.7666      2.257      3.274    25.5208   996.9376 0.0000e+00
      2.311      0.047     6.9722     85.146     27.721  27.994421     2.2421      6.897   335.0526 5.4561e+01     1.7661      2.264      3.284    25.5190   996.9382 0.0000e+00
      2.325      0.049     6.9687     85.090     27.712  27.980961     2.2337      6.897   335.0496 5.3237e+01     1.7430      2.279      3.306    25.5180   996.9385 0.0000e+00
      2.343      0.052     6.9732     85.138     27.682  27.948348     2.2230      6.897   335.1004 5.2138e+01     1.6834      2.298      3.333    25.5119   996.9401 0.0000e+00
      2.359      0.055     6.9829     85.253     27.653  27.917316     2.2160      6.895   335.2365 5.1265e+01     1.6033      2.314      3.357    25.4994   996.9435 0.0000e+00
      2.370      0.056     6.9931     85.374     27.660  27.922980     2.2188      6.890   335.3188 5.0412e+01     1.5273      2.324      3.371    25.4863   996.9469 0.0000e+00
      2.382      0.054     7.0011     85.466     27.691  27.953382     2.2132      6.886   335.2354 4.9741e+01     1.4864      2.334      3.383    25.4776   996.9492 0.0000e+00
      2.397      0.051     7.0056     85.519     27.706  27.967682     2.2184      6.883   335.1746 4.9401e+01     1.5349      2.349      3.406    25.4736   996.9504 0.0000e+00
      2.414      0.050     7.0075     85.542     27.707  27.968982     2.2469      6.882   335.2720 4.9421e+01     1.5889      2.370      3.436    25.4729   996.9506 0.0000e+00
      2.426      0.049     7.0079     85.544     27.709  27.969099     2.2631      6.880   335.3801 4.9841e+01     1.5831      2.383      3.456    25.4708   996.9513 0.0000e+00
      2.435      0.046     7.0074     85.529     27.712  27.969096     2.2576      6.880   335.2772 5.0496e+01     1.5628      2.385      3.460    25.4660   996.9524 0.0000e+00
      2.445      0.043     7.0057     85.501     27.714  27.968941     2.2324      6.880   335.1468 5.0943e+01     1.5394      2.395      3.474    25.4644   996.9529 0.0000e+00
      2.458      0.043     7.0037     85.472     27.714  27.967225     2.2015      6.878   335.2665 5.1418e+01     1.5296      2.413      3.499    25.4661   996.9525 0.0000e+00
      2.469      0.046     7.0029     85.456     27.697  27.948350     2.1867      6.874   335.4338 5.1916e+01     1.5429      2.422      3.513    25.4647   996.9530 0.0000e+00
      2.477      0.050     7.0049     85.473     27.683  27.931047     2.1847      6.871   335.4486 5.2213e+01     1.5366      2.428      3.521    25.4583   996.9546 0.0000e+00
      2.488      0.053     7.0105     85.532     27.704  27.948351     2.2203      6.871   335.4450 5.2334e+01     1.5851      2.437      3.535    25.4529   996.9561 0.0000e+00
      2.504      0.055     7.0167     85.594     27.727  27.967228     2.2875      6.870   335.4762 5.1909e+01     1.7030      2.455      3.561    25.4507   996.9567 0.0000e+00
      2.522      0.058     7.0213     85.637     27.733  27.968945     2.3212      6.868   335.3951 5.1408e+01     1.7493      2.475      3.589    25.4479   996.9575 0.0000e+00
      2.538      0.061     7.0251     85.669     27.738  27.969113     2.3161      6.866   335.3255 5.1266e+01     1.7511      2.489      3.611    25.4423   996.9590 0.0000e+00
      2.552      0.061     7.0265     85.670     27.744  27.969242     2.3117      6.863   335.4097 5.1386e+01     1.7581      2.503      3.630    25.4361   996.9607 0.0000e+00
      2.566      0.059     7.0250     85.633     27.752  27.970492     2.3367      6.858   335.4661 5.1175e+01     1.7671      2.515      3.648    25.4281   996.9629 0.0000e+00
      2.583      0.054     7.0200     85.555     27.771  27.984232     2.3758      6.852   335.4047 5.0267e+01     1.7946      2.531      3.671    25.4184   996.9655 0.0000e+00
      2.600      0.047     7.0086     85.405     27.799  28.008466     2.3863      6.847   335.3558 4.9594e+01     1.7964      2.551      3.701    25.4099   996.9679 0.0000e+00
      2.613      0.039     6.9931     85.212     27.802  28.009714     2.3769      6.846   335.3917 4.9340e+01     1.7552      2.565      3.720    25.4002   996.9705 0.0000e+00
      2.622      0.030     6.9789     85.042     27.791  27.999321     2.3409      6.847   335.4077 4.9325e+01     1.6902      2.573      3.732    25.3877   996.9737 0.0000e+00
      2.626      0.021     6.9676     84.910     27.800  28.009697     2.2797      6.850   335.2912 4.9214e+01     1.6335      2.577      3.737    25.3758   996.9768 0.0000e+00
      2.627      0.014     6.9596     84.815     27.797  28.008278     2.2524      6.853   335.1883 4.8889e+01     1.5939      2.575      3.735    25.3678   996.9790 0.0000e+00
      2.627      0.011     6.9558     84.771     27.770  27.982173     2.2543      6.855   335.2817 4.8713e+01     1.5392      2.576      3.736    25.3659   996.9794 0.0000e+00
      2.630      0.014     6.9569     84.784     27.736  27.947843     2.2498      6.857   335.4738 4.8406e+01     1.4957      2.579      3.740    25.3687   996.9787 0.0000e+00
      2.631      0.023     6.9612     84.828     27.702  27.910414     2.2511      6.857   335.5324 4.7847e+01     1.5275      2.581      3.744    25.3722   996.9777 0.0000e+00
      2.633      0.033     6.9672     84.882     27.709  27.910286     2.2615      6.856   335.4737 4.7085e+01     1.5952      2.580      3.743    25.3741   996.9773 0.0000e+00
      2.641      0.043     6.9737     84.937     27.753  27.946284     2.2623      6.854   335.4525 4.6191e+01     1.6257      2.586      3.750    25.3756   996.9769 0.0000e+00
      2.659      0.049     6.9792     84.987     27.778  27.964989     2.2430      6.854   335.4485 4.5349e+01     1.6678      2.606      3.780    25.3777   996.9765 0.0000e+00
      2.680      0.053     6.9833     85.026     27.763  27.946098     2.2099      6.855   335.4252 4.4734e+01     1.7441      2.630      3.816    25.3737   996.9776 0.0000e+00
      2.698      0.053     6.9849     85.041     27.727  27.908197     2.1915      6.855   335.4285 4.4222e+01     1.7946      2.648      3.841    25.3578   996.9818 0.0000e+00
      2.709      0.050     6.9846     85.032     27.708  27.887397     2.2029      6.855   335.4035 4.3696e+01     1.7856      2.658      3.855    25.3401   996.9864 0.0000e+00
      2.718      0.046     6.9816     84.988     27.708  27.884939     2.2266      6.856   335.3808 4.3357e+01     1.7015      2.665      3.866    25.3291   996.9894 0.0000e+00
      2.726      0.044     6.9766     84.920     27.704  27.878477     2.2442      6.857   335.4979 4.3187e+01     1.5648      2.673      3.877    25.3238   996.9908 0.0000e+00
      2.735      0.045     6.9745     84.886     27.701  27.872709     2.2509      6.857   335.6145 4.3017e+01     1.4758      2.681      3.890    25.3214   996.9914 0.0000e+00
      2.747      0.047     6.9752     84.889     27.709  27.878632     2.2549      6.856   335.5857 4.2451e+01     1.5108      2.693      3.906    25.3181   996.9923 0.0000e+00
      2.762      0.048     6.9772     84.911     27.718  27.886645     2.2592      6.855   335.4940 4.1728e+01     1.5617      2.708      3.927    25.3137   996.9935 0.0000e+00
      2.777      0.047     6.9811     84.957     27.738  27.906145     2.2680      6.855   335.5391 4.1027e+01     1.5993      2.724      3.951    25.3086   996.9949 0.0000e+00
      2.792      0.045     6.9844     84.996     27.756  27.924071     2.2920      6.854   335.7011 4.0323e+01     1.7033      2.739      3.972    25.3031   996.9964 0.0000e+00
      2.803      0.041     6.9862     85.016     27.746  27.913065     2.3155      6.854   335.6449 3.9996e+01     1.8032      2.751      3.989    25.2990   996.9975 0.0000e+00
      2.810      0.037     6.9900     85.062     27.733  27.899958     2.3256      6.855   335.3763 4.0218e+01     1.8244      2.756      3.997    25.2977   996.9979 0.0000e+00
      2.817      0.035     6.9955     85.128     27.726  27.892476     2.3451      6.856   335.2925 4.0443e+01     1.7300      2.761      4.006    25.2973   996.9980 0.0000e+00
      2.825      0.035     6.9979     85.156     27.720  27.886042     2.3695      6.855   335.4058 4.0158e+01     1.5791      2.771      4.019    25.2956   996.9985 0.0000e+00
      2.833      0.035     6.9944     85.108     27.721  27.885617     2.3770      6.852   335.3696 3.9811e+01     1.5078      2.777      4.028    25.2945   996.9988 0.0000e+00
      2.843      0.034     6.9879     85.022     27.725  27.887332     2.3842      6.849   335.1996 3.9598e+01     1.5234      2.787      4.042    25.2946   996.9988 0.0000e+00
      2.855      0.031     6.9848     84.979     27.746  27.906776     2.3958      6.848   335.1565 3.9412e+01     1.5708      2.802      4.064    25.2945   996.9989 0.0000e+00
      2.865      0.026     6.9874     85.010     27.770  27.930371     2.4047      6.848   335.1924 3.9281e+01     1.5897      2.812      4.079    25.2942   996.9990 0.0000e+00
      2.870      0.021     6.9944     85.097     27.758  27.918837     2.4140      6.848   335.2031 3.9293e+01     1.5549      2.816      4.084    25.2908   996.9999 0.0000e+00
      2.872      0.016     7.0029     85.205     27.732  27.894207     2.4219      6.848   335.2869 3.9270e+01     1.5430      2.817      4.085    25.2851   997.0015 0.0000e+00
      2.873      0.013     7.0078     85.271     27.722  27.886358     2.3789      6.848   335.3452 3.9112e+01     1.5445      2.817      4.086    25.2822   997.0021 0.0000e+00
      2.876      0.012     7.0086     85.287     27.720  27.887388     2.2920      6.849   335.2196 3.8934e+01     1.5080      2.819      4.090    25.2814   997.0024 0.0000e+00
      2.879      0.012     7.0083     85.291     27.737  27.906668     2.2557      6.850   335.1447 3.8781e+01     1.4946      2.822      4.094    25.2821   997.0022 0.0000e+00
      2.883      0.013     7.0069     85.282     27.757  27.929128     2.2522      6.850   335.2135 3.8494e+01     1.5140      2.827      4.100    25.2854   997.0014 0.0000e+00
      2.887      0.013     7.0032     85.247     27.730  27.905178     2.2415      6.851   335.1912 3.8050e+01     1.5451      2.832      4.107    25.2903   997.0002 0.0000e+00
      2.890      0.014     6.9991     85.206     27.693  27.870872     2.2471      6.852   335.1341 3.7722e+01     1.5762      2.834      4.111    25.2955   996.9989 0.0000e+00
      2.893      0.016     6.9979     85.196     27.715  27.895007     2.2598      6.853   335.2108 3.7389e+01     1.5625      2.837      4.115    25.2993   996.9978 0.0000e+00
      2.897      0.019     7.0004     85.220     27.765  27.943223     2.2645      6.854   335.3444 3.7104e+01     1.5432      2.841      4.120    25.3040   996.9966 0.0000e+00
      2.901      0.023     7.0053     85.266     27.772  27.946293     2.2605      6.855   335.4593 3.7074e+01     1.5724      2.844      4.124    25.3102   996.9951 0.0000e+00
      2.906      0.029     7.0107     85.319     27.762  27.932122     2.2809      6.856   335.5666 3.7074e+01     1.6204      2.849      4.133    25.3170   996.9933 0.0000e+00
      2.914      0.035     7.0136     85.343     27.796  27.962201     2.3373      6.856   335.6096 3.6926e+01     1.6651      2.858      4.144    25.3213   996.9922 0.0000e+00
      2.924      0.040     7.0139     85.332     27.832  27.992746     2.3711      6.855   335.6354 3.6516e+01     1.7195      2.867      4.158    25.3174   996.9933 0.0000e+00
      2.936      0.044     7.0130     85.304     27.830  27.984197     2.3773      6.854   335.7920 3.5974e+01     1.7531      2.878      4.175    25.3061   996.9963 0.0000e+00
      2.951      0.048     7.0080     85.228     27.837  27.985726     2.3864      6.852   336.0398 3.5570e+01     1.7439      2.895      4.198    25.2973   996.9987 0.0000e+00
      2.964      0.052     6.9962     85.070     27.867  28.011223     2.3854      6.849   336.2233 3.5175e+01     1.7399      2.909      4.219    25.2937   996.9997 0.0000e+00
      2.974      0.055     6.9804     84.860     27.901  28.038693     2.3735      6.845   336.2900 3.4544e+01     1.7702      2.916      4.229    25.2838   997.0022 0.0000e+00
      2.987      0.055     6.9631     84.629     27.933  28.064071     2.3725      6.839   336.3305 3.3631e+01     1.7816      2.927      4.245    25.2698   997.0060 0.0000e+00
      3.005      0.052     6.9439     84.378     27.940  28.064280     2.3823      6.834   336.3680 3.2706e+01     1.7137      2.947      4.274    25.2614   997.0082 0.0000e+00
      3.023      0.048     6.9233     84.116     27.921  28.041211     2.3883      6.832   336.3998 3.1866e+01     1.6062      2.968      4.304    25.2531   997.0105 0.0000e+00
      3.037      0.043     6.9043     83.878     27.921  28.038915     2.3838      6.832   336.5428 3.1075e+01     1.5293      2.981      4.323    25.2411   997.0136 0.0000e+00
      3.044      0.037     6.8881     83.678     27.920  28.036515     2.3806      6.830   336.7202 3.0481e+01     1.5373      2.985      4.330    25.2278   997.0170 0.0000e+00
      3.049      0.029     6.8745     83.518     27.894  28.012185     2.4011      6.826   336.7374 3.0083e+01     1.6380      2.990      4.336    25.2147   997.0205 0.0000e+00
      3.056      0.022     6.8647     83.413     27.876  27.998532     2.4316      6.825   336.6646 2.9829e+01     1.7314      2.997      4.346    25.2066   997.0226 0.0000e+00
      3.062      0.018     6.8621     83.404     27.867  27.998329     2.4380      6.827   336.7012 2.9693e+01     1.7483      3.004      4.357    25.2031   997.0235 0.0000e+00
      3.067      0.017     6.8698     83.519     27.871  28.009749     2.4348      6.828   336.8354 2.9722e+01     1.7440      3.009      4.364    25.2011   997.0240 0.0000e+00
      3.068      0.017     6.8871     83.738     27.868  28.009729     2.4367      6.829   336.9110 2.9948e+01     1.7782      3.008      4.364    25.2023   997.0237 0.0000e+00
      3.069      0.016     6.9086     83.997     27.857  27.998099     2.4342      6.831   336.9274 3.0119e+01     1.8335      3.007      4.362    25.2116   997.0213 0.0000e+00
      3.074      0.015     6.9286     84.237     27.856  27.996011     2.4312      6.833   337.0327 3.0162e+01     1.8223      3.012      4.370    25.2296   997.0167 0.0000e+00
      3.082      0.015     6.9451     84.437     27.845  27.984484     2.4267      6.834   337.1513 3.0068e+01     1.7416      3.025      4.386    25.2467   997.0123 0.0000e+00
      3.087      0.015     6.9567     84.581     27.845  27.985618     2.4228      6.836   337.1570 2.9884e+01     1.7106      3.030      4.393    25.2522   997.0109 0.0000e+00
      3.088      0.015     6.9633     84.663     27.868  28.009728     2.4107      6.837   337.2744 2.9730e+01     1.7426      3.028      4.391    25.2473   997.0122 0.0000e+00
      3.089      0.016     6.9649     84.680     27.881  28.022218     2.3922      6.838   337.5378 2.9571e+01     1.7675      3.029      4.394    25.2442   997.0131 0.0000e+00
      3.092      0.018     6.9610     84.624     27.872  28.009739     2.3899      6.839   337.7610 2.9420e+01     1.7824      3.032      4.398    25.2448   997.0129 0.0000e+00
      3.097      0.023     6.9521     84.501     27.854  27.985734     2.3923      6.839   337.9083 2.9203e+01     1.7919      3.035      4.404    25.2463   997.0125 0.0000e+00
      3.103      0.028     6.9421     84.362     27.860  27.985736     2.3863      6.838   337.9417 2.8977e+01     1.7499      3.042      4.412    25.2481   997.0120 0.0000e+00
      3.112      0.030     6.9332     84.237     27.890  28.009752     2.3778      6.838   337.9924 2.8673e+01     1.6362      3.051      4.425    25.2479   997.0121 0.0000e+00
      3.123      0.030     6.9253     84.127     27.907  28.022327     2.3765      6.838   338.1777 2.8215e+01     1.5318      3.063      4.443    25.2425   997.0136 0.0000e+00
      3.134      0.027     6.9207     84.062     27.900  28.010877     2.3879      6.838   338.3754 2.7799e+01     1.5037      3.075      4.460    25.2305   997.0167 0.0000e+00
      3.141      0.021     6.9201     84.052     27.888  27.998197     2.4205      6.838   338.5764 2.7412e+01     1.5250      3.082      4.471    25.2188   997.0198 0.0000e+00
      3.144      0.015     6.9231     84.092     27.885  27.995900     2.4753      6.837   338.7145 2.7016e+01     1.5603      3.084      4.473    25.2090   997.0224 0.0000e+00
      3.146      0.009     6.9309     84.190     27.870  27.983108     2.5040      6.837   338.6688 2.6687e+01     1.5699      3.086      4.474    25.1992   997.0249 0.0000e+00
      3.146      0.007     6.9431     84.345     27.855  27.970419     2.4993      6.837   338.6254 2.6424e+01     1.5430      3.085      4.476    25.1918   997.0268 0.0000e+00
      3.146      0.009     6.9569     84.515     27.853  27.969378     2.4707      6.836   338.7069 2.6083e+01     1.5299      3.084      4.474    25.1903   997.0271 0.0000e+00
      3.146      0.013     6.9688     84.654     27.856  27.970532     2.4177      6.834   338.7931 2.5623e+01     1.5420      3.085      4.473    25.1938   997.0263 0.0000e+00
      3.148      0.017     6.9781     84.759     27.873  27.984366     2.3878      6.831   338.8077 2.5100e+01     1.5582      3.084      4.474    25.1966   997.0255 0.0000e+00
      3.155      0.022     6.9866     84.857     27.900  28.009743     2.3945      6.831   338.7974 2.4601e+01     1.5622      3.092      4.485    25.2012   997.0244 0.0000e+00
      3.165      0.027     6.9954     84.960     27.915  28.023586     2.5247      6.832   338.9264 2.4310e+01     1.5576      3.107      4.505    25.2050   997.0235 0.0000e+00
      3.173      0.032     7.0010     85.026     27.918  28.024845     2.7747      6.832   339.1625 2.4239e+01     1.5680      3.113      4.515    25.2002   997.0247 0.0000e+00
      3.178      0.036     7.0017     85.026     27.921  28.024961     2.9201      6.831   339.3299 2.4278e+01     1.5562      3.116      4.519    25.1930   997.0266 0.0000e+00
      3.186      0.037     7.0000     84.988     27.928  28.024982     2.9385      6.831   339.4011 2.4343e+01     1.5141      3.124      4.530    25.1901   997.0274 0.0000e+00
      3.198      0.036     6.9959     84.918     27.934  28.025087     2.9455      6.830   339.4221 2.4393e+01     1.5175      3.136      4.547    25.1882   997.0280 0.0000e+00
      3.212      0.034     6.9857     84.783     27.938  28.026221     2.9874      6.830   339.4114 2.4495e+01     1.5655      3.150      4.569    25.1871   997.0283 0.0000e+00
      3.224      0.031     6.9686     84.568     27.953  28.038693     3.0638      6.830   339.3569 2.4669e+01     1.5692      3.163      4.588    25.1835   997.0293 0.0000e+00
      3.230      0.027     6.9474     84.303     27.967  28.048991     3.1061      6.831   339.3659 2.4857e+01     1.5294      3.169      4.596    25.1697   997.0329 0.0000e+00
      3.233      0.023     6.9272     84.052     27.945  28.023833     3.0996      6.831   339.4341 2.5068e+01     1.5106      3.170      4.598    25.1542   997.0370 0.0000e+00
      3.234      0.022     6.9114     83.857     27.910  27.988285     3.0386      6.830   339.4936 2.5238e+01     1.5709      3.171      4.599    25.1489   997.0383 0.0000e+00
      3.238      0.022     6.9008     83.725     27.923  27.999850     2.9320      6.829   339.5688 2.5272e+01     1.7020      3.175      4.604    25.1470   997.0388 0.0000e+00
      3.245      0.026     6.8960     83.647     27.967  28.036775     2.8685      6.829   339.6543 2.5261e+01     1.7843      3.183      4.616    25.1398   997.0407 0.0000e+00
      3.252      0.032     6.8959     83.597     28.002  28.054063     2.8595      6.829   339.8395 2.5272e+01     1.7794      3.189      4.627    25.1344   997.0420 0.0000e+00
      3.261      0.037     6.8954     83.512     28.058  28.081961     2.8588      6.826   340.0015 2.5178e+01     1.7736      3.196      4.636    25.1342   997.0421 0.0000e+00
      3.272      0.040     6.8856     83.299     28.131  28.120270     2.8680      6.822   339.9783 2.4977e+01     1.8127      3.209      4.654    25.1354   997.0418 0.0000e+00
      3.285      0.040     6.8568     82.866     28.180  28.136521     2.8845      6.818   339.9029 2.4764e+01     1.8266      3.221      4.672    25.1275   997.0440 0.0000e+00
      3.297      0.040     6.8078     82.219     28.215  28.151512     2.8760      6.813   339.9507 2.4572e+01     1.7775      3.233      4.690    25.0930   997.0530 0.0000e+00
      3.307      0.039     6.7430     81.412     28.247  28.174602     2.8090      6.808   340.1255 2.4408e+01     1.7435      3.245      4.705    25.0394   997.0667 0.0000e+00
      3.314      0.035     6.6723     80.547     28.238  28.161902     2.7151      6.806   340.2096 2.4239e+01     1.7439      3.249      4.713    24.9737   997.0837 0.0000e+00
      3.324      0.031     6.6125     79.816     28.205  28.124851     2.6778      6.805   340.1941 2.4056e+01     1.7486      3.258      4.726    24.9082   997.1005 0.0000e+00
      3.334      0.028     6.5699     79.289     28.191  28.107289     2.6870      6.805   340.1951 2.3942e+01     1.7683      3.272      4.745    24.8754   997.1089 0.0000e+00
      3.340      0.028     6.5427     78.949     28.165  28.076441     2.6702      6.806   340.2225 2.3879e+01     1.7849      3.277      4.753    24.8647   997.1117 0.0000e+00
      3.343      0.031     6.5287     78.756     28.104  28.005649     2.6313      6.807   340.3522 2.3793e+01     1.7863      3.277      4.753    24.8591   997.1131 0.0000e+00
      3.347      0.035     6.5228     78.631     28.068  27.949233     2.6156      6.807   340.5590 2.3701e+01     1.7846      3.281      4.759    24.8550   997.1141 0.0000e+00
      3.355      0.038     6.5230     78.561     28.112  27.965289     2.6187      6.805   340.7438 2.3548e+01     1.7968      3.288      4.770    24.8438   997.1171 0.0000e+00
      3.369      0.039     6.5363     78.664     28.179  28.009414     2.6254      6.802   340.8662 2.3315e+01     1.8032      3.302      4.789    24.8381   997.1186 0.0000e+00
      3.385      0.039     6.5763     79.112     28.222  28.038587     2.6618      6.801   340.9202 2.3127e+01     1.6981      3.321      4.817    24.8292   997.1209 0.0000e+00
      3.399      0.036     6.6451     79.927     28.252  28.064225     2.7200      6.802   340.9669 2.3098e+01     1.5420      3.336      4.839    24.7872   997.1316 0.0000e+00
      3.407      0.032     6.7275     80.916     28.254  28.065611     2.7481      6.804   341.0004 2.3222e+01     1.5216      3.343      4.849    24.7286   997.1466 0.0000e+00
      3.409      0.028     6.8012     81.800     28.244  28.055336     2.7418      6.804   340.9816 2.3408e+01     1.5497      3.343      4.848    24.6860   997.1574 0.0000e+00
      3.411      0.027     6.8511     82.394     28.259  28.066882     2.7045      6.803   340.9975 2.3525e+01     1.5216      3.343      4.849    24.6653   997.1626 0.0000e+00
      3.416      0.028     6.8763     82.695     28.271  28.078323     2.6526      6.802   341.1063 2.3533e+01     1.5097      3.348      4.856    24.6591   997.1642 0.0000e+00
      3.427      0.031     6.8855     82.812     28.257  28.066769     2.6350      6.801   341.1783 2.3492e+01     1.5369      3.359      4.873    24.6609   997.1637 0.0000e+00
      3.438      0.035     6.8842     82.802     28.242  28.054079     2.6480      6.800   341.1804 2.3460e+01     1.5874      3.373      4.892    24.6610   997.1638 0.0000e+00
      3.448      0.037     6.8730     82.659     28.242  28.051792     2.7314      6.798   341.2176 2.3483e+01     1.5964      3.381      4.904    24.6531   997.1658 0.0000e+00
      3.456      0.036     6.8547     82.423     28.236  28.039105     2.8814      6.795   341.2836 2.3478e+01     1.5472      3.388      4.913    24.6511   997.1664 0.0000e+00
      3.466      0.032     6.8322     82.148     28.226  28.027560     2.9695      6.793   341.3764 2.3337e+01     1.5165      3.398      4.928    24.6587   997.1645 0.0000e+00
      3.476      0.029     6.8063     81.850     28.233  28.039104     2.9903      6.793   341.5663 2.3207e+01     1.5204      3.411      4.946    24.6651   997.1630 0.0000e+00
      3.484      0.027     6.7789     81.538     28.239  28.051792     3.0117      6.792   341.7723 2.3229e+01     1.5286      3.419      4.958    24.6595   997.1645 0.0000e+00
      3.487      0.025     6.7540     81.245     28.239  28.054089     3.0374      6.792   341.8018 2.3256e+01     1.5182      3.420      4.961    24.6430   997.1686 0.0000e+00
      3.491      0.025     6.7357     81.018     28.254  28.066883     3.0490      6.793   341.7509 2.3179e+01     1.5253      3.422      4.962    24.6368   997.1701 0.0000e+00
      3.497      0.027     6.7282     80.915     28.271  28.079581     3.0658      6.793   341.7597 2.3044e+01     1.5810      3.429      4.973    24.6503   997.1668 0.0000e+00
      3.504      0.030     6.7327     80.956     28.277  28.080725     3.2922      6.793   341.7356 2.2925e+01     1.6348      3.436      4.985    24.6660   997.1629 0.0000e+00
      3.512      0.032     6.7459     81.101     28.282  28.080715     3.7148      6.793   341.7180 2.2750e+01     1.6853      3.442      4.993    24.6705   997.1618 0.0000e+00
      3.522      0.034     6.7659     81.328     28.287  28.079454     3.9438      6.793   341.7182 2.2489e+01     1.7322      3.453      5.008    24.6645   997.1633 0.0000e+00
      3.533      0.036     6.7893     81.593     28.279  28.065474     3.9628      6.793   341.7385 2.2299e+01     1.7424      3.466      5.028    24.6540   997.1660 0.0000e+00
      3.542      0.036     6.8093     81.800     28.264  28.038554     4.0231      6.793   341.8771 2.2187e+01     1.7435      3.474      5.040    24.6466   997.1680 0.0000e+00
      3.548      0.035     6.8208     81.883     28.254  28.007731     4.6292      6.792   342.0172 2.1990e+01     1.8110      3.477      5.043    24.6371   997.1704 0.0000e+00
      3.558      0.035     6.8241     81.863     28.215  27.946543     5.7248      6.790   342.0566 2.1688e+01     1.9354      3.487      5.058    24.6264   997.1731 0.0000e+00
      3.570      0.037     6.8250     81.807     28.162  27.869709     6.3292      6.789   342.0091 2.1433e+01     2.0029      3.503      5.080    24.6208   997.1746 0.0000e+00
      3.578      0.040     6.8305     81.767     28.171  27.840035     6.4231      6.784   341.9597 2.1244e+01     2.0040      3.510      5.090    24.6030   997.1790 0.0000e+00
      3.584      0.043     6.8469     81.811     28.230  27.841490     6.7389      6.778   341.9756 2.1040e+01     2.0475      3.512      5.094    24.5581   997.1904 0.0000e+00
      3.595      0.043     6.8831     82.092     28.269  27.823767     7.3029      6.773   342.0284 2.0789e+01     2.1684      3.523      5.109    24.5174   997.2007 0.0000e+00
      3.611      0.043     6.9430     82.714     28.296  27.815995     7.6160      6.771   342.1680 2.0529e+01     2.2538      3.542      5.137    24.4856   997.2087 0.0000e+00
      3.626      0.046     7.0213     83.604     28.306  27.810924     7.6465      6.773   342.3724 2.0370e+01     2.2600      3.559      5.161    24.4211   997.2250 0.0000e+00
      3.636      0.050     7.1111     84.604     28.282  27.762427     7.6366      6.774   342.6071 2.0304e+01     2.2110      3.567      5.172    24.3057   997.2540 0.0000e+00
      3.643      0.050     7.1945     85.455     28.307  27.737148     7.6092      6.772   342.8542 2.0186e+01     2.1198      3.570      5.178    24.1869   997.2836 0.0000e+00
      3.654      0.047     7.2486     85.941     28.386  27.758977     7.5846      6.769   342.9513 1.9898e+01     2.0422      3.579      5.191    24.1323   997.2972 0.0000e+00
      3.671      0.044     7.2660     86.074     28.426  27.772500     7.5728      6.769   343.0075 1.9545e+01     1.9938      3.600      5.222    24.1265   997.2987 0.0000e+00
      3.689      0.044     7.2535     85.959     28.415  27.773727     7.4838      6.770   343.2752 1.9325e+01     1.9929      3.622      5.254    24.0994   997.3056 0.0000e+00
      3.699      0.044     7.2243     85.668     28.395  27.773835     7.2971      6.770   343.5214 1.9259e+01     2.0316      3.630      5.265    23.9948   997.3314 0.0000e+00
      3.702      0.044     7.1889     85.238     28.400  27.773832     7.1797      6.768   343.4894 1.9216e+01     2.0363      3.630      5.265    23.8659   997.3631 0.0000e+00
      3.708      0.041     7.1529     84.749     28.423  27.773688     7.1826      6.767   343.4037 1.9045e+01     1.9836      3.632      5.267    23.8145   997.3758 0.0000e+00
      3.723      0.040     7.1226     84.356     28.433  27.772055     7.4621      6.768   343.4313 1.8770e+01     1.9515      3.648      5.292    23.8587   997.3650 0.0000e+00
      3.741      0.042     7.1058     84.158     28.414  27.754062     7.9838      6.770   343.4788 1.8599e+01     1.9761      3.673      5.326    23.9221   997.3495 0.0000e+00
      3.752      0.046     7.1065     84.133     28.353  27.683038     8.2808      6.771   343.6343 1.8573e+01     2.0187      3.683      5.341    23.9094   997.3527 0.0000e+00
      3.758      0.050     7.1193     84.173     28.255  27.547738     8.3217      6.770   343.8483 1.8519e+01     2.0406      3.684      5.344    23.8399   997.3697 0.0000e+00
      3.766      0.053     7.1349     84.178     28.222  27.450422     8.3138      6.767   343.9161 1.8387e+01     2.0112      3.691      5.353    23.8179   997.3752 0.0000e+00
      3.778      0.055     7.1504     84.165     28.302  27.457965     8.2807      6.764   343.9381 1.8174e+01     1.9908      3.703      5.371    23.8431   997.3691 0.0000e+00
      3.798      0.058     7.1744     84.296     28.348  27.448504     8.2504      6.763   344.0281 1.7864e+01     1.9910      3.723      5.401    23.8308   997.3722 0.0000e+00
      3.821      0.061     7.2212     84.746     28.268  27.335952     8.2416      6.763   344.1427 1.7588e+01     1.9811      3.750      5.439    23.7599   997.3896 0.0000e+00
      3.838      0.063     7.2898     85.449     28.139  27.175598     8.2440      6.763   344.2912 1.7443e+01     2.0023      3.767      5.465    23.6329   997.4205 0.0000e+00
      3.848      0.063     7.3619     86.112     28.055  27.032254     8.2449      6.761   344.5342 1.7320e+01     1.9527      3.773      5.472    23.4900   997.4553 0.0000e+00
      3.859      0.061     7.4244     86.577     27.982  26.871562     8.2533      6.760   344.7574 1.7058e+01     1.8398      3.780      5.483    23.3945   997.4785 0.0000e+00
      3.878      0.059     7.4873     87.019     27.897  26.691720     8.2668      6.760   344.9253 1.6702e+01     1.7842      3.803      5.517    23.3443   997.4906 0.0000e+00
      3.898      0.059     7.5633     87.618     27.869  26.570579     8.3394      6.762   345.1012 1.6445e+01     1.7389      3.827      5.549    23.3048   997.5000 0.0000e+00
      3.912      0.059     7.6493     88.352     27.871  26.485227     9.2692      6.764   345.2501 1.6260e+01     1.7504      3.837      5.564    23.1954   997.5263 0.0000e+00
      3.925      0.058     7.7398     89.162     27.884  26.420905    11.0040      6.767   345.3482 1.6033e+01     1.8251      3.849      5.582    23.0086   997.5708 0.0000e+00
      3.939      0.055     7.8305     89.989     27.898  26.363730    11.9581      6.770   345.4276 1.5828e+01     1.8556      3.862      5.602    22.8343   997.6119 0.0000e+00
      3.954      0.052     7.9141     90.761     27.896  26.301349    12.0570      6.773   345.6075 1.5643e+01     1.8567      3.875      5.622    22.6598   997.6528 0.0000e+00
      3.969      0.050     7.9797     91.373     27.943  26.300978    12.2769      6.775   345.8034 1.5455e+01     1.8397      3.894      5.649    22.5001   997.6901 0.0000e+00
      3.980      0.048     8.0222     91.773     28.034  26.359185    12.7009      6.778   345.8167 1.5289e+01     1.8133      3.903      5.661    22.3699   997.7202 0.0000e+00
      3.990      0.046     8.0455     91.996     28.061  26.370690    12.9364      6.781   345.7681 1.5118e+01     1.8328      3.911      5.673    22.2385   997.7505 0.0000e+00
      4.002      0.046     8.0468     92.020     27.997  26.313183    12.8782      6.782   345.8176 1.4962e+01     1.8457      3.926      5.693    22.1273   997.7760 0.0000e+00
      4.013      0.047     8.0197     91.762     27.964  26.298278    12.0059      6.783   345.9861 1.4846e+01     1.8050      3.934      5.707    22.0431   997.7951 0.0000e+00
      4.023      0.049     7.9701     91.227     27.974  26.317369    10.4012      6.783   346.2560 1.4706e+01     1.7669      3.942      5.718    22.0017   997.8047 0.0000e+00
      4.037      0.053     7.9114     90.527     27.954  26.290274     9.5236      6.783   346.5005 1.4516e+01     1.7788      3.958      5.740    21.9722   997.8115 0.0000e+00
      4.052      0.057     7.8475     89.720     27.910  26.224424     9.4486      6.780   346.6181 1.4325e+01     1.8175      3.974      5.764    21.9741   997.8111 0.0000e+00
      4.066      0.058     7.7810     88.842     27.877  26.155553     9.4074      6.776   346.6460 1.4118e+01     1.8420      3.986      5.782    22.0237   997.7999 0.0000e+00
      4.082      0.057     7.7155     87.930     27.867  26.091904     8.9398      6.776   346.6657 1.3871e+01     1.7800      4.001      5.802    22.0506   997.7938 0.0000e+00
      4.100      0.055     7.6418     86.876     27.873  26.025730     8.0862      6.776   346.7704 1.3642e+01     1.6251      4.022      5.833    22.0275   997.7991 0.0000e+00
      4.115      0.052     7.5409     85.491     27.921  25.989746     7.6353      6.775   346.9647 1.3487e+01     1.5419      4.038      5.855    21.9828   997.8094 0.0000e+00
      4.125      0.048     7.3985     83.685     27.975  25.973901     7.6148      6.775   347.1220 1.3379e+01     1.5606      4.046      5.866    21.9166   997.8243 0.0000e+00
      4.135      0.044     7.2168     81.513     28.005  25.960941     7.7076      6.774   347.2105 1.3274e+01     1.5887      4.055      5.880    21.8197   997.8462 0.0000e+00
      4.146      0.040     7.0110     79.103     28.037  25.959879     7.8903      6.773   347.2600 1.3169e+01     1.6198      4.066      5.897    21.6939   997.8745 0.0000e+00
      4.156      0.037     6.8017     76.664     28.070  25.961022     8.0034      6.772   347.2902 1.3091e+01     1.6415      4.075      5.910    21.5243   997.9124 0.0000e+00
      4.165      0.036     6.6087     74.442     28.104  25.974720     8.0866      6.772   347.3184 1.3019e+01     1.5885      4.085      5.924    21.3984   997.9403 0.0000e+00
      4.174      0.035     6.4402     72.544     28.129  25.998594     8.8789      6.772   347.3422 1.2899e+01     1.4380      4.095      5.939    21.3426   997.9527 0.0000e+00
      4.183      0.035     6.3025     71.020     28.114  25.995921    10.3264      6.775   347.4058 1.2775e+01     1.2965      4.102      5.950    21.2933   997.9636 0.0000e+00
      4.190      0.036     6.2095     69.997     28.045  25.942414    11.1181      6.777   347.4843 1.2696e+01     1.2869      4.109      5.960    21.2309   997.9772 0.0000e+00
      4.198      0.040     6.1676     69.533     27.951  25.859164    11.2736      6.778   347.6039 1.2596e+01     1.3553      4.116      5.970    21.1936   997.9854 0.0000e+00
      4.207      0.046     6.1689     69.514     27.849  25.750637    12.1969      6.779   347.9059 1.2450e+01     1.4026      4.126      5.984    21.2010   997.9839 0.0000e+00
      4.218      0.052     6.1962     69.720     27.780  25.645226    13.8714      6.781   348.2097 1.2297e+01     1.4330      4.136      5.998    21.2295   997.9777 0.0000e+00
      4.232      0.056     6.2242     69.880     27.799  25.599610    14.8048      6.781   348.3521 1.2094e+01     1.4607      4.148      6.016    21.2499   997.9733 0.0000e+00
      4.252      0.057     6.2252     69.730     27.849  25.579634    15.0908      6.780   348.5087 1.1813e+01     1.5079      4.170      6.048    21.2616   997.9708 0.0000e+00
      4.271      0.056     6.1807     69.105     27.852  25.530487    17.2165      6.779   348.6413 1.1579e+01     1.5440      4.191      6.079    21.2502   997.9733 0.0000e+00
      4.286      0.053     6.0930     68.029     27.807  25.449376    21.0864      6.778   348.7505 1.1462e+01     1.5375      4.205      6.099    21.1674   997.9914 0.0000e+00
      4.296      0.048     5.9750     66.601     27.761  25.360123    23.1954      6.777   348.9686 1.1365e+01     1.5266      4.214      6.112    21.0407   998.0191 0.0000e+00
      4.305      0.044     5.8390     64.921     27.747  25.275969    23.3910      6.777   349.2132 1.1236e+01     1.5442      4.222      6.124    20.9096   998.0475 0.0000e+00
      4.314      0.042     5.6973     63.136     27.759  25.193033    23.3730      6.777   349.4708 1.1098e+01     1.5857      4.231      6.136    20.8153   998.0680 0.0000e+00
      4.324      0.043     5.5562     61.347     27.791  25.118470    22.8573      6.777   349.6747 1.0968e+01     1.5701      4.240      6.150    20.7616   998.0795 0.0000e+00
      4.335      0.046     5.4128     59.547     27.852  25.072109    21.8973      6.776   349.6992 1.0840e+01     1.5192      4.252      6.166    20.6909   998.0946 0.0000e+00
      4.348      0.048     5.2665     57.747     27.961  25.076401    21.3634      6.774   349.7670 1.0679e+01     1.5282      4.263      6.182    20.5561   998.1233 0.0000e+00
      4.362      0.047     5.1209     56.006     28.074  25.106807    21.2149      6.772   349.9784 1.0484e+01     1.5468      4.276      6.202    20.3786   998.1608 0.0000e+00
      4.377      0.043     4.9740     54.337     28.126  25.122462    20.0836      6.772   350.1041 1.0297e+01     1.5483      4.292      6.225    20.1841   998.2016 0.0000e+00
      4.391      0.038     4.8292     52.756     28.144  25.138766    18.0100      6.771   350.0827 1.0171e+01     1.5463      4.309      6.249    19.9992   998.2401 0.0000e+00
      4.399      0.033     4.6980     51.338     28.177  25.177068    16.8650      6.769   350.0637 1.0111e+01     1.5550      4.316      6.259    19.8299   998.2749 0.0000e+00
      4.403      0.028     4.5926     50.207     28.196  25.204950    16.6687      6.768   350.3053 1.0045e+01     1.5884      4.316      6.260    19.6774   998.3060 0.0000e+00
      4.407      0.024     4.5273     49.518     28.199  25.222156    15.6547      6.766   350.7666 9.9798e+00     1.5240      4.322      6.269    19.6322   998.3151 0.0000e+00
      4.411      0.022     4.5105     49.357     28.225  25.258253    13.7955      6.765   351.0802 9.9248e+00     1.3659      4.326      6.275    19.6590   998.3098 0.0000e+00
      4.416      0.022     4.5363     49.678     28.204  25.260786    12.7685      6.764   351.2585 9.8258e+00     1.2822      4.329      6.278    19.6677   998.3080 0.0000e+00
      4.425      0.021     4.5930     50.355     28.159  25.252813    12.5919      6.763   351.4593 9.7219e+00     1.2654      4.340      6.294    19.6866   998.3042 0.0000e+00
      4.433      0.018     4.6671     51.210     28.173  25.288764    11.7125      6.762   351.5292 9.6708e+00     1.2289      4.350      6.310    19.7246   998.2965 0.0000e+00
      4.437      0.012     4.7483     52.133     28.183  25.314879    10.1299      6.762   351.5017 9.6367e+00     1.1692      4.351      6.309    19.7330   998.2948 0.0000e+00
      4.441      0.007     4.8314     53.094     28.154  25.314837     9.2788      6.762   351.5567 9.6201e+00     1.1002      4.355      6.316    19.7641   998.2886 0.0000e+00
      4.442      0.003     4.9087     53.988     28.098  25.288293     9.2592      6.761   351.6779 9.6618e+00     1.0511      4.359      6.322    19.8475   998.2715 0.0000e+00
      4.437      0.001     4.9770     54.732     28.057  25.247717     9.8500      6.760   351.8487 9.6938e+00     1.0663      4.350      6.310    19.8829   998.2642 0.0000e+00
      4.434      0.001     5.0388     55.349     28.045  25.204854    10.9512      6.760   351.9877 9.6526e+00     1.1197      4.344      6.302    19.8966   998.2614 0.0000e+00
      4.435      0.005     5.0935     55.859     28.035  25.150622    11.5542      6.760   351.9812 9.5985e+00     1.1387      4.349      6.308    19.9518   998.2502 0.0000e+00
      4.438      0.011     5.1311     56.166     28.038  25.099437    11.6003      6.761   351.9421 9.5761e+00     1.1004      4.354      6.315    20.0174   998.2366 0.0000e+00
      4.440      0.018     5.1395     56.155     28.018  25.029976    11.5262      6.762   352.0314 9.5423e+00     1.0500      4.353      6.314    20.0107   998.2378 0.0000e+00
      4.444      0.025     5.1157     55.795     27.980  24.945069    10.6323      6.762   352.2000 9.4782e+00     1.0545      4.356      6.319    19.9339   998.2538 0.0000e+00
      4.453      0.031     5.0637     55.087     28.007  24.897448     8.9849      6.761   352.3457 9.4152e+00     1.0885      4.366      6.334    19.8585   998.2692 0.0000e+00
      4.462      0.036     4.9845     54.055     28.107  24.898157     8.0799      6.760   352.5027 9.3347e+00     1.1006      4.376      6.347    19.7553   998.2904 0.0000e+00
      4.472      0.040     4.8795     52.781     28.178  24.890077     7.9442      6.759   352.7218 9.2188e+00     1.1024      4.384      6.359    19.6534   998.3111 0.0000e+00
      4.484      0.042     4.7553     51.370     28.188  24.863105     7.3534      6.757   352.9307 9.1065e+00     1.0452      4.398      6.378    19.5935   998.3232 0.0000e+00
      4.498      0.040     4.6189     49.876     28.231  24.889170     6.2769      6.755   353.0494 9.0357e+00     0.9329      4.413      6.399    19.4613   998.3499 0.0000e+00
      4.509      0.035     4.4812     48.388     28.302  24.951470     5.6797      6.754   353.2105 8.9858e+00     0.8590      4.423      6.414    19.2700   998.3881 0.0000e+00
      4.518      0.029     4.3578     47.073     28.325  24.982006     5.6118      6.753   353.5021 8.9250e+00     0.8405      4.431      6.427    19.1382   998.4143 0.0000e+00
      4.525      0.022     4.2580     46.034     28.323  25.004640     5.5602      6.752   353.7356 8.8918e+00     0.9051      4.440      6.440    19.0802   998.4258 0.0000e+00
      4.528      0.016     4.1870     45.320     28.320  25.034859     5.4802      6.752   353.7964 8.8954e+00     1.0178      4.441      6.443    19.0750   998.4268 0.0000e+00
      4.528      0.012     4.1564     45.043     28.277  25.030242     5.4423      6.751   353.8073 8.8854e+00     1.0555      4.439      6.439    19.0695   998.4279 0.0000e+00
      4.529      0.010     4.1694     45.237     28.219  25.012298     5.4404      6.750   353.8669 8.8624e+00     1.0338      4.440      6.440    19.0844   998.4251 0.0000e+00
      4.532      0.011     4.2105     45.735     28.179  25.008251     5.3274      6.750   353.8290 8.8419e+00     0.9852      4.445      6.447    19.1326   998.4156 0.0000e+00
      4.535      0.014     4.2679     46.393     28.125  24.981348     5.1069      6.750   353.6933 8.8110e+00     0.8935      4.449      6.452    19.1970   998.4028 0.0000e+00
      4.537      0.017     4.3348     47.125     28.076  24.940803     4.9779      6.749   353.6886 8.7819e+00     0.8421      4.448      6.451    19.2578   998.3907 0.0000e+00
      4.542      0.019     4.3987     47.781     28.054  24.898645     4.9629      6.748   353.8572 8.7364e+00     0.8553      4.452      6.457    19.3083   998.3808 0.0000e+00
      4.550      0.023     4.4518     48.256     27.995  24.788777     4.9861      6.747   354.0972 8.6655e+00     0.8567      4.462      6.472    19.3809   998.3663 0.0000e+00
      4.557      0.029     4.4851     48.451     27.921  24.627299     5.2065      6.746   354.2679 8.6345e+00     0.8584      4.472      6.486    19.4153   998.3594 0.0000e+00
      4.561      0.036     4.4841     48.207     27.965  24.531997     5.6083      6.745   354.3728 8.6185e+00     0.8759      4.472      6.486    19.4266   998.3572 0.0000e+00
      4.567      0.042     4.4425     47.515     28.120  24.524403     5.8293      6.744   354.5058 8.5215e+00     0.8729      4.474      6.490    19.3995   998.3626 0.0000e+00
      4.581      0.046     4.3625     46.482     28.254  24.535291     5.8669      6.741   354.6705 8.3603e+00     0.8541      4.491      6.514    19.2857   998.3853 0.0000e+00
      4.599      0.049     4.2462     45.139     28.328  24.536639     6.0803      6.737   354.8155 8.2128e+00     0.8453      4.511      6.543    19.1280   998.4166 0.0000e+00
      4.615      0.050     4.0970     43.483     28.385  24.540624     6.4677      6.735   354.8829 8.0885e+00     0.8655      4.527      6.565    18.8700   998.4671 0.0000e+00
      4.629      0.050     3.9315     41.659     28.413  24.519981     6.6762      6.735   355.0553 7.9930e+00     0.9014      4.541      6.587    18.5675   998.5256 0.0000e+00
      4.639      0.049     3.7771     39.954     28.418  24.477294     6.6849      6.734   355.4375 7.9447e+00     0.8855      4.551      6.601    18.3848   998.5604 0.0000e+00
      4.646      0.047     3.6504     38.543     28.467  24.468485     6.5810      6.731   355.8031 7.8803e+00     0.8377      4.554      6.605    18.2987   998.5766 0.0000e+00
      4.657      0.045     3.5557     37.479     28.532  24.476845     6.3914      6.728   356.0346 7.7485e+00     0.8481      4.563      6.619    18.2238   998.5908 0.0000e+00
      4.673      0.044     3.4909     36.744     28.547  24.451445     6.2918      6.725   356.1719 7.6046e+00     0.8801      4.583      6.647    18.1490   998.6048 0.0000e+00
      4.688      0.042     3.4479     36.259     28.533  24.415067     6.3129      6.723   356.2588 7.5100e+00     0.8640      4.600      6.672    18.0655   998.6204 0.0000e+00
      4.699      0.039     3.4189     35.951     28.538  24.417581     6.6889      6.721   356.3110 7.4573e+00     0.9156      4.609      6.685    17.9688   998.6383 0.0000e+00
      4.706      0.036     3.3982     35.750     28.524  24.418408     7.3961      6.721   356.4589 7.4144e+00     1.0773      4.615      6.694    17.8843   998.6539 0.0000e+00
      4.712      0.036     3.3845     35.602     28.462  24.361645     7.7976      6.721   356.7562 7.3813e+00     1.1477      4.622      6.703    17.8155   998.6666 0.0000e+00
      4.717      0.039     3.3754     35.455     28.440  24.302177     7.9200      6.722   356.9802 7.3424e+00     1.1114      4.626      6.709    17.7626   998.6762 0.0000e+00
      4.725      0.046     3.3661     35.276     28.477  24.270256     8.8751      6.723   357.1018 7.2461e+00     1.0644      4.630      6.715    17.7615   998.6764 0.0000e+00
      4.738      0.056     3.3550     35.081     28.501  24.229351    10.6249      6.722   357.1940 7.1073e+00     1.0714      4.645      6.737    17.8101   998.6677 0.0000e+00
      4.757      0.065     3.3425     34.884     28.513  24.188118    11.5808      6.721   357.3214 6.9943e+00     1.1300      4.665      6.767    17.8240   998.6652 0.0000e+00
      4.777      0.073     3.3287     34.680     28.527  24.152255    11.6762      6.720   357.5229 6.8846e+00     1.1175      4.684      6.793    17.7381   998.6809 0.0000e+00
      4.797      0.078     3.3127     34.459     28.532  24.112840    11.7267      6.718   357.6514 6.7392e+00     1.0844      4.704      6.821    17.6033   998.7054 0.0000e+00
      4.819      0.078     3.2955     34.230     28.555  24.092116    12.1567      6.716   357.6714 6.6031e+00     1.0900      4.726      6.855    17.4947   998.7251 0.0000e+00
      4.840      0.075     3.2773     33.997     28.599  24.091938    12.9467      6.715   357.5920 6.4902e+00     1.0872      4.747      6.886    17.4091   998.7405 0.0000e+00
      4.860      0.070     3.2585     33.762     28.659  24.110643    13.3802      6.715   357.4659 6.3883e+00     1.0835      4.766      6.913    17.3259   998.7553 0.0000e+00
      4.878      0.064     3.2429     33.566     28.713  24.127933    13.4104      6.714   357.4378 6.3141e+00     1.0785      4.784      6.939    17.2494   998.7689 0.0000e+00
      4.893      0.059     3.2288     33.387     28.724  24.110649    13.2858      6.714   357.5958 6.2622e+00     1.0588      4.801      6.963    17.1795   998.7814 0.0000e+00
      4.906      0.057     3.2083     33.142     28.734  24.091937    13.0520      6.712   357.8284 6.2132e+00     1.0422      4.812      6.979    17.1146   998.7928 0.0000e+00
      4.916      0.057     3.1793     32.807     28.770  24.091956    12.9333      6.708   357.9270 6.1664e+00     1.0415      4.821      6.993    17.0584   998.8027 0.0000e+00
      4.928      0.057     3.1417     32.380     28.832  24.110833    12.9702      6.704   357.9275 6.1027e+00     1.0830      4.831      7.007    17.0106   998.8111 0.0000e+00
      4.944      0.055     3.0945     31.862     28.888  24.129839    13.4542      6.700   357.9192 6.0024e+00     1.1841      4.845      7.027    16.9660   998.8189 0.0000e+00
      4.965      0.050     3.0401     31.287     28.907  24.131413    14.3464      6.698   357.9130 5.8957e+00     1.2807      4.870      7.063    16.9204   998.8269 0.0000e+00
      4.983      0.043     2.9793     30.662     28.902  24.129849    14.8282      6.697   357.9392 5.8393e+00     1.3329      4.892      7.095    16.8690   998.8358 0.0000e+00
      4.993      0.034     2.9154     30.018     28.864  24.110935    14.7886      6.697   357.9782 5.8396e+00     1.3568      4.898      7.104    16.8049   998.8469 0.0000e+00
      4.995      0.027     2.8596     29.458     28.826  24.093048    13.9011      6.697   357.9540 5.8375e+00     1.3400      4.898      7.105    16.7498   998.8564 0.0000e+00
      4.995      0.023     2.8203     29.062     28.829  24.103898    12.2830      6.697   357.9901 5.8063e+00     1.2940      4.897      7.103    16.7272   998.8603 0.0000e+00
      4.996      0.024     2.7988     28.846     28.837  24.115253    11.4107      6.697   358.1566 5.7634e+00     1.2917      4.897      7.103    16.7316   998.8596 0.0000e+00
      5.003      0.029     2.7966     28.818     28.827  24.103487    11.3564      6.696   358.3328 5.7205e+00     1.3125      4.905      7.114    16.7623   998.8543 0.0000e+00
      5.013      0.035     2.8089     28.923     28.834  24.088494    11.6519      6.695   358.5726 5.6777e+00     1.2510      4.916      7.130    16.7919   998.8492 0.0000e+00
      5.024      0.039     2.8255     29.067     28.832  24.060816    12.2183      6.694   358.8188 5.6309e+00     1.1370      4.926      7.144    16.8000   998.8480 0.0000e+00
      5.038      0.041     2.8434     29.235     28.805  24.022537    12.5256      6.693   358.9861 5.5822e+00     1.0810      4.941      7.167    16.8114   998.8461 0.0000e+00
      5.052      0.040     2.8584     29.372     28.804  24.006258    12.5500      6.693   359.1326 5.5495e+00     1.0985      4.958      7.190    16.8191   998.8448 0.0000e+00
      5.060      0.040     2.8624     29.384     28.819  23.990838    12.5912      6.692   359.2131 5.5309e+00     1.1196      4.963      7.198    16.7702   998.8532 0.0000e+00
      5.066      0.039     2.8548     29.265     28.833  23.962925    12.9717      6.691   359.2716 5.4986e+00     1.1715      4.966      7.203    16.7056   998.8642 0.0000e+00
      5.074      0.039     2.8377     29.046     28.833  23.922448    13.6478      6.691   359.4103 5.4486e+00     1.2675      4.976      7.216    16.6956   998.8660 0.0000e+00
      5.085      0.041     2.8109     28.736     28.825  23.881990    14.0128      6.692   359.5132 5.3920e+00     1.3296      4.985      7.231    16.6784   998.8689 0.0000e+00
      5.098      0.045     2.7754     28.346     28.824  23.854309    14.0903      6.691   359.4827 5.3305e+00     1.3653      5.000      7.253    16.6251   998.8781 0.0000e+00
      5.109      0.047     2.7373     27.930     28.840  23.841467    14.6373      6.689   359.3859 5.2589e+00     1.3718      5.012      7.269    16.5533   998.8903 0.0000e+00
      5.120      0.047     2.7009     27.532     28.886  23.853554    15.6315      6.687   359.2898 5.1769e+00     1.3426      5.019      7.280    16.4729   998.9038 0.0000e+00
      5.135      0.043     2.6663     27.160     28.934  23.873551    16.1670      6.686   359.2667 5.0945e+00     1.3080      5.036      7.304    16.4166   998.9133 0.0000e+00
      5.150      0.038     2.6348     26.830     28.968  23.892929    16.2308      6.685   359.2783 5.0418e+00     1.3133      5.052      7.329    16.3765   998.9200 0.0000e+00
      5.160      0.032     2.6079     26.559     28.971  23.897529    16.4727      6.684   359.1713 5.0297e+00     1.3411      5.062      7.342    16.3325   998.9274 0.0000e+00
      5.165      0.027     2.5854     26.336     28.925  23.865747    16.8977      6.684   359.0924 5.0078e+00     1.3167      5.066      7.347    16.2818   998.9359 0.0000e+00
      5.169      0.024     2.5682     26.162     28.874  23.825833    17.1208      6.684   359.1845 4.9626e+00     1.3132      5.070      7.352    16.2422   998.9425 0.0000e+00
      5.171      0.024     2.5591     26.066     28.841  23.795538    17.1936      6.684   359.3393 4.9203e+00     1.3642      5.072      7.356    16.2291   998.9446 0.0000e+00
      5.175      0.029     2.5570     26.034     28.804  23.753176    17.8476      6.684   359.5012 4.8781e+00     1.4092      5.073      7.358    16.2366   998.9434 0.0000e+00
      5.182      0.037     2.5574     26.012     28.766  23.694225    19.0294      6.683   359.5938 4.8187e+00     1.4628      5.080      7.367    16.2536   998.9406 0.0000e+00
      5.192      0.047     2.5577     25.972     28.771  23.653644    19.6650      6.682   359.6842 4.7292e+00     1.5215      5.091      7.383    16.2589   998.9398 0.0000e+00
      5.207      0.055     2.5567     25.910     28.824  23.643051    19.7760      6.682   359.9058 4.6312e+00     1.5617      5.105      7.405    16.2519   998.9411 0.0000e+00
      5.225      0.060     2.5526     25.822     28.868  23.629511    20.3888      6.681   360.1219 4.5349e+00     1.5236      5.124      7.433    16.2386   998.9433 0.0000e+00
      5.244      0.061     2.5411     25.670     28.898  23.616740    21.4989      6.680   360.2316 4.4395e+00     1.4204      5.144      7.460    16.1958   998.9504 0.0000e+00
      5.262      0.059     2.5190     25.425     28.925  23.615458    22.1009      6.680   360.2864 4.3741e+00     1.3296      5.160      7.484    16.1081   998.9650 0.0000e+00
      5.277      0.054     2.4868     25.091     28.935  23.613981    22.1450      6.679   360.2678 4.3292e+00     1.2786      5.176      7.508    16.0034   998.9821 0.0000e+00
      5.289      0.049     2.4473     24.690     28.920  23.598872    22.1368      6.678   360.2645 4.2769e+00     1.2960      5.188      7.525    15.9157   998.9963 0.0000e+00
      5.298      0.045     2.4062     24.265     28.885  23.559650    22.0012      6.677   360.2467 4.2337e+00     1.3760      5.196      7.536    15.8495   999.0070 0.0000e+00
      5.307      0.045     2.3677     23.850     28.875  23.520326    21.7365      6.676   360.2256 4.2049e+00     1.4913      5.205      7.550    15.8079   999.0138 0.0000e+00
      5.317      0.048     2.3315     23.445     28.914  23.503976    21.5892      6.674   360.3522 4.1649e+00     1.5433      5.213      7.562    15.7949   999.0158 0.0000e+00
      5.328      0.053     2.2950     23.034     28.958  23.488771    21.6252      6.674   360.4867 4.1084e+00     1.5131      5.224      7.576    15.8007   999.0149 0.0000e+00
      5.343      0.056     2.2558     22.602     28.983  23.463278    22.1975      6.673   360.5620 4.0480e+00     1.5527      5.240      7.599    15.7949   999.0160 0.0000e+00
      5.361      0.058     2.2034     22.043     29.017  23.449422    23.2552      6.672   360.6607 3.9740e+00     1.6622      5.257      7.625    15.7360   999.0254 0.0000e+00
      5.380      0.058     2.1142     21.123     29.059  23.448054    23.8360      6.671   360.8195 3.8920e+00     1.7225      5.277      7.654    15.6401   999.0408 0.0000e+00
      5.395      0.058     1.9648     19.608     29.097  23.446696    23.8880      6.670   361.0189 3.8383e+00     1.7570      5.293      7.677    15.5497   999.0551 0.0000e+00
      5.407      0.057     1.7498     17.444     29.117  23.432964    23.9876      6.668   361.1789 3.8047e+00     1.7839      5.303      7.692    15.4700   999.0676 0.0000e+00
      5.418      0.054     1.4831     14.769     29.125  23.408853    24.1830      6.664   361.2917 3.7594e+00     1.7856      5.312      7.705    15.3989   999.0788 0.0000e+00
      5.432      0.051     1.1805     11.744     29.159  23.408866    24.2915      6.664   361.3503 3.7056e+00     1.7779      5.326      7.724    15.3383   999.0882 0.0000e+00
      5.448      0.049     0.8614      8.564     29.212  23.433088    24.2927      6.664   361.2849 3.6581e+00     1.7554      5.345      7.751    15.2875   999.0962 0.0000e+00
      5.462      0.048     0.5523      5.489     29.241  23.447959    24.1883      6.663   361.1895 3.6076e+00     1.8092      5.358      7.772    15.2350   999.1044 0.0000e+00
      5.473      0.045     0.2796      2.779     29.261  23.461797    24.0008      6.662   361.1434 3.5561e+00     1.9367      5.367      7.785    15.1809   999.1126 0.0000e+00
      5.483      0.042     0.0655      0.652     29.275  23.473538    23.8992      6.662   361.0718 3.5159e+00     1.9858      5.377      7.799    15.1312   999.1203 0.0000e+00
      5.492      0.040    -0.0824     -0.818     29.261  23.463056    23.8863      6.662   360.9254 3.4786e+00     1.9777      5.386      7.813    15.0974   999.1255 0.0000e+00
      5.502      0.039    -0.1675     -1.664     29.260  23.461924    23.8971      6.663   360.8368 3.4413e+00     1.9697      5.396      7.826    15.0873   999.1270 0.0000e+00
      5.512      0.039    -0.1936     -1.924     29.259  23.459859    24.0379      6.664   360.9465 3.4042e+00     1.9878      5.404      7.838    15.0854   999.1274 0.0000e+00
      5.522      0.040    -0.1703     -1.692     29.237  23.438074    24.2971      6.664   361.0470 3.3711e+00     2.0323      5.414      7.853    15.0875   999.1272 0.0000e+00
      5.532      0.041    -0.1128     -1.120     29.271  23.452252    24.4305      6.663   361.0199 3.3329e+00     2.0486      5.427      7.870    15.0904   999.1267 0.0000e+00
      5.542      0.044    -0.0355     -0.353     29.362  23.504397    24.3936      6.662   360.9624 3.2858e+00     2.0546      5.435      7.883    15.0888   999.1270 0.0000e+00
      5.552      0.047     0.0503      0.497     29.466  23.561076    24.0241      6.662   360.9544 3.2395e+00     2.0389      5.442      7.894    15.0856   999.1276 0.0000e+00
      5.564      0.049     0.1308      1.293     29.605  23.630053    23.3616      6.662   361.0097 3.1926e+00     2.0219      5.455      7.912    15.0855   999.1275 0.0000e+00
      5.579      0.052     0.1939      1.914     29.771  23.704009    22.9903      6.661   361.0281 3.1410e+00     2.0459      5.471      7.935    15.0635   999.1310 0.0000e+00
      5.593      0.054     0.2358      2.323     29.915  23.757435    22.9329      6.660   361.0913 3.0818e+00     2.0673      5.485      7.955    15.0209   999.1376 0.0000e+00
      5.607      0.055     0.2545      2.503     29.995  23.768482    22.8764      6.658   361.2571 3.0408e+00     2.1167      5.499      7.975    14.9871   999.1427 0.0000e+00
      5.621      0.054     0.2515      2.469     30.058  23.774085    22.8104      6.656   361.3125 3.0074e+00     2.2173      5.512      7.994    14.9202   999.1529 0.0000e+00
      5.635      0.054     0.2331      2.285     30.169  23.825125    22.7846      6.654   361.2447 2.9389e+00     2.2353      5.526      8.015    14.8064   999.1700 0.0000e+00
      5.650      0.055     0.2061      2.018     30.278  23.878095    22.8510      6.653   361.2118 2.8629e+00     2.1702      5.543      8.039    14.6989   999.1860 0.0000e+00
      5.662      0.057     0.1753      1.714     30.360  23.907030    23.7342      6.651   361.1727 2.8068e+00     2.2491      5.553      8.055    14.6134   999.1986 0.0000e+00
      5.674      0.059     0.1484      1.449     30.431  23.921188    25.3746      6.649   361.0301 2.7512e+00     2.4687      5.560      8.065    14.5384   999.2096 0.0000e+00
      5.689      0.059     0.1304      1.272     30.486  23.922368    26.2639      6.647   360.9509 2.6964e+00     2.5969      5.578      8.090    14.4788   999.2183 0.0000e+00
      5.709      0.058     0.1182      1.151     30.531  23.921242    26.3282      6.644   360.9893 2.6551e+00     2.6187      5.599      8.121    14.4310   999.2253 0.0000e+00
      5.726      0.054     0.1109      1.079     30.551  23.907532    26.2645      6.640   360.8908 2.6183e+00     2.7325      5.617      8.147    14.3739   999.2337 0.0000e+00
      5.741      0.049     0.1097      1.067     30.546  23.883435    26.1435      6.638   360.7077 2.5803e+00     2.9560      5.631      8.167    14.3003   999.2443 0.0000e+00
      5.753      0.040     0.1131      1.099     30.560  23.883598    26.0800      6.638   360.5821 2.5548e+00     3.0926      5.644      8.185    14.2286   999.2546 0.0000e+00
      5.761      0.032     0.1162      1.130     30.594  23.909498    26.0684      6.637   360.5764 2.5328e+00     3.1066      5.651      8.196    14.1692   999.2631 0.0000e+00
      5.765      0.029     0.1181      1.148     30.624  23.942840    26.0121      6.636   360.7244 2.5092e+00     3.0921      5.653      8.199    14.1180   999.2703 0.0000e+00
      5.769      0.033     0.1214      1.181     30.724  24.033017    25.5295      6.634   360.8229 2.5039e+00     3.0817      5.658      8.206    14.0848   999.2748 0.0000e+00
      5.773      0.040     0.1244      1.210     30.913  24.175187    24.6545      6.633   360.7358 2.4945e+00     3.0794      5.662      8.212    14.0655   999.2775 0.0000e+00
      5.781      0.049     0.1276      1.240     31.076  24.266218    24.1547      6.631   360.5318 2.4396e+00     3.0965      5.666      8.217    14.0674   999.2773 0.0000e+00
      5.799      0.057     0.1328      1.288     31.190  24.308967    23.9769      6.629   360.4211 2.3597e+00     3.0917      5.685      8.245    14.0855   999.2749 0.0000e+00
      5.823      0.063     0.1354      1.312     31.397  24.438259    22.6003      6.629   360.4292 2.3109e+00     3.1205      5.712      8.285    14.1164   999.2708 0.0000e+00
      5.843      0.066     0.1337      1.295     31.820  24.751022    20.0823      6.628   360.3721 2.2839e+00     3.2485      5.732      8.312    14.1260   999.2695 0.0000e+00
      5.859      0.065     0.1329      1.287     32.287  25.109003    18.7092      6.627   360.2476 2.2416e+00     3.3276      5.746      8.333    14.0453   999.2809 0.0000e+00
      5.873      0.061     0.1353      1.309     32.833  25.531271    18.5779      6.625   360.0419 2.2001e+00     3.3236      5.760      8.353    13.9516   999.2940 0.0000e+00
      5.888      0.057     0.1370      1.324     33.764  26.240573    18.3827      6.624   359.8637 2.1694e+00     3.3963      5.774      8.374    13.9080   999.3001 0.0000e+00
      5.902      0.055     0.1371      1.324     34.739  26.960340    18.0311      6.623   359.9854 2.1415e+00     3.5840      5.789      8.395    13.8826   999.3039 0.0000e+00
      5.915      0.056     0.1366      1.317     35.360  27.382088    17.8550      6.623   360.3089 2.1182e+00     3.7250      5.800      8.412    13.8789   999.3046 0.0000e+00
      5.928      0.058     0.1375      1.322     35.735  27.596612    17.9091      6.621   360.5919 2.0863e+00     3.7575      5.812      8.430    13.8838   999.3040 0.0000e+00
      5.942      0.063     0.1405      1.348     35.912  27.650674    18.6773      6.617   360.7401 2.0423e+00     3.8459      5.826      8.450    13.8679   999.3067 0.0000e+00
      5.957      0.068     0.1424      1.363     35.940  27.591531    20.1032      6.610   360.6385 1.9979e+00     4.0395      5.840      8.471    13.8138   999.3146 0.0000e+00
      5.975      0.073     0.1413      1.350     35.927  27.515887    20.8790      6.604   359.6209 1.9480e+00     4.1985      5.858      8.497    13.7216   999.3274 0.0000e+00
      5.995      0.073     0.1387      1.324     35.873  27.433902    20.9295      6.600   357.2126 1.8851e+00     4.2605      5.878      8.525    13.6150   999.3420 0.0000e+00
      6.019      0.069     0.1352      1.290     35.803  27.361549    20.6969      6.596   354.6639 1.8232e+00     4.1337      5.901      8.560    13.4940   999.3583 0.0000e+00
      6.041      0.063     0.1308      1.247     35.782  27.338957    20.2603      6.594   353.1542 1.7793e+00     3.8780      5.928      8.598    13.3743   999.3742 0.0000e+00
      6.056      0.055     0.1269      1.209     35.887  27.414517    20.0290      6.592   351.9509 1.7504e+00     3.7580      5.942      8.618    13.2772   999.3869 0.0000e+00
      6.065      0.048     0.1235      1.177     36.123  27.577238    20.0069      6.591   350.3531 1.7384e+00     3.7637      5.947      8.625    13.2212   999.3941 0.0000e+00
      6.073      0.042     0.1203      1.146     36.267  27.656791    19.9154      6.591   348.8922 1.7343e+00     3.7498      5.955      8.637    13.2027   999.3967 0.0000e+00
      6.080      0.039     0.1193      1.136     36.166  27.551551    18.8789      6.591   347.1940 1.7242e+00     3.6562      5.962      8.647    13.1961   999.3976 0.0000e+00
      6.089      0.039     0.1211      1.152     35.956  27.383335    16.9777      6.590   343.4141 1.7085e+00     3.5492      5.970      8.659    13.2013   999.3969 0.0000e+00
      6.101      0.041     0.1226      1.166     35.796  27.272494    15.9318      6.589   337.1759 1.6872e+00     3.5381      5.983      8.677    13.1776   999.4001 0.0000e+00
      6.113      0.044     0.1221      1.162     35.807  27.289974    15.7788      6.587   328.2954 1.6591e+00     3.5544      5.996      8.696    13.1236   999.4071 0.0000e+00
      6.123      0.047     0.1209      1.150     36.233  27.594698    15.1973      6.584   317.3482 1.6275e+00     3.4853      6.005      8.709    13.0772   999.4130 0.0000e+00
      6.134      0.052     0.1202      1.141     37.057  28.165217    14.1460      6.582   308.4909 1.6018e+00     3.3575      6.014      8.723    13.0610   999.4151 0.0000e+00
      6.146      0.057     0.1203      1.140     37.823  28.668083    13.5759      6.580   303.1983 1.5776e+00     3.2874      6.027      8.741    13.0920   999.4111 0.0000e+00
      6.161      0.061     0.1192      1.128     38.256  28.916091    13.6271      6.576   298.2682 1.5456e+00     3.2924      6.040      8.760    13.1216   999.4073 0.0000e+00
      6.180      0.063     0.1172      1.106     38.546  29.069929    14.7656      6.574   291.1272 1.5068e+00     3.1892      6.058      8.787    13.0959   999.4109 0.0000e+00
      6.200      0.065     0.1171      1.103     38.945  29.322490    16.8502      6.572   283.2789 1.4727e+00     2.9562      6.082      8.822    13.0139   999.4218 0.0000e+00
      6.218      0.065     0.1196      1.125     39.401  29.622023    17.9802      6.569   277.8855 1.4514e+00     2.8352      6.101      8.848    12.8946   999.4372 0.0000e+00
      6.231      0.064     0.1220      1.146     39.754  29.836167    18.0507      6.565   274.4426 1.4280e+00     2.8405      6.111      8.863    12.7806   999.4516 0.0000e+00
      6.244      0.061     0.1223      1.147     39.971  29.944586    17.7471      6.562   270.8180 1.3917e+00     2.8567      6.122      8.879    12.6965   999.4621 0.0000e+00
      6.262      0.059     0.1223      1.145     40.083  29.981040    17.1788      6.559   266.6692 1.3610e+00     2.8668      6.141      8.907    12.6404   999.4691 0.0000e+00
      6.279      0.059     0.1218      1.140     40.188  30.023063    16.8573      6.556   262.6533 1.3379e+00     2.8644      6.161      8.935    12.5937   999.4751 0.0000e+00
      6.292      0.059     0.1192      1.115     40.292  30.071913    16.6780      6.552   259.4314 1.3046e+00     2.8606      6.171      8.949    12.5258   999.4835 0.0000e+00
      6.306      0.058     0.1167      1.090     40.312  30.064023    15.0631      6.549   257.1399 1.2646e+00     2.7880      6.182      8.966    12.4498   999.4927 0.0000e+00
      6.322      0.055     0.1155      1.078     40.328  30.054549    12.1223      6.547   255.4235 1.2358e+00     2.6423      6.201      8.993    12.3920   999.4998 0.0000e+00
      6.337      0.054     0.1126      1.051     40.400  30.084250    10.5208      6.545   253.8206 1.2202e+00     2.5418      6.216      9.016    12.3464   999.5053 0.0000e+00
      6.350      0.054     0.1101      1.026     40.546  30.169287    10.3608      6.542   251.8703 1.2019e+00     2.4901      6.227      9.032    12.3103   999.5096 0.0000e+00
      6.362      0.058     0.1096      1.021     40.868  30.384693    10.2480      6.537   249.6537 1.1850e+00     2.4425      6.239      9.049    12.2869   999.5125 0.0000e+00
      6.374      0.064     0.1098      1.022     41.279  30.658119     9.2700      6.531   247.6688 1.1710e+00     2.2611      6.251      9.068    12.2620   999.5154 0.0000e+00
      6.387      0.070     0.1110      1.032     41.540  30.810099     7.4829      6.526   246.0250 1.1280e+00     1.9677      6.262      9.083    12.2296   999.5193 0.0000e+00
      6.406      0.074     0.1124      1.044     41.624  30.826180     6.5004      6.521   244.0616 1.0621e+00     1.8456      6.279      9.106    12.2006   999.5228 0.0000e+00
      6.432      0.074     0.1124      1.043     41.711  30.852505     6.3725      6.517   240.9653 1.0099e+00     1.8335      6.308      9.149    12.1755   999.5260 0.0000e+00
      6.461      0.072     0.1106      1.025     42.034  31.064889     5.9539      6.514   237.1521 9.8076e-01     1.7554      6.340      9.195    12.1389   999.5306 0.0000e+00
      6.481      0.069     0.1079      1.000     42.808  31.617265     5.1936      6.513   233.7493 9.6992e-01     1.6554      6.359      9.223    12.0840   999.5371 0.0000e+00
      6.491      0.064     0.1058      0.980     44.230  32.644898     4.7660      6.511   230.9688 9.5817e-01     1.5744      6.367      9.235    12.0235   999.5441 0.0000e+00
      6.499      0.059     0.1054      0.975     45.992  33.907165     4.7026      6.509   228.3987 9.4019e-01     1.5309      6.372      9.241    11.9743   999.5497 0.0000e+00
      6.512      0.056     0.1065      0.983     47.396  34.884450     4.5745      6.506   225.8197 9.2302e-01     1.5227      6.383      9.258    11.9451   999.5532 0.0000e+00
      6.530      0.056     0.1073      0.988     48.513  35.639196     4.3533      6.503   223.1887 8.9637e-01     1.5408      6.404      9.289    11.9285   999.5554 0.0000e+00
      6.549      0.058     0.1078      0.992     49.934  36.622109     4.2298      6.501   220.5060 8.6694e-01     1.5859      6.424      9.317    11.9074   999.5584 0.0000e+00
      6.564      0.062     0.1089      1.002     51.459  37.691893     4.2253      6.498   217.8190 8.4815e-01     1.6089      6.437      9.337    11.8680   999.5636 0.0000e+00
      6.576      0.065     0.1103      1.014     52.594  38.481084     4.3165      6.495   215.2206 8.3097e-01     1.5898      6.448      9.353    11.8043   999.5713 0.0000e+00
      6.589      0.067     0.1120      1.029     53.688  39.244912     4.4920      6.490   212.5785 8.1246e-01     1.5834      6.459      9.368    11.7260   999.5803 0.0000e+00
      6.606      0.070     0.1129      1.037     54.511  39.817160     4.5946      6.484   209.9647 7.9496e-01     1.5973      6.476      9.393    11.6624   999.5878 0.0000e+00
      6.628      0.072     0.1106      1.015     54.458  39.750012     4.5776      6.477   207.5361 7.7599e-01     1.5938      6.500      9.428    11.6206   999.5932 0.0000e+00
      6.650      0.072     0.1073      0.983     53.833  39.258338     4.2086      6.470   205.0678 7.5279e-01     1.6063      6.522      9.460    11.5798   999.5980 0.0000e+00
      6.671      0.070     0.1063      0.974     52.939  38.570129     3.5228      6.464   202.7489 7.3324e-01     1.6838      6.542      9.489    11.5430   999.6025 0.0000e+00
      6.689      0.065     0.1060      0.971     52.159  37.967547     3.1526      6.457   201.0090 7.2149e-01     1.7768      6.562      9.519    11.5195   999.6056 0.0000e+00
      6.703      0.059     0.1049      0.960     51.728  37.622327     3.1225      6.451   199.6037 7.0810e-01     1.8138      6.576      9.537    11.4965   999.6080 0.0000e+00
      6.713      0.052     0.1029      0.942     51.418  37.379573     3.1072      6.446   197.8886 6.9345e-01     1.8024      6.582      9.545    11.4604   999.6117 0.0000e+00
      6.726      0.045     0.1003      0.917     51.137  37.190662     3.0193      6.441   195.5011 6.7138e-01     1.7375      6.594      9.563    11.4251   999.6152 0.0000e+00
      6.741      0.039     0.0983      0.899     50.974  37.115594     2.8580      6.437   192.6764 6.4731e-01     1.6512      6.612      9.589    11.3939   999.6182 0.0000e+00
      6.752      0.035     0.0977      0.894     50.993  37.170222     2.7603      6.433   189.8918 6.4795e-01     1.6113      6.624      9.608    11.3587   999.6219 0.0000e+00
      6.758      0.032     0.0977      0.895     51.218  37.343400     2.7314      6.429   187.3008 6.6278e-01     1.5831      6.628      9.614    11.3323   999.6247 0.0000e+00
      6.762      0.028     0.0972      0.890     51.642  37.622550     2.6041      6.426   185.0088 6.6196e-01     1.6051      6.630      9.617    11.3488   999.6228 0.0000e+00
      6.767      0.027     0.0970      0.887     52.231  38.006261     2.3822      6.424   183.0008 6.5493e-01     1.6807      6.635      9.623    11.4054   999.6167 0.0000e+00
      6.774      0.029     0.0973      0.890     52.957  38.491419     2.2601      6.422   181.0050 6.5200e-01     1.7105      6.643      9.635    11.4557   999.6114 0.0000e+00
      6.782      0.038     0.0974      0.890     54.230  39.362305     2.2539      6.418   179.2045 6.4509e-01     1.7360      6.651      9.647    11.4707   999.6099 0.0000e+00
      6.790      0.051     0.0973      0.888     56.123  40.664034     2.3243      6.412   177.8370 6.3787e-01     1.8255      6.658      9.657    11.4280   999.6147 0.0000e+00
      6.800      0.065     0.0965      0.878     57.706  41.723710     2.4435      6.407   176.6020 6.3148e-01     1.9409      6.665      9.667    11.3754   999.6206 0.0000e+00
      6.817      0.076     0.0955      0.867     58.686  42.333994     2.4992      6.402   175.1986 6.2067e-01     2.0165      6.681      9.690    11.3451   999.6240 0.0000e+00
      6.843      0.086     0.0966      0.876     59.419  42.772997     2.4866      6.398   173.4297 6.0801e-01     2.0514      6.709      9.731    11.2954   999.6297 0.0000e+00
      6.873      0.093     0.0988      0.895     59.968  43.094943     2.3256      6.394   170.9602 5.9686e-01     2.1009      6.741      9.777    11.2308   999.6375 0.0000e+00
      6.900      0.095     0.1019      0.923     60.259  43.242288     2.0269      6.388   167.9678 5.8329e-01     2.1559      6.768      9.817    11.1546   999.6461 0.0000e+00
      6.925      0.091     0.1056      0.954     60.309  43.221066     1.8572      6.382   165.1262 5.7009e-01     2.1921      6.792      9.851    11.0623   999.6559 0.0000e+00
      6.946      0.083     0.1057      0.954     60.293  43.155765     1.8340      6.377   162.5863 5.6024e-01     2.2106      6.812      9.880    10.9839   999.6643 0.0000e+00
      6.966      0.073     0.1052      0.949     60.352  43.151138     1.8162      6.374   160.3167 5.4814e-01     2.1829      6.831      9.908    10.9262   999.6704 0.0000e+00
      6.984      0.065     0.1061      0.956     60.512  43.228568     1.7890      6.370   158.3338 5.3754e-01     2.1193      6.851      9.937    10.8761   999.6756 0.0000e+00
      6.999      0.059     0.1054      0.949     60.780  43.393463     1.7740      6.367   156.5077 5.3443e-01     2.0647      6.865      9.957    10.8299   999.6802 0.0000e+00
      7.011      0.054     0.1032      0.929     61.213  43.684424     1.7730      6.364   154.6706 5.3225e-01     2.0469      6.874      9.971    10.7842   999.6848 0.0000e+00
      7.023      0.052     0.1012      0.910     61.696  44.016159     1.7770      6.361   152.7275 5.2960e-01     2.0354      6.887      9.989    10.7436   999.6889 0.0000e+00
      7.036      0.056     0.1004      0.903     62.281  44.420032     1.8230      6.357   150.9103 5.3219e-01     2.0241      6.901     10.009    10.7134   999.6919 0.0000e+00
      7.048      0.064     0.0990      0.890     63.236  45.075127     1.9042      6.351   149.4766 5.3287e-01     2.0418      6.912     10.025    10.6916   999.6941 0.0000e+00
      7.061      0.072     0.0971      0.873     64.198  45.713717     1.9437      6.345   148.2131 5.2606e-01     2.0519      6.922     10.040    10.6783   999.6957 0.0000e+00
      7.081      0.077     0.0974      0.874     65.282  46.425931     1.9363      6.340   146.5593 5.1221e-01     2.0487      6.939     10.064    10.6686   999.6968 0.0000e+00
      7.108      0.081     0.0979      0.878     67.530  47.970848     1.8320      6.335   144.3656 4.9554e-01     2.0356      6.970     10.109    10.6614   999.6978 0.0000e+00
      7.136      0.082     0.0961      0.861     69.961  49.658666     1.6360      6.331   142.2526 4.8239e-01     2.0251      7.002     10.155    10.6466   999.6998 0.0000e+00
      7.157      0.081     0.0947      0.848     71.383  50.637478     1.5264      6.328   140.8007 4.6996e-01     2.0520      7.021     10.183    10.6050   999.7044 0.0000e+00
      7.173      0.077     0.0963      0.862     72.352  51.294346     1.5215      6.325   139.7171 4.5575e-01     2.0655      7.034     10.201    10.5528   999.7095 0.0000e+00
      7.189      0.073     0.0991      0.886     73.054  51.756876     1.5160      6.322   138.2709 4.4254e-01     2.0246      7.049     10.222    10.5117   999.7144 0.0000e+00
      7.207      0.070     0.0996      0.891     74.586  52.799759     1.4862      6.317   136.3067 4.3377e-01     1.9836      7.069     10.251    10.4854   999.7182 0.0000e+00
      7.226      0.070     0.0975      0.872     77.412  54.755862     1.4644      6.311   134.2085 4.2305e-01     1.9956      7.087     10.278    10.4672   999.7201 0.0000e+00
      7.244      0.070     0.0950      0.849     79.991  56.539592     1.4597      6.305   132.2600 4.1176e-01     2.0062      7.103     10.303    10.4467   999.7227 0.0000e+00
      7.264      0.069     0.0947      0.846     81.441  57.530139     1.4475      6.300   130.3853 4.0318e-01     1.9481      7.124     10.332    10.4233   999.7250 0.0000e+00
      7.282      0.069     0.0946      0.844     82.005  57.900631     1.4209      6.295   128.2341 3.8780e-01     1.8499      7.142     10.358    10.3943   999.7282 0.0000e+00
      7.298      0.070     0.0926      0.825     82.495  58.223350     1.3986      6.290   125.9535 3.7350e-01     1.7704      7.157     10.381    10.3631   999.7326 0.0000e+00
      7.314      0.072     0.0909      0.810     83.475  58.890334     1.3938      6.284   124.0624 3.6533e-01     1.7396      7.172     10.402    10.3371   999.7360 0.0000e+00
      7.330      0.075     0.0917      0.817     84.377  59.483479     1.3801      6.277   122.4905 3.5346e-01     1.7724      7.187     10.424    10.3168   999.7384 0.0000e+00
      7.349      0.078     0.0950      0.846     84.382  59.421682     1.3549      6.271   120.8860 3.4092e-01     1.8393      7.205     10.450    10.2990   999.7402 0.0000e+00
      7.372      0.080     0.0965      0.859     83.933  59.032732     1.3487      6.266   119.2891 3.3266e-01     1.8599      7.229     10.486    10.2860   999.7415 0.0000e+00
      7.397      0.080     0.0950      0.845     83.953  58.974712     1.3569      6.261   117.8093 3.2600e-01     1.8258      7.255     10.523    10.2767   999.7430 0.0000e+00
      7.417      0.078     0.0934      0.830     84.230  59.101392     1.4280      6.255   116.4161 3.1560e-01     1.7876      7.274     10.550    10.2522   999.7458 0.0000e+00
      7.437      0.074     0.0924      0.820     84.221  59.039237     1.5585      6.249   115.0055 2.9600e-01     1.7915      7.294     10.577    10.2077   999.7498 0.0000e+00
      7.455      0.068     0.0916      0.812     84.014  58.858604     1.6256      6.245   113.4869 2.8325e-01     1.8068      7.313     10.606    10.1629   999.7536 0.0000e+00
      7.471      0.063     0.0909      0.805     83.798  58.696609     1.6322      6.241   112.0802 2.8740e-01     1.8093      7.327     10.627    10.1210   999.7575 0.0000e+00
      7.486      0.059     0.0902      0.800     83.563  58.542097     1.6212      6.239   110.8170 2.8339e-01     1.8212      7.341     10.648    10.0787   999.7616 0.0000e+00
      7.500      0.057     0.0899      0.797     83.489  58.515486     1.4405      6.237   109.5705 2.6962e-01     1.8520      7.356     10.669    10.0434   999.7648 0.0000e+00
      7.513      0.057     0.0897      0.796     83.790  58.756134     1.1040      6.235   108.4530 2.6418e-01     1.9205      7.367     10.686    10.0208   999.7667 0.0000e+00
      7.527      0.057     0.0888      0.787     84.191  59.037096     0.9161      6.232   107.3716 2.5945e-01     1.9603      7.380     10.704    10.0161   999.7672 0.0000e+00
      7.542      0.058     0.0888      0.787     84.474  59.180137     0.9027      6.229   106.3039 2.5030e-01     1.9727      7.395     10.726    10.0239   999.7665 0.0000e+00
      7.559      0.061     0.0895      0.792     84.563  59.151106     0.9154      6.227   105.2654 2.3926e-01     1.9391      7.412     10.751    10.0378   999.7652 0.0000e+00
      7.574      0.066     0.0901      0.797     84.678  59.130809     0.9225      6.225   104.0210 2.2509e-01     1.8168      7.430     10.775    10.0646   999.7631 0.0000e+00
      7.588      0.071     0.0910      0.804     85.276  59.442988     0.9193      6.223   102.7020 2.1762e-01     1.7396      7.440     10.790    10.0749   999.7624 0.0000e+00
      7.604      0.075     0.0918      0.810     86.135  59.938810     0.9115      6.221   101.6200 2.2146e-01     1.7262      7.453     10.811    10.0333   999.7663 0.0000e+00
      7.627      0.078     0.0923      0.813     86.863  60.359555     0.9061      6.219   100.8338 2.2137e-01     1.6872      7.479     10.847     9.9714   999.7719 0.0000e+00
      7.652      0.080     0.0924      0.814     87.562  60.780687     0.9151      6.217   100.1656 2.1456e-01     1.6294      7.505     10.886     9.9145   999.7768 0.0000e+00
      7.675      0.081     0.0935      0.822     88.361  61.281116     0.9249      6.216    99.4774 2.0430e-01     1.5841      7.528     10.919     9.8514   999.7827 0.0000e+00
      7.695      0.079     0.0946      0.831     89.148  61.770830     0.9203      6.216    98.7935 1.8484e-01     1.5646      7.547     10.947     9.7869   999.7888 0.0000e+00
      7.712      0.074     0.0952      0.836     89.836  62.189414     0.8948      6.215    97.9190 1.7149e-01     1.5578      7.562     10.967     9.7370   999.7933 0.0000e+00
      7.730      0.069     0.0956      0.839     90.496  62.592372     0.8588      6.214    96.7349 1.7644e-01     1.5680      7.580     10.993     9.7031   999.7964 0.0000e+00
      7.749      0.065     0.0953      0.836     91.182  63.020179     0.8492      6.213    95.4889 1.8620e-01     1.5891      7.600     11.023     9.6754   999.7991 0.0000e+00
      7.766      0.064     0.0962      0.843     91.823  63.421351     0.8561      6.211    94.2963 1.8221e-01     1.5837      7.617     11.047     9.6439   999.8021 0.0000e+00
      7.780      0.064     0.0973      0.852     92.368  63.756449     0.8218      6.210    92.9839 1.6321e-01     1.5682      7.629     11.065     9.6093   999.8053 0.0000e+00
      7.794      0.065     0.0970      0.849     92.900  64.084446     0.7634      6.209    91.5809 1.5646e-01     1.5667      7.642     11.084     9.5789   999.8081 0.0000e+00
      7.809      0.069     0.0957      0.837     93.504  64.463271     0.7395      6.207    90.2393 1.6587e-01     1.5643      7.657     11.106     9.5545   999.8105 0.0000e+00
      7.827      0.075     0.0937      0.819     94.198  64.904380     0.7323      6.204    88.8087 1.6128e-01     1.5391      7.675     11.132     9.5324   999.8126 0.0000e+00
      7.847      0.083     0.0920      0.803     94.900  65.349726     0.7198      6.200    87.3611 1.4345e-01     1.5901      7.694     11.159     9.5096   999.8147 0.0000e+00
      7.869      0.091     0.0903      0.788     95.394  65.652578     0.7017      6.198    86.4163 1.3101e-01     1.7228      7.716     11.192     9.4880   999.8167 0.0000e+00
      7.894      0.096     0.0886      0.773     95.709  65.832763     0.6859      6.196    85.9036 1.2846e-01     1.7664      7.741     11.228     9.4687   999.8187 0.0000e+00
      7.921      0.098     0.0864      0.754     96.013  66.002668     0.6851      6.194    85.3776 1.2979e-01     1.7567      7.767     11.265     9.4493   999.8206 0.0000e+00
      7.949      0.095     0.0844      0.737     96.236  66.117659     0.6832      6.192    84.8747 1.2686e-01     1.7702      7.796     11.306     9.4285   999.8227 0.0000e+00
      7.976      0.088     0.0842      0.734     96.413  66.205990     0.6547      6.190    84.2971 1.2382e-01     1.7984      7.824     11.347     9.4091   999.8246 0.0000e+00
      7.999      0.080     0.0860      0.750     96.692  66.371386     0.6091      6.189    83.4698 1.2352e-01     1.8357      7.847     11.380     9.3904   999.8262 0.0000e+00
      8.018      0.070     0.0878      0.765     96.944  66.528195     0.5821      6.189    82.6150 1.2352e-01     1.8273      7.864     11.406     9.3697   999.8281 0.0000e+00
      8.032      0.059     0.0873      0.761     97.025  66.576269     0.5714      6.189    81.8784 1.2355e-01     1.7628      7.877     11.426     9.3491   999.8299 0.0000e+00
      8.044      0.048     0.0860      0.750     97.120  66.634798     0.5840      6.189    81.1027 1.2359e-01     1.6458      7.886     11.439     9.3310   999.8314 0.0000e+00
      8.058      0.038     0.0855      0.745     97.170  66.663719     0.6132      6.188    80.2044 1.2361e-01     1.5590      7.902     11.461     9.3167   999.8327 0.0000e+00
      8.068      0.029     0.0846      0.737     96.905  66.480959     0.6202      6.186    79.3634 1.2362e-01     1.5655      7.916     11.481     9.3084   999.8336 0.0000e+00
      8.073      0.022     0.0827      0.721     96.681  66.332137     0.6173      6.186    78.5919 1.2362e-01     1.5613      7.917     11.483     9.3066   999.8337 0.0000e+00
      8.075      0.015     0.0805      0.702     96.663  66.326435     0.6133      6.186    77.7597 1.2360e-01     1.5408      7.919     11.485     9.3040   999.8339 0.0000e+00
      8.077      0.010     0.0802      0.699     96.501  66.221316     0.5971      6.186    76.8731 1.2360e-01     1.5473      7.922     11.489     9.2989   999.8344 0.0000e+00
      8.078      0.007     0.0811      0.707     96.279  66.078258     0.5773      6.187    75.9591 1.2358e-01     1.5406      7.921     11.488     9.2994   999.8342 0.0000e+00
      8.079      0.005     0.0807      0.704     95.946  65.868110     0.5643      6.188    74.9679 1.2356e-01     1.5253      7.923     11.491     9.3018   999.8339 0.0000e+00
      8.081      0.004     0.0814      0.710     95.391  65.523908     0.5620      6.189    73.7504 1.2359e-01     1.5262      7.926     11.495     9.3067   999.8336 0.0000e+00
      8.083      0.004     0.0843      0.735     94.949  65.285620     0.5669      6.189    72.5108 1.2365e-01     1.5517      7.926     11.496     9.3079   999.8334 0.0000e+00
      8.084      0.005     0.0868      0.758     94.907  65.339017     0.5721      6.189    71.6809 1.2370e-01     1.5722      7.928     11.498     9.3122   999.8330 0.0000e+00
      8.084      0.006     0.0872      0.763     95.105  65.533945     0.5810      6.189    71.2018 1.2367e-01     1.5443      7.929     11.499     9.3210   999.8323 0.0000e+00
      8.083      0.008     0.0855      0.748     95.005  65.481285     0.7100      6.190    70.7615 1.2359e-01     1.5753      7.926     11.495     9.3359   999.8308 0.0000e+00
      8.084      0.011     0.0832      0.728     94.603  65.210870     0.9523      6.192    70.0569 1.2356e-01     1.7173      7.925     11.495     9.3719   999.8277 0.0000e+00
      8.090      0.018     0.0809      0.709     94.637  65.251973     1.0828      6.192    69.2219 1.2362e-01     1.8189      7.933     11.506     9.4252   999.8235 0.0000e+00
      8.096      0.030     0.0780      0.683     95.229  65.660421     1.0916      6.192    68.6666 1.2365e-01     1.8214      7.942     11.518     9.4638   999.8207 0.0000e+00
      8.099      0.047     0.0753      0.659     95.980  66.144708     0.9802      6.191    68.1612 1.2364e-01     1.7796      7.941     11.517     9.4601   999.8209 0.0000e+00
      8.105      0.063     0.0751      0.657     96.898  66.721246     0.7506      6.191    67.4999 1.2365e-01     1.7400      7.943     11.521     9.4577   999.8208 0.0000e+00
      8.124      0.076     0.0777      0.679     97.560  67.100700     0.6225      6.190    66.9512 1.2365e-01     1.7350      7.962     11.547     9.4771   999.8194 0.0000e+00
      8.155      0.086     0.0811      0.707     97.696  67.109096     0.6181      6.188    66.5171 1.2364e-01     1.7517      7.997     11.599     9.4820   999.8195 0.0000e+00
      8.187      0.090     0.0837      0.730     97.738  67.076953     0.6281      6.187    65.9515 1.2359e-01     1.7455      8.031     11.650     9.4567   999.8218 0.0000e+00
      8.214      0.086     0.0847      0.737     97.807  67.093429     0.6484      6.187    65.2741 1.2356e-01     1.7265      8.057     11.685     9.4311   999.8244 0.0000e+00
      8.235      0.075     0.0852      0.742     97.867  67.117568     0.6723      6.188    64.4352 1.2361e-01     1.7509      8.077     11.714     9.3918   999.8280 0.0000e+00
      8.252      0.063     0.0879      0.766     98.348  67.432371     0.6828      6.188    63.3807 1.2364e-01     1.7788      8.094     11.739     9.3365   999.8324 0.0000e+00
      8.263      0.055     0.0897      0.781     99.365  68.102451     0.6798      6.188    62.4181 1.2358e-01     1.7680      8.105     11.755     9.3060   999.8349 0.0000e+00
      8.270      0.052     0.0879      0.765    100.182  68.607758     0.6631      6.188    61.7449 1.2353e-01     1.7182      8.110     11.763     9.2946   999.8359 0.0000e+00
      8.278      0.050     0.0847      0.737    100.442  68.710282     0.6447      6.189    61.1771 1.2356e-01     1.6355      8.115     11.770     9.2877   999.8364 0.0000e+00
      8.292      0.050     0.0811      0.704    100.431  68.642646     0.6398      6.189    60.5436 1.2356e-01     1.5881      8.130     11.791     9.2817   999.8370 0.0000e+00
      8.312      0.050     0.0803      0.697    100.336  68.552829     0.6384      6.188    59.9359 1.2356e-01     1.5706      8.153     11.825     9.2731   999.8383 0.0000e+00
      8.328      0.050     0.0824      0.715    100.193  68.450789     0.6274      6.188    59.3360 1.2357e-01     1.5553      8.170     11.849     9.2447   999.8409 0.0000e+00
      8.338      0.049     0.0828      0.719    100.073  68.362515     0.6110      6.188    58.7107 1.2354e-01     1.5349      8.177     11.859     9.1980   999.8447 0.0000e+00
      8.347      0.049     0.0813      0.706     99.915  68.248417     0.6053      6.188    57.9680 1.2355e-01     1.5203      8.184     11.870     9.1633   999.8474 0.0000e+00
      8.357      0.050     0.0796      0.691     99.853  68.215573     0.6108      6.188    57.0674 1.2355e-01     1.5426      8.195     11.885     9.1557   999.8480 0.0000e+00
      8.369      0.055     0.0802      0.697    100.470  68.664723     0.5903      6.189    56.4250 1.2351e-01     1.6079      8.207     11.903     9.1596   999.8477 0.0000e+00
      8.384      0.064     0.0830      0.722    101.549  69.419439     0.5391      6.189    56.1385 1.2355e-01     1.6865      8.221     11.924     9.1549   999.8480 0.0000e+00
      8.400      0.069     0.0846      0.736    102.101  69.775091     0.5037      6.189    55.6685 1.2360e-01     1.7393      8.236     11.945     9.1477   999.8486 0.0000e+00
      8.420      0.070     0.0848      0.737    102.086  69.722401     0.4919      6.189    54.7857 1.2364e-01     1.7879      8.255     11.971     9.1512   999.8482 0.0000e+00
      8.445      0.065     0.0842      0.730    102.053  69.672438     0.5084      6.190    53.8957 1.2364e-01     1.7495      8.282     12.013     9.1700   999.8472 0.0000e+00
      8.467      0.059     0.0828      0.718    102.075  69.679590     0.5482      6.191    53.1686 1.2359e-01     1.6355      8.307     12.049     9.1889   999.8465 0.0000e+00
      8.481      0.051     0.0820      0.712    102.169  69.745295     0.5733      6.191    52.4476 1.2357e-01     1.5892      8.319     12.066     9.1720   999.8480 0.0000e+00
      8.486      0.043     0.0808      0.702    102.574  70.021810     0.5777      6.190    51.8883 1.2357e-01     1.5828      8.322     12.070     9.1417   999.8503 0.0000e+00
      8.490      0.037     0.0786      0.683    103.257  70.479694     0.5668      6.190    51.4824 1.2354e-01     1.6241      8.325     12.074     9.1302   999.8512 0.0000e+00
      8.498      0.033     0.0783      0.680    103.896  70.894407     0.5634      6.190    50.8955 1.2352e-01     1.7279      8.332     12.084     9.1275   999.8514 0.0000e+00
      8.509      0.033     0.0792      0.687    104.419  71.221097     0.5709      6.191    50.2131 1.2352e-01     1.7897      8.345     12.103     9.1305   999.8511 0.0000e+00
      8.520      0.038     0.0798      0.692    105.163  71.695548     0.5620      6.193    49.6836 1.2352e-01     1.8137      8.357     12.121     9.1315   999.8513 0.0000e+00
      8.528      0.044     0.0816      0.708    106.023  72.243501     0.5516      6.193    49.3124 1.2354e-01     1.8210      8.364     12.131     9.1287   999.8518 0.0000e+00
      8.534      0.051     0.0831      0.720    106.477  72.505047     0.5398      6.191    49.1660 1.2354e-01     1.7805      8.367     12.137     9.1179   999.8529 0.0000e+00
      8.545      0.057     0.0822      0.712    106.642  72.568692     0.5152      6.190    49.2041 1.2348e-01     1.7493      8.377     12.149     9.1004   999.8544 0.0000e+00
      8.565      0.062     0.0805      0.697    106.796  72.631452     0.5060      6.189    49.1706 1.2345e-01     1.7393      8.398     12.180     9.0875   999.8558 0.0000e+00
      8.588      0.064     0.0796      0.688    106.931  72.691525     0.5154      6.188    49.1055 1.2351e-01     1.7570      8.423     12.217     9.0694   999.8578 0.0000e+00
      8.610      0.061     0.0786      0.679    107.104  72.786285     0.5162      6.188    49.1053 1.2361e-01     1.7995      8.444     12.248     9.0451   999.8597 0.0000e+00
      8.626      0.054     0.0772      0.667    107.275  72.886913     0.5071      6.188    49.0816 1.2363e-01     1.7947      8.461     12.271     9.0210   999.8617 0.0000e+00
      8.636      0.045     0.0770      0.665    107.296  72.890763     0.5005      6.189    49.0779 1.2361e-01     1.7654      8.470     12.284     9.0003   999.8633 0.0000e+00
      8.643      0.035     0.0775      0.670    107.211  72.832826     0.4973      6.190    49.1468 1.2361e-01     1.7398      8.475     12.293     8.9862   999.8644 0.0000e+00
      8.650      0.028     0.0785      0.679    107.356  72.949473     0.4940      6.190    49.2256 1.2361e-01     1.7148      8.482     12.302     8.9764   999.8653 0.0000e+00
      8.656      0.026     0.0806      0.697    107.898  73.347291     0.4949      6.191    49.1705 1.2360e-01     1.7245      8.490     12.314     8.9690   999.8659 0.0000e+00
      8.661      0.026     0.0809      0.700    108.496  73.763812     0.4996      6.192    48.9112 1.2357e-01     1.7594      8.494     12.320     8.9646   999.8663 0.0000e+00
      8.666      0.027     0.0789      0.683    108.747  73.915757     0.5079      6.192    48.6717 1.2354e-01     1.7769      8.496     12.323     8.9611   999.8665 0.0000e+00
      8.672      0.030     0.0778      0.673    108.782  73.912575     0.5257      6.193    48.5969 1.2353e-01     1.7717      8.503     12.333     8.9690   999.8659 0.0000e+00
      8.681      0.034     0.0789      0.683    108.912  73.979684     0.5419      6.193    48.5234 1.2351e-01     1.7616      8.514     12.349     8.9919   999.8646 0.0000e+00
      8.691      0.038     0.0804      0.696    108.811  73.900428     0.5471      6.193    48.4718 1.2354e-01     1.7536      8.524     12.363     8.9982   999.8644 0.0000e+00
      8.701      0.039     0.0807      0.698    108.251  73.526603     0.5454      6.193    48.3168 1.2360e-01     1.7400      8.532     12.375     8.9841   999.8656 0.0000e+00
      8.712      0.039     0.0808      0.699    107.648  73.148148     0.5387      6.194    47.7676 1.2361e-01     1.7286      8.543     12.390     8.9684   999.8667 0.0000e+00
      8.725      0.038     0.0798      0.690    107.290  72.949299     0.5270      6.195    47.1662 1.2358e-01     1.7462      8.557     12.410     8.9600   999.8675 0.0000e+00
      8.736      0.036     0.0789      0.683    107.164  72.902915     0.5168      6.196    46.8100 1.2356e-01     1.7891      8.568     12.426     8.9537   999.8681 0.0000e+00
      8.744      0.033     0.0791      0.685    107.124  72.905313     0.5099      6.197    46.4716 1.2356e-01     1.7891      8.575     12.436     8.9532   999.8679 0.0000e+00
      8.750      0.029     0.0784      0.680    107.186  72.978326     0.5048      6.197    46.0864 1.2359e-01     1.7456      8.581     12.446     8.9715   999.8663 0.0000e+00
      8.756      0.025     0.0783      0.679    107.388  73.149835     0.4984      6.197    45.7667 1.2359e-01     1.7221      8.587     12.454     8.9955   999.8644 0.0000e+00
      8.762      0.023     0.0793      0.687    107.518  73.262112     0.4935      6.197    45.5314 1.2356e-01     1.7343      8.593     12.463     9.0150   999.8630 0.0000e+00
      8.768      0.021     0.0791      0.685    107.592  73.318433     0.4970      6.197    45.3058 1.2356e-01     1.7620      8.599     12.472     9.0257   999.8622 0.0000e+00
      8.773      0.020     0.0784      0.679    107.890  73.512857     0.4978      6.198    45.0179 1.2354e-01     1.7292      8.604     12.480     9.0388   999.8612 0.0000e+00
      8.777      0.021     0.0781      0.676    108.580  73.959486     0.4939      6.200    44.6309 1.2353e-01     1.6332      8.607     12.483     9.0593   999.8599 0.0000e+00
      8.781      0.022     0.0763      0.661    109.378  74.457855     0.4929      6.201    44.2411 1.2353e-01     1.5514      8.611     12.489     9.0710   999.8590 0.0000e+00
      8.786      0.025     0.0754      0.652    109.830  74.705443     0.4950      6.200    43.9176 1.2358e-01     1.5264      8.616     12.497     9.0718   999.8589 0.0000e+00
      8.792      0.030     0.0770      0.666    109.935  74.727189     0.5021      6.200    43.5600 1.2363e-01     1.5283      8.621     12.504     9.0679   999.8593 0.0000e+00
      8.801      0.035     0.0771      0.667    109.959  74.720729     0.5270      6.200    43.2727 1.2360e-01     1.6060      8.631     12.516     9.0596   999.8603 0.0000e+00
      8.811      0.040     0.0746      0.645    110.198  74.881698     0.5616      6.199    43.0247 1.2358e-01     1.7454      8.642     12.534     9.0387   999.8623 0.0000e+00
      8.822      0.044     0.0733      0.634    110.684  75.210737     0.5742      6.199    42.5405 1.2362e-01     1.7714      8.651     12.547     9.0052   999.8649 0.0000e+00
      8.834      0.046     0.0747      0.645    111.074  75.455695     0.5662      6.199    41.9788 1.2367e-01     1.7571      8.661     12.563     8.9792   999.8669 0.0000e+00
      8.847      0.047     0.0761      0.658    111.182  75.490353     0.5432      6.198    41.5672 1.2367e-01     1.7695      8.676     12.583     8.9710   999.8676 0.0000e+00
      8.860      0.047     0.0785      0.678    111.168  75.438953     0.5131      6.198    41.2634 1.2359e-01     1.7569      8.689     12.602     8.9735   999.8676 0.0000e+00
      8.873      0.048     0.0808      0.698    111.169  75.406560     0.5055      6.198    40.9730 1.2357e-01     1.7686      8.702     12.622     8.9772   999.8675 0.0000e+00
      8.884      0.048     0.0799      0.690    111.210  75.416648     0.5116      6.198    40.5512 1.2360e-01     1.8125      8.714     12.638     8.9679   999.8685 0.0000e+00
      8.895      0.049     0.0784      0.678    111.335  75.497305     0.5087      6.198    40.0350 1.2358e-01     1.8286      8.722     12.651     8.9466   999.8701 0.0000e+00
      8.907      0.051     0.0803      0.693    111.528  75.618597     0.5055      6.197    39.6363 1.2356e-01     1.7992      8.734     12.668     8.9268   999.8716 0.0000e+00
      8.920      0.052     0.0834      0.719    111.739  75.738401     0.4990      6.197    39.4297 1.2356e-01     1.7522      8.748     12.688     8.9105   999.8730 0.0000e+00
      8.935      0.052     0.0829      0.715    111.967  75.864651     0.4905      6.198    39.2584 1.2359e-01     1.7197      8.760     12.707     8.9017   999.8736 0.0000e+00
      8.950      0.051     0.0796      0.686    112.207  76.000271     0.4978      6.198    39.0279 1.2359e-01     1.7342      8.776     12.729     8.9049   999.8735 0.0000e+00
      8.965      0.049     0.0775      0.668    112.394  76.106162     0.5103      6.198    38.7936 1.2354e-01     1.7632      8.793     12.753     8.9027   999.8738 0.0000e+00
      8.977      0.046     0.0775      0.668    112.538  76.190948     0.5110      6.199    38.5771 1.2357e-01     1.7430      8.804     12.769     8.8892   999.8748 0.0000e+00
      8.987      0.041     0.0779      0.671    112.653  76.262208     0.5070      6.199    38.3886 1.2363e-01     1.6867      8.813     12.782     8.8755   999.8760 0.0000e+00
      8.996      0.036     0.0760      0.656    112.670  76.268143     0.5040      6.199    38.2348 1.2362e-01     1.6717      8.822     12.796     8.8633   999.8771 0.0000e+00
      9.005      0.031     0.0740      0.638    112.667  76.262699     0.5005      6.199    38.0081 1.2357e-01     1.7259      8.832     12.810     8.8533   999.8779 0.0000e+00
      9.013      0.029     0.0738      0.637    112.756  76.323582     0.4996      6.199    37.6256 1.2353e-01     1.7846      8.839     12.820     8.8480   999.8783 0.0000e+00
      9.018      0.028     0.0733      0.632    112.822  76.368281     0.5016      6.200    37.3109 1.2353e-01     1.7918      8.843     12.827     8.8464   999.8785 0.0000e+00
      9.023      0.027     0.0716      0.617    112.908  76.421548     0.4992      6.200    37.1289 1.2358e-01     1.7807      8.847     12.833     8.8438   999.8788 0.0000e+00
      9.030      0.027     0.0692      0.596    113.255  76.649617     0.4966      6.200    36.8878 1.2356e-01     1.7803      8.855     12.843     8.8407   999.8790 0.0000e+00
      9.039      0.029     0.0701      0.605    113.734  76.963385     0.5048      6.201    36.6319 1.2353e-01     1.7876      8.866     12.858     8.8427   999.8790 0.0000e+00
      9.045      0.032     0.0745      0.643    114.052  77.162391     0.5123      6.201    36.4434 1.2353e-01     1.8033      8.872     12.866     8.8441   999.8789 0.0000e+00
      9.051      0.034     0.0770      0.663    114.250  77.274894     0.5083      6.202    36.2445 1.2353e-01     1.8058      8.875     12.872     8.8403   999.8792 0.0000e+00
      9.061      0.035     0.0785      0.676    114.515  77.433178     0.4999      6.202    35.9476 1.2357e-01     1.7859      8.885     12.886     8.8376   999.8796 0.0000e+00
      9.072      0.037     0.0800      0.689    114.903  77.676880     0.4972      6.203    35.6070 1.2363e-01     1.7914      8.898     12.905     8.8341   999.8801 0.0000e+00
      9.083      0.039     0.0803      0.692    115.304  77.931691     0.5025      6.203    35.3958 1.2364e-01     1.8079      8.908     12.920     8.8260   999.8808 0.0000e+00
      9.092      0.039     0.0795      0.685    115.573  78.097079     0.5034      6.203    35.2865 1.2364e-01     1.7875      8.916     12.931     8.8161   999.8816 0.0000e+00
      9.102      0.038     0.0771      0.664    115.768  78.213629     0.4987      6.203    35.1455 1.2370e-01     1.7746      8.925     12.945     8.8067   999.8824 0.0000e+00
      9.112      0.038     0.0747      0.643    116.043  78.386770     0.4982      6.204    34.8962 1.2372e-01     1.7836      8.937     12.962     8.7987   999.8832 0.0000e+00
      9.122      0.039     0.0734      0.631    116.469  78.663931     0.4964      6.205    34.4227 1.2367e-01     1.7650      8.947     12.976     8.7921   999.8839 0.0000e+00
      9.130      0.042     0.0717      0.617    117.109  79.084058     0.4949      6.205    33.8097 1.2370e-01     1.7463      8.954     12.986     8.7852   999.8845 0.0000e+00
      9.139      0.047     0.0715      0.615    117.966  79.649960     0.4969      6.205    33.3337 1.2375e-01     1.8196      8.961     12.997     8.7779   999.8851 0.0000e+00
      9.149      0.052     0.0739      0.636    118.937  80.290150     0.4948      6.204    33.0562 1.2374e-01     1.9297      8.971     13.012     8.7725   999.8856 0.0000e+00
      9.164      0.057     0.0759      0.653    119.785  80.845004     0.4956      6.204    32.6917 1.2370e-01     1.9647      8.985     13.032     8.7682   999.8862 0.0000e+00
      9.182      0.061     0.0771      0.663    120.441  81.269545     0.4991      6.204    32.1097 1.2365e-01     1.9473      9.005     13.060     8.7631   999.8869 0.0000e+00
      9.202      0.065     0.0778      0.669    121.058  81.669923     0.5110      6.204    31.5258 1.2360e-01     1.9487      9.025     13.090     8.7578   999.8877 0.0000e+00
      9.220      0.066     0.0766      0.658    121.751  82.123391     0.5440      6.204    30.9658 1.2353e-01     1.9816      9.042     13.115     8.7517   999.8886 0.0000e+00
      9.235      0.065     0.0742      0.638    123.255  83.126146     0.5683      6.203    30.3286 1.2348e-01     2.0176      9.056     13.135     8.7439   999.8895 0.0000e+00
      9.250      0.064     0.0727      0.625    126.065  85.014257     0.5699      6.202    29.7591 1.2345e-01     2.0554      9.070     13.155     8.7359   999.8903 0.0000e+00
      9.266      0.062     0.0734      0.630    128.454  86.628097     0.5811      6.201    29.4142 1.2345e-01     2.0787      9.087     13.179     8.7292   999.8911 0.0000e+00
      9.283      0.061     0.0743      0.639    128.681  86.795417     0.6088      6.201    29.1698 1.2350e-01     2.0700      9.104     13.204     8.7235   999.8917 0.0000e+00
      9.299      0.060     0.0736      0.633    127.598  86.082946     0.6271      6.201    28.7832 1.2356e-01     2.0490      9.119     13.227     8.7187   999.8926 0.0000e+00
      9.315      0.056     0.0743      0.639    126.746  85.522297     0.6282      6.200    28.3535 1.2360e-01     2.0209      9.134     13.249     8.7149   999.8943 0.0000e+00
      9.330      0.051     0.0775      0.666    126.496  85.361685     0.6052      6.200    28.1042 1.2363e-01     2.0245      9.150     13.271     8.7158   999.8954 0.0000e+00
      9.343      0.046     0.0790      0.678    126.380  85.286345     0.5574      6.200    27.8337 1.2363e-01     2.0602      9.163     13.290     8.7227   999.8948 0.0000e+00
      9.354      0.042     0.0783      0.673    125.849  84.929508     0.5179      6.200    27.4062 1.2365e-01     2.0587      9.173     13.305     8.7309   999.8937 0.0000e+00
      9.362      0.040     0.0778      0.668    125.374  84.610333     0.5007      6.199    26.8930 1.2366e-01     2.0069      9.182     13.318     8.7366   999.8930 0.0000e+00
      9.369      0.043     0.0770      0.662    125.847  84.926723     0.5052      6.199    26.3607 1.2364e-01     1.9579      9.187     13.324     8.7395   999.8928 0.0000e+00
      9.377      0.051     0.0760      0.653    127.024  85.700826     0.5295      6.199    26.0466 1.2359e-01     1.9583      9.194     13.335     8.7402   999.8929 0.0000e+00
      9.389      0.062     0.0742      0.638    128.034  86.334460     0.5518      6.198    25.9347 1.2354e-01     1.9786      9.206     13.353     8.7406   999.8927 0.0000e+00
      9.405      0.071     0.0725      0.623    128.434  86.543009     0.5663      6.196    25.9545 1.2354e-01     2.0076      9.220     13.372     8.7410   999.8923 0.0000e+00
      9.427      0.075     0.0737      0.633    128.452  86.504258     0.5668      6.195    25.9417 1.2357e-01     2.0135      9.241     13.403     8.7425   999.8926 0.0000e+00
      9.457      0.073     0.0760      0.652    128.484  86.502198     0.5398      6.195    25.6937 1.2357e-01     1.9188      9.275     13.452     8.7372   999.8937 0.0000e+00
      9.484      0.067     0.0751      0.644    128.693  86.645339     0.5089      6.195    25.4507 1.2356e-01     1.8123      9.306     13.497     8.7156   999.8958 0.0000e+00
      9.499      0.058     0.0733      0.629    128.967  86.835047     0.4972      6.194    25.0689 1.2353e-01     1.7757      9.320     13.518     8.6878   999.8979 0.0000e+00
      9.504      0.048     0.0740      0.635    129.152  86.950578     0.4937      6.194    24.3461 1.2353e-01     1.7710      9.321     13.517     8.6656   999.8994 0.0000e+00
      9.508      0.039     0.0742      0.637    129.377  87.087709     0.4923      6.195    23.6806 1.2357e-01     1.7884      9.323     13.522     8.6553   999.9001 0.0000e+00
      9.517      0.035     0.0739      0.635    129.687  87.284024     0.4976      6.197    23.3031 1.2359e-01     1.7896      9.334     13.537     8.6615   999.8998 0.0000e+00
      9.527      0.037     0.0753      0.646    129.998  87.478781     0.5051      6.197    23.0512 1.2355e-01     1.7849      9.344     13.551     8.6671   999.8996 0.0000e+00
      9.537      0.044     0.0761      0.653    130.202  87.597057     0.5139      6.197    22.7872 1.2350e-01     1.7966      9.351     13.563     8.6601   999.9002 0.0000e+00
      9.547      0.051     0.0759      0.651    130.286  87.632267     0.5605      6.197    22.5200 1.2353e-01     1.8004      9.362     13.578     8.6541   999.9007 0.0000e+00
      9.560      0.057     0.0754      0.647    130.526  87.777215     0.6350      6.198    22.3158 1.2360e-01     1.7975      9.375     13.596     8.6499   999.9012 0.0000e+00
      9.576      0.061     0.0747      0.640    130.899  88.013223     0.6698      6.199    22.1250 1.2364e-01     1.7616      9.390     13.619     8.6448   999.9018 0.0000e+00
      9.596      0.064     0.0746      0.639    131.193  88.194886     0.6688      6.199    21.7615 1.2365e-01     1.7273      9.409     13.648     8.6374   999.9025 0.0000e+00
      9.616      0.066     0.0753      0.645    131.590  88.446362     0.6401      6.199    21.2763 1.2367e-01     1.7432      9.431     13.678     8.6276   999.9032 0.0000e+00
      9.633      0.066     0.0765      0.656    132.175  88.826437     0.5919      6.199    20.8178 1.2362e-01     1.7567      9.447     13.702     8.6221   999.9038 0.0000e+00
      9.647      0.065     0.0768      0.659    132.790  89.226535     0.5715      6.199    20.4347 1.2351e-01     1.7595      9.459     13.721     8.6169   999.9044 0.0000e+00
      9.662      0.063     0.0751      0.644    133.448  89.656392     0.5753      6.199    20.0859 1.2351e-01     1.7772      9.474     13.742     8.6104   999.9050 0.0000e+00
      9.679      0.061     0.0736      0.631    134.093  90.077991     0.5597      6.199    19.6116 1.2358e-01     1.8407      9.491     13.765     8.6047   999.9056 0.0000e+00
      9.696      0.060     0.0740      0.634    134.463  90.314541     0.5214      6.199    19.0881 1.2356e-01     1.9363      9.509     13.792     8.5995   999.9063 0.0000e+00
      9.712      0.057     0.0738      0.632    134.535  90.352591     0.5019      6.200    18.6609 1.2354e-01     1.9835      9.524     13.815     8.5947   999.9069 0.0000e+00
      9.726      0.052     0.0733      0.628    134.539  90.347116     0.5065      6.201    18.3179 1.2359e-01     1.9860      9.538     13.834     8.5903   999.9075 0.0000e+00
      9.740      0.048     0.0745      0.638    134.687  90.439258     0.5249      6.201    18.0380 1.2358e-01     1.9985      9.553     13.854     8.5859   999.9082 0.0000e+00
      9.751      0.046     0.0735      0.629    135.088  90.702931     0.5504      6.202    17.8578 1.2356e-01     2.0364      9.564     13.870     8.5811   999.9087 0.0000e+00
      9.759      0.046     0.0714      0.612    135.616  91.052978     0.5642      6.202    17.7735 1.2362e-01     2.0505      9.571     13.881     8.5771   999.9090 0.0000e+00
      9.767      0.049     0.0722      0.619    136.081  91.362035     0.5700      6.202    17.7066 1.2367e-01     2.0054      9.578     13.891     8.5743   999.9092 0.0000e+00
      9.778      0.055     0.0729      0.624    136.498  91.639242     0.5689      6.202    17.5661 1.2367e-01     1.9496      9.587     13.905     8.5717   999.9094 0.0000e+00
      9.793      0.061     0.0724      0.620    136.928  91.922375     0.5595      6.203    17.0217 1.2358e-01     1.9335      9.602     13.927     8.5695   999.9098 0.0000e+00
      9.812      0.069     0.0720      0.616    137.411  92.239403     0.5518      6.203    16.2867 1.2351e-01     1.9413      9.622     13.956     8.5676   999.9103 0.0000e+00
      9.832      0.077     0.0706      0.605    137.971  92.608133     0.5533      6.202    15.9919 1.2351e-01     1.9457      9.643     13.987     8.5670   999.9106 0.0000e+00
      9.852      0.086     0.0707      0.606    138.576  93.007147     0.5609      6.201    15.9525 1.2355e-01     1.9536      9.662     14.014     8.5665   999.9109 0.0000e+00
      9.872      0.093     0.0736      0.631    139.131  93.371994     0.5664      6.200    15.8959 1.2360e-01     2.0372      9.680     14.040     8.5640   999.9113 0.0000e+00
      9.896      0.097     0.0741      0.634    139.457  93.582178     0.5757      6.200    15.8244 1.2359e-01     2.1696      9.702     14.072     8.5610   999.9117 0.0000e+00
      9.925      0.097     0.0714      0.611    139.555  93.638839     0.5868      6.200    15.6040 1.2353e-01     2.2112      9.732     14.115     8.5586   999.9123 0.0000e+00
      9.957      0.092     0.0715      0.612    139.716  93.738792     0.5798      6.200    15.2098 1.2354e-01     2.2125      9.766     14.164     8.5563   999.9129 0.0000e+00
      9.984      0.085     0.0728      0.623    140.059  93.963162     0.5514      6.200    14.8446 1.2360e-01     2.1850      9.794     14.206     8.5535   999.9134 0.0000e+00
     10.004      0.076     0.0723      0.619    140.396  94.187381     0.5205      6.201    14.5434 1.2359e-01     2.0759      9.814     14.232     8.5503   999.9139 0.0000e+00
     10.016      0.067     0.0731      0.626    140.730  94.412807     0.5098      6.201    14.0634 1.2357e-01     2.0073      9.824     14.246     8.5471   999.9141 0.0000e+00
     10.027      0.060     0.0749      0.641    141.177  94.715397     0.5178      6.201    13.5139 1.2357e-01     2.0111      9.833     14.260     8.5438   999.9143 0.0000e+00
     10.041      0.057     0.0756      0.648    141.577  94.981368     0.5470      6.201    13.1486 1.2358e-01     2.0235      9.847     14.282     8.5417   999.9147 0.0000e+00
     10.056      0.058     0.0755      0.646    141.736  95.082293     0.5945      6.203    12.9165 1.2366e-01     2.0259      9.862     14.304     8.5407   999.9150 0.0000e+00
     10.071      0.061     0.0732      0.627    141.686  95.044440     0.6155      6.205    12.7718 1.2368e-01     2.0071      9.876     14.325     8.5413   999.9151 0.0000e+00
     10.087      0.062     0.0707      0.605    141.671  95.032951     0.6100      6.205    12.6900 1.2363e-01     1.9937      9.892     14.348     8.5437   999.9152 0.0000e+00
     10.104      0.061     0.0707      0.606    142.013  95.261684     0.5967      6.206    12.6156 1.2361e-01     1.9949      9.909     14.372     8.5427   999.9156 0.0000e+00
     10.121      0.059     0.0716      0.613    142.684  95.709243     0.5767      6.206    12.3889 1.2358e-01     1.9883      9.925     14.395     8.5395   999.9159 0.0000e+00
     10.138      0.056     0.0708      0.605    143.395  96.179077     0.5678      6.207    11.9276 1.2361e-01     1.9801      9.943     14.421     8.5381   999.9161 0.0000e+00
     10.153      0.053     0.0695      0.594    144.055  96.613373     0.5677      6.208    11.4263 1.2370e-01     1.9931      9.958     14.443     8.5377   999.9161 0.0000e+00
     10.164      0.050     0.0693      0.593    144.758  97.076795     0.5660      6.209    10.9743 1.2370e-01     2.0803      9.967     14.456     8.5381   999.9162 0.0000e+00
     10.174      0.046     0.0703      0.602    145.428  97.516703     0.5649      6.210    10.4195 1.2365e-01     2.1815      9.976     14.469     8.5377   999.9166 0.0000e+00
     10.185      0.043     0.0726      0.622    145.859  97.793945     0.5626      6.211     9.7091 1.2363e-01     2.1687      9.987     14.485     8.5344   999.9171 0.0000e+00
     10.197      0.042     0.0724      0.620    146.295  98.073205     0.5650      6.212     9.0960 1.2361e-01     2.1225     10.001     14.505     8.5310   999.9177 0.0000e+00
     10.208      0.043     0.0695      0.595    147.195  98.664792     0.6016      6.212     8.6848 1.2352e-01     2.1137     10.012     14.521     8.5292   999.9181 0.0000e+00
     10.217      0.047     0.0690      0.590    148.415  99.471100     0.6676      6.212     8.3505 1.2350e-01     2.0623     10.020     14.532     8.5260   999.9187 0.0000e+00
     10.226      0.053     0.0719      0.615    149.874 100.436269     0.7118      6.210     8.0655 1.2357e-01     1.9936     10.027     14.543     8.5215   999.9191 0.0000e+00
     10.238      0.060     0.0749      0.641    151.838 101.738385     0.7202      6.208     7.9061 1.2357e-01     2.0040     10.038     14.558     8.5170   999.9195 0.0000e+00
     10.255      0.065     0.0739      0.632    153.729 102.988510     0.6827      6.207     7.8001 1.2354e-01     2.0891     10.055     14.583     8.5131   999.9202 0.0000e+00
     10.276      0.067     0.0709      0.606    154.545 103.515562     0.6138      6.208     7.6440 1.2356e-01     2.1709     10.076     14.615     8.5094   999.9211 0.0000e+00
     10.300      0.064     0.0680      0.581    154.400 103.398309     0.5721      6.210     7.4815 1.2361e-01     2.2063     10.102     14.651     8.5051   999.9219 0.0000e+00
     10.320      0.058     0.0662      0.566    154.351 103.354000     0.5600      6.210     7.2122 1.2360e-01     2.2218     10.123     14.682     8.5004   999.9232 0.0000e+00
     10.334      0.048     0.0675      0.577    154.744 103.616675     0.5544      6.210     6.8835 1.2354e-01     2.2282     10.136     14.700     8.4955   999.9244 0.0000e+00
     10.341      0.038     0.0687      0.587    155.060 103.835792     0.5563      6.211     6.6904 1.2355e-01     2.2180     10.141     14.709     8.4885   999.9253 0.0000e+00
     10.345      0.031     0.0697      0.595    154.942 103.774320     0.5662      6.212     6.5974 1.2359e-01     2.2297     10.145     14.714     8.4807   999.9255 0.0000e+00
     10.350      0.027     0.0719      0.615    154.786 103.701359     0.5702      6.212     6.4482 1.2358e-01     2.2387     10.149     14.720     8.4765   999.9257 0.0000e+00
     10.356      0.028     0.0739      0.632    156.081 104.609505     0.5608      6.213     6.0906 1.2356e-01     2.1948     10.155     14.729     8.4775   999.9260 0.0000e+00
     10.363      0.033     0.0745      0.638    161.106 108.003489     0.5568      6.213     5.4573 1.2353e-01     2.1249     10.162     14.739     8.4795   999.9260 0.0000e+00
     10.371      0.039     0.0731      0.626    170.129 114.034306     0.5649      6.213     4.7277 1.2348e-01     2.0487     10.170     14.750     8.4843   999.9256 0.0000e+00
     10.380      0.046     0.0711      0.608    177.869 119.166826     0.5639      6.212     4.3245 1.2351e-01     1.9947     10.179     14.764     8.4948   999.9248 0.0000e+00
     10.393      0.051     0.0707      0.604    180.109 120.611842     0.5612      6.212     4.3682 1.2354e-01     1.9638     10.191     14.780     8.5101   999.9240 0.0000e+00
     10.409      0.052     0.0707      0.604    179.763 120.353775     0.5669      6.213     4.4810 1.2351e-01     1.9376     10.207     14.803     8.5233   999.9246 0.0000e+00
     10.427      0.049     0.0701      0.599    179.712 120.317130     0.5632      6.213     4.3976 1.2350e-01     1.9404     10.226     14.831     8.5175   999.9293 0.0000e+00
     10.443      0.044     0.0691      0.591    179.780 120.359998     0.5602      6.213     4.2207 1.2357e-01     1.9645     10.243     14.857     8.4962   999.9348 0.0000e+00
     10.454      0.037     0.0686      0.586    179.512 120.170967     0.5654      6.212     4.0624 1.2365e-01     1.9667     10.254     14.872     8.4770   999.9359 0.0000e+00
     10.460      0.029     0.0690      0.590    178.806 119.688732     0.5656      6.212     3.9472 1.2360e-01     1.9677     10.258     14.879     8.4706   999.9359 0.0000e+00
     10.463      0.023     0.0690      0.590    178.435 119.437085     0.5713      6.213     3.8599 1.2355e-01     2.0095     10.261     14.882     8.4739   999.9359 0.0000e+00
     10.466      0.018     0.0681      0.583    179.165 119.932742     0.5825      6.215     3.7811 1.2353e-01     2.0455     10.264     14.886     8.4731   999.9360 0.0000e+00
     10.471      0.016     0.0689      0.589    180.884 121.092573     0.5795      6.215     3.7691 1.2349e-01     2.0420     10.268     14.893     8.4695   999.9363 0.0000e+00
     10.476      0.016     0.0713      0.609    182.886 122.433518     0.5693      6.215     3.7153 1.2353e-01     2.0656     10.273     14.900     8.4662   999.9361 0.0000e+00
     10.480      0.017     0.0725      0.619    184.057 123.206130     0.5625      6.216     3.3882 1.2354e-01     2.1345     10.277     14.906     8.4643   999.9360 0.0000e+00
     10.484      0.018     0.0740      0.633    184.111 123.230931     0.5667      6.216     2.8258 1.2352e-01     2.1867     10.280     14.910     8.4676   999.9361 0.0000e+00
     10.488      0.020     0.0752      0.644    185.256 124.008352     0.5690      6.216     2.3355 1.2351e-01     2.2050     10.285     14.917     8.4711   999.9366 0.0000e+00
     10.493      0.022     0.0737      0.630    189.764 127.059228     0.5559      6.217     2.0203 1.2350e-01     2.2253     10.289     14.923     8.4723   999.9375 0.0000e+00
     10.498      0.024     0.0713      0.610    197.089 132.001497     0.5467      6.217     1.7673 1.2352e-01     2.2349     10.294     14.930     8.4679   999.9382 0.0000e+00
     10.506      0.025     0.0696      0.595    206.368 138.234145     0.5447      6.217     1.5143 1.2360e-01     2.1901     10.303     14.943     8.4615   999.9386 0.0000e+00
     10.515      0.025     0.0675      0.577    213.258 142.839260     0.5486      6.217     1.0262 1.2367e-01     2.1751     10.311     14.955     8.4649   999.9380 0.0000e+00
     10.521      0.026     0.0655      0.559    226.044 151.380568     0.5599      6.216     0.2528 1.2369e-01     2.2182     10.318     14.966     8.4759   999.9397 0.0000e+00
     10.525      0.027     0.0653      0.558    262.039 175.471160     0.5686      6.215    -0.4370 1.2365e-01     2.2196     10.322     14.971     8.4876   999.9410 0.0000e+00
     10.530      0.027     0.0664      0.568    291.403 195.121890     0.5661      6.214    -0.8614 1.2358e-01     2.1912     10.325     14.976     8.4932   999.9453 0.0000e+00
     10.537      0.027     0.0682      0.583    273.473 183.095868     0.5641      6.213    -1.0925 1.2352e-01     2.2027     10.331     14.985     8.4889   999.9486 0.0000e+00
     10.546      0.026     0.0707      0.605    238.849 159.894984     0.5713      6.212    -1.3381 1.2351e-01     2.1953     10.343     15.002     8.4813   999.9473 0.0000e+00
     10.556      0.025     0.0721      0.616    226.575 151.671134     0.5755      6.212    -1.5079 1.2356e-01     2.1676     10.354     15.017     8.4798   999.9658 0.0000e+00
     10.563 -9.990e-29 -9.990e-29 -9.990e-29 -9.990e-29 -9.990e-29 -9.990e-29 -9.990e-29 -9.990e-29 1.2360e-01 -9.990e-29     10.360     15.026     8.4790   999.9889 0.0000e+00
     10.566 -9.990e-29 -9.990e-29 -9.990e-29 -9.990e-29 -9.990e-29 -9.990e-29 -9.990e-29 -9.990e-29 1.2358e-01 -9.990e-29     10.363     15.030     8.4731   999.9731 0.0000e+00
     10.568 -9.990e-29 -9.990e-29 -9.990e-29 -9.990e-29 -9.990e-29 -9.990e-29 -9.990e-29 -9.990e-29 1.2356e-01 -9.990e-29     10.364     15.031     8.4686   999.9528 0.0000e+00
     10.568 -9.990e-29 -9.990e-29 -9.990e-29 -9.990e-29 -9.990e-29 -9.990e-29 -9.990e-29 -9.990e-29 1.2356e-01 -9.990e-29     10.364     15.031     8.4676   999.9535 0.0000e+00
