* Sea-Bird SBE19plus  Data File:
* FileName = C:\DATA\MSN2_CTD_CASTS_072419\072419_bvr50_c_0001.hex
* Software version 2.8.0.119 SB_Terminal.dll
* Temperature SN = 7809
* Conductivity SN = 7809
* System UpLoad Time = Jul 24 2019 21:33:16
* <ApplicationData>
* <Seaterm232>
* <SoftwareVersion>2.8.0.119</SoftwareVersion>
* <BuildDate>07-Nov-2018</BuildDate>
* </Seaterm232>
* </ApplicationData>
* cast   1 24 Jul 2019 21:22:57 samples 1 to 839, avg = 1, stop = mag switch
# nquan = 16
# nvalues = 680                         
# units = specified
# name 0 = depFM: Depth [fresh water, m]
# name 1 = dz/dtM: Descent Rate [m/s]
# name 2 = sbeox0Mg/L: Oxygen, SBE 43 [mg/l]
# name 3 = sbeox0PS: Oxygen, SBE 43 [% saturation]
# name 4 = specc: Specific Conductance [uS/cm]
# name 5 = c0uS/cm: Conductivity [uS/cm]
# name 6 = flECO-AFL: Fluorescence, WET Labs ECO-AFL/FL [mg/m^3]
# name 7 = ph: pH
# name 8 = orp: Oxidation Reduction Potential [mV]
# name 9 = par/sat/log: PAR/Logarithmic, Satlantic
# name 10 = turbWETntu0: Turbidity, WET Labs ECO [NTU]
# name 11 = prdM: Pressure, Strain Gauge [db]
# name 12 = prdE: Pressure, Strain Gauge [psi]
# name 13 = tv290C: Temperature [ITS-90, deg C]
# name 14 = density00: Density [density, kg/m^3]
# name 15 = flag:  0.000e+00
# span 0 =     -0.662,     10.543       
# span 1 =     -0.006,      0.134       
# span 2 =    -0.2559,     8.8009       
# span 3 =     -2.521,    103.075       
# span 4 =      0.158,    216.792       
# span 5 =   0.141733, 145.183785       
# span 6 =    -0.1453,    40.1326       
# span 7 =      6.207,      8.438       
# span 8 = -1240.7376,   702.0683       
# span 9 = 1.2348e-01, 1.2396e-01       
# span 10 =    -0.5789,    59.4844      
# span 11 =     -0.650,     10.340      
# span 12 =     -0.942,     14.997      
# span 13 =     8.4733,    27.4052      
# span 14 =   996.4219,   999.9502      
# span 15 = 0.0000e+00, 0.0000e+00      
# interval = seconds: 0.25
# start_time = Jul 24 2019 21:22:57 [Instrument's time stamp, header]
# bad_flag = -9.990e-29
# <Sensors count="9" >
#   <sensor Channel="1" >
#     <!-- Count, Temperature -->
#     <TemperatureSensor SensorID="58" >
#       <SerialNumber>7809</SerialNumber>
#       <CalibrationDate>24-Mar-19</CalibrationDate>
#       <A0>1.21792325e-003</A0>
#       <A1>2.81669265e-004</A1>
#       <A2>-1.60333336e-006</A2>
#       <A3>1.98414625e-007</A3>
#       <Slope>1.00000000</Slope>
#       <Offset>0.0000</Offset>
#     </TemperatureSensor>
#   </sensor>
#   <sensor Channel="2" >
#     <!-- Frequency 0, Conductivity -->
#     <ConductivitySensor SensorID="3" >
#       <SerialNumber>7809</SerialNumber>
#       <CalibrationDate>24-Mar-19</CalibrationDate>
#       <UseG_J>1</UseG_J>
#       <!-- Cell const and series R are applicable only for wide range sensors. -->
#       <SeriesR>0.0000</SeriesR>
#       <CellConst>2000.0000</CellConst>
#       <ConductivityType>0</ConductivityType>
#       <Coefficients equation="0" >
#         <A>0.00000000e+000</A>
#         <B>0.00000000e+000</B>
#         <C>0.00000000e+000</C>
#         <D>0.00000000e+000</D>
#         <M>0.0</M>
#         <CPcor>-9.57000000e-008</CPcor>
#       </Coefficients>
#       <Coefficients equation="1" >
#         <G>-1.00589325e+000</G>
#         <H>1.26816302e-001</H>
#         <I>-1.51560448e-004</I>
#         <J>2.67137274e-005</J>
#         <CPcor>-9.57000000e-008</CPcor>
#         <CTcor>3.2500e-006</CTcor>
#         <!-- WBOTC not applicable unless ConductivityType = 1. -->
#         <WBOTC>0.00000000e+000</WBOTC>
#       </Coefficients>
#       <Slope>1.00000000</Slope>
#       <Offset>0.00000</Offset>
#     </ConductivitySensor>
#   </sensor>
#   <sensor Channel="3" >
#     <!-- Count, Pressure, Strain Gauge -->
#     <PressureSensor SensorID="46" >
#       <SerialNumber>7809</SerialNumber>
#       <CalibrationDate>11-Mar-19</CalibrationDate>
#       <PA0>4.56561833e-002</PA0>
#       <PA1>4.85095118e-004</PA1>
#       <PA2>-2.88327090e-012</PA2>
#       <PTEMPA0>-5.48784562e+001</PTEMPA0>
#       <PTEMPA1>5.53756816e+001</PTEMPA1>
#       <PTEMPA2>-5.86727098e-001</PTEMPA2>
#       <PTCA0>5.25246745e+005</PTCA0>
#       <PTCA1>1.22304214e+001</PTCA1>
#       <PTCA2>-3.56745036e-001</PTCA2>
#       <PTCB0>2.51668750e+001</PTCB0>
#       <PTCB1>3.75000000e-004</PTCB1>
#       <PTCB2>0.00000000e+000</PTCB2>
#       <Offset>0.000000</Offset>
#     </PressureSensor>
#   </sensor>
#   <sensor Channel="4" >
#     <!-- A/D voltage 0, Oxygen, SBE 43 -->
#     <OxygenSensor SensorID="38" >
#       <SerialNumber>0434</SerialNumber>
#       <CalibrationDate>13-Apr-19</CalibrationDate>
#       <Use2007Equation>1</Use2007Equation>
#       <CalibrationCoefficients equation="0" >
#         <!-- Coefficients for Owens-Millard equation. -->
#         <Boc>0.0000</Boc>
#         <Soc>0.0000e+000</Soc>
#         <offset>0.0000</offset>
#         <Pcor>0.00e+000</Pcor>
#         <Tcor>0.0000</Tcor>
#         <Tau>0.0</Tau>
#       </CalibrationCoefficients>
#       <CalibrationCoefficients equation="1" >
#         <!-- Coefficients for Sea-Bird equation - SBE calibration in 2007 and later. -->
#         <Soc>4.2007e-001</Soc>
#         <offset>-0.6109</offset>
#         <A>-4.3656e-003</A>
#         <B> 1.7017e-004</B>
#         <C>-2.5341e-006</C>
#         <D0> 2.5826e+000</D0>
#         <D1> 1.92634e-004</D1>
#         <D2>-4.64803e-002</D2>
#         <E> 3.6000e-002</E>
#         <Tau20> 1.1800</Tau20>
#         <H1>-3.3000e-002</H1>
#         <H2> 5.0000e+003</H2>
#         <H3> 1.4500e+003</H3>
#       </CalibrationCoefficients>
#     </OxygenSensor>
#   </sensor>
#   <sensor Channel="5" >
#     <!-- A/D voltage 1, PAR/Logarithmic, Satlantic -->
#     <PARLog_SatlanticSensor SensorID="76" >
#       <SerialNumber>1122</SerialNumber>
#       <CalibrationDate>08-May-2019</CalibrationDate>
#       <a0>9.7456e-001</a0>
#       <a1>8.1640e-001</a1>
#       <Im>1.3589e+000</Im>
#       <Multiplier>1.0000e+000</Multiplier>
#     </PARLog_SatlanticSensor>
#   </sensor>
#   <sensor Channel="6" >
#     <!-- A/D voltage 2, pH -->
#     <pH_Sensor SensorID="43" >
#       <SerialNumber>0363</SerialNumber>
#       <CalibrationDate>15-Apr-19</CalibrationDate>
#       <Slope>4.5952</Slope>
#       <Offset>2.5370</Offset>
#     </pH_Sensor>
#   </sensor>
#   <sensor Channel="7" >
#     <!-- A/D voltage 3, Oxidation Reduction Potential -->
#     <OxidationReductionPotentialSensor SensorID="41" >
#       <SerialNumber>0363</SerialNumber>
#       <CalibrationDate>15-Apr-19</CalibrationDate>
#       <B>2.499480</B>
#       <M>-0.496195</M>
#       <Offset>0.0</Offset>
#     </OxidationReductionPotentialSensor>
#   </sensor>
#   <sensor Channel="8" >
#     <!-- A/D voltage 4, Fluorometer, WET Labs ECO-AFL/FL -->
#     <FluoroWetlabECO_AFL_FL_Sensor SensorID="20" >
#       <SerialNumber>FLNTURT-2496</SerialNumber>
#       <CalibrationDate>08-May-2019</CalibrationDate>
#       <ScaleFactor>5.00000000e+001</ScaleFactor>
#       <!-- Dark output -->
#       <Vblank>0.0550</Vblank>
#     </FluoroWetlabECO_AFL_FL_Sensor>
#   </sensor>
#   <sensor Channel="9" >
#     <!-- A/D voltage 5, Turbidity Meter, WET Labs, ECO-NTU -->
#     <TurbidityMeter SensorID="67" >
#       <SerialNumber>FLNTURT-2496</SerialNumber>
#       <CalibrationDate>08-May-2019</CalibrationDate>
#       <ScaleFactor>189.000000</ScaleFactor>
#       <!-- Dark output -->
#       <DarkVoltage>0.071000</DarkVoltage>
#     </TurbidityMeter>
#   </sensor>
# </Sensors>
# datcnv_date = Jul 24 2019 21:33:57, 7.26.7.129 [datcnv_vars = 15]
# datcnv_in = C:\DATA\MSN2_CTD_CASTS_072419\072419_bvr50_c.hex C:\DATA\SBE19plusV2_7809.xmlcon
# datcnv_skipover = 0
# datcnv_ox_hysteresis_correction = yes
# datcnv_ox_tau_correction = yes
# filter_date = Jul 24 2019 21:34:29, 7.26.7.129
# filter_in = C:\DATA\MSN2_CTD_CASTS_072419\072419_bvr50_c.cnv
# filter_low_pass_tc_A = 0.030
# filter_low_pass_tc_B = 0.150
# filter_low_pass_A_vars = prdM prdE tv290C density00
# filter_low_pass_B_vars = depFM dz/dtM sbeox0Mg/L sbeox0PS specc c0uS/cm flECO-AFL ph orp par/sat/log turbWETntu0
# alignctd_date = Jul 24 2019 21:34:51, 7.26.7.129
# alignctd_in = C:\DATA\MSN2_CTD_CASTS_072419\072419_bvr50_c.cnv
# alignctd_adv = dz/dtM 1.000, sbeox0Mg/L 1.000, sbeox0PS 1.000, specc 1.000, c0uS/cm 1.000, flECO-AFL 1.000, ph 1.000, orp 1.000, turbWETntu0 1.000                                                                                 
# file_type = ascii
*END*
     -0.662 -3.695e-08     8.8009     96.122      0.184   0.164581    -0.1167      6.687 -1033.1689 1.2348e-01    -0.2127     -0.649     -0.941    19.6477   998.2820 0.0000e+00
     -0.662 -4.064e-07     8.8003     96.116      0.216   0.193366    -0.1064      6.683 -1059.0709 1.2363e-01    -0.1994     -0.648     -0.940    19.6472   998.2821 0.0000e+00
     -0.662      0.000     8.7981     96.091      0.199   0.178171    -0.1056      6.683 -1088.5214 1.2374e-01    -0.2166     -0.649     -0.941    19.6468   998.2822 0.0000e+00
     -0.662     -0.000     8.7942     96.047      0.191   0.170944    -0.1154      6.685 -1117.5404 1.2377e-01    -0.2568     -0.648     -0.940    19.6469   998.2822 0.0000e+00
     -0.662     -0.001     8.7922     96.022      0.190   0.169344    -0.1209      6.687 -1144.5064 1.2377e-01    -0.2596     -0.649     -0.941    19.6468   998.2822 0.0000e+00
     -0.662     -0.001     8.7928     96.025      0.178   0.158821    -0.1289      6.690 -1171.4183 1.2375e-01    -0.2508     -0.649     -0.942    19.6468   998.2822 0.0000e+00
     -0.662     -0.000     8.7932     96.025      0.190   0.170430    -0.1329      6.693 -1197.0293 1.2371e-01    -0.2811     -0.649     -0.941    19.6471   998.2821 0.0000e+00
     -0.662 -1.847e-08     8.7934     96.024      0.205   0.182995    -0.1259      6.692 -1218.9360 1.2364e-01    -0.3311     -0.649     -0.941    19.6469   998.2822 0.0000e+00
     -0.662 -2.032e-07     8.7950     96.038      0.206   0.184025    -0.1225      6.691 -1234.1835 1.2368e-01    -0.3966     -0.650     -0.942    19.6451   998.2825 0.0000e+00
     -0.662 -2.032e-07     8.7956     96.043      0.204   0.182882    -0.1272      6.692 -1240.0238 1.2381e-01    -0.4826     -0.649     -0.942    19.6430   998.2830 0.0000e+00
     -0.662 -1.802e-08     8.7960     96.043      0.189   0.169173    -0.1391      6.695 -1240.6797 1.2383e-01    -0.5195     -0.649     -0.941    19.6408   998.2834 0.0000e+00
     -0.662 3.3257e-09     8.7976     96.057      0.162   0.144983    -0.1453      6.696 -1240.7376 1.2381e-01    -0.4818     -0.649     -0.941    19.6392   998.2837 0.0000e+00
     -0.662 5.3378e-08     8.7984     96.063      0.161   0.143840    -0.1412      6.696 -1240.7235 1.2390e-01    -0.4521     -0.649     -0.941    19.6369   998.2842 0.0000e+00
     -0.662 5.8716e-07     8.7991     96.068      0.174   0.155353    -0.1335      6.697 -1240.5098 1.2396e-01    -0.4556     -0.649     -0.941    19.6358   998.2844 0.0000e+00
     -0.662      0.000     8.7989     96.064      0.176   0.157471    -0.1211      6.698 -1238.1535 1.2392e-01    -0.4586     -0.649     -0.941    19.6331   998.2849 0.0000e+00
     -0.662      0.000     8.7960     96.035      0.189   0.169442    -0.1121      6.702 -1212.2336 1.2382e-01    -0.4551     -0.648     -0.940    19.6333   998.2850 0.0000e+00
     -0.662      0.001     8.7877     96.002      0.194   0.173380    -0.1126      6.772  -927.1148 1.2373e-01    -0.4791     -0.649     -0.941    19.6289   998.2858 0.0000e+00
     -0.662      0.004     8.7312     95.962      0.158   0.141733    -0.1173      6.907  -380.5014 1.2370e-01    -0.5199     -0.649     -0.942    19.6323   998.2852 0.0000e+00
     -0.662      0.009     8.5656     95.921      0.244   0.230305    -0.1259      6.977   -16.0795 1.2369e-01    -0.5226     -0.649     -0.941    19.6234   998.2869 0.0000e+00
     -0.662      0.017     8.3272     95.876      0.885   0.864144    -0.1303      6.980   146.6925 1.2371e-01    -0.5111     -0.649     -0.941    19.6344   998.2849 0.0000e+00
     -0.659      0.027     8.1174     95.799      4.675   4.637498    -0.1269      7.016   466.7268 1.2377e-01    -0.5456     -0.648     -0.940    19.6116   998.2889 0.0000e+00
     -0.651      0.040     7.9768     95.739     13.355  13.340848    -0.1274      7.141   702.0683 1.2382e-01    -0.5789     -0.642     -0.931    19.6650   998.2792 0.0000e+00
     -0.636      0.057     7.8913     95.729     22.060  22.166097    -0.1275      7.357   497.1341 1.2383e-01    -0.5534     -0.625     -0.906    20.7053   998.0614 0.0000e+00
     -0.620      0.077     7.8382     95.708     26.176  26.441983    -0.1205      7.592   273.8294 1.2378e-01    -0.4995     -0.607     -0.880    22.4992   997.6624 0.0000e+00
     -0.603      0.094     7.8047     95.694     27.105  27.493083    -0.1200      7.775   252.0366 1.2375e-01    -0.4180     -0.596     -0.864    23.8185   997.3489 0.0000e+00
     -0.578      0.105     7.7829     95.702     27.232  27.706345    -0.1300      7.894   250.7611 1.2377e-01    -0.3227     -0.572     -0.829    24.6589   997.1421 0.0000e+00
     -0.542      0.109     7.7611     95.681     27.263  27.815211    -0.1297      7.966   253.2458 1.2380e-01    -0.2638     -0.532     -0.771    25.2092   997.0051 0.0000e+00
     -0.502      0.106     7.7380     95.663     27.284  27.921273    -0.1162      8.016   256.6973 1.2380e-01     0.0319     -0.489     -0.710    25.5151   996.9265 0.0000e+00
     -0.469      0.100     7.7164     95.669     27.313  28.037190    -0.0534      8.036   259.9705 1.2374e-01     3.3500     -0.455     -0.660    25.7363   996.8688 0.0000e+00
     -0.448      0.089     7.6960     95.668     27.273  28.074886     0.0579      8.018   261.6753 1.2371e-01     9.4426     -0.435     -0.631    25.8667   996.8344 0.0000e+00
     -0.436      0.074     7.6804     95.675     27.074  27.933054     0.1195      8.006   260.8758 1.2372e-01    12.8719     -0.428     -0.621    25.9976   996.7998 0.0000e+00
     -0.422      0.062     7.6711     95.710     26.759  27.654741     0.1629      8.051   258.3917 1.2373e-01    14.2694     -0.417     -0.605    26.1616   996.7562 0.0000e+00
     -0.404      0.055     7.6659     95.760     26.515  27.437992     0.5732      8.154   257.0223 1.2379e-01    26.1434     -0.394     -0.571    26.3227   996.7131 0.0000e+00
     -0.390      0.052     7.6694     95.827     26.416  27.342609     1.3179      8.266   256.6214 1.2386e-01    47.7993     -0.380     -0.550    26.4765   996.6717 0.0000e+00
     -0.381      0.050     7.6853     95.913     26.371  27.262795     1.7197      8.346   256.6416 1.2385e-01    59.4844     -0.375     -0.544    26.5954   996.6395 0.0000e+00
     -0.369      0.047     7.7050     95.998     26.329  27.170781     1.7554      8.387   256.9223 1.2381e-01    59.2456     -0.364     -0.528    26.6686   996.6196 0.0000e+00
     -0.354      0.045     7.7213     96.081     26.252  27.054751     1.7927      8.401   256.4878 1.2377e-01    44.6174     -0.345     -0.500    26.7531   996.5966 0.0000e+00
     -0.342      0.049     7.7342     96.167     26.161  26.938332     1.8494      8.409   255.7773 1.2372e-01    17.6057     -0.333     -0.482    26.7891   996.5869 0.0000e+00
     -0.334      0.056     7.7470     96.252     26.150  26.905091     1.8691      8.423   255.5588 1.2369e-01     2.8561     -0.328     -0.476    26.6910   996.6136 0.0000e+00
     -0.325      0.063     7.7682     96.367     26.195  26.906573     1.8579      8.435   255.5668 1.2371e-01     1.4675     -0.321     -0.466    26.5765   996.6447 0.0000e+00
     -0.310      0.068     7.7987     96.534     26.244  26.892737     1.8000      8.438   255.7015 1.2381e-01     1.3396     -0.307     -0.446    26.5119   996.6622 0.0000e+00
     -0.285      0.073     7.8286     96.725     26.331  26.928022     1.6987      8.435   256.3265 1.2387e-01     1.3758     -0.280     -0.406    26.4741   996.6725 0.0000e+00
     -0.259      0.078     7.8544     96.935     26.386  26.952463     1.6474      8.429   257.0150 1.2385e-01     1.3800     -0.251     -0.364    26.4564   996.6775 0.0000e+00
     -0.237      0.078     7.8772     97.164     26.321  26.870999     1.6388      8.419   257.5735 1.2384e-01     1.3573     -0.231     -0.335    26.3712   996.7005 0.0000e+00
     -0.219      0.074     7.8935     97.363     26.221  26.767759     1.6384      8.404   258.2613 1.2379e-01     1.3639     -0.215     -0.312    26.2147   996.7425 0.0000e+00
     -0.203      0.067     7.9033     97.528     26.224  26.782696     1.7200      8.383   258.9642 1.2375e-01     1.3943     -0.199     -0.288    26.1123   996.7701 0.0000e+00
     -0.186      0.058     7.9108     97.692     26.404  26.988185     1.8630      8.362   259.7047 1.2375e-01     1.3977     -0.181     -0.263    26.0579   996.7846 0.0000e+00
     -0.170      0.051     7.9144     97.824     26.731  27.349095     1.9280      8.346   260.5033 1.2372e-01     1.3712     -0.165     -0.240    26.0255   996.7933 0.0000e+00
     -0.158      0.043     7.9127     97.923     27.058  27.720582     1.9257      8.335   261.0489 1.2369e-01     1.3697     -0.153     -0.222    26.0264   996.7931 0.0000e+00
     -0.148      0.035     7.9200     98.192     27.268  27.990477     1.9043      8.326   261.5697 1.2366e-01     1.4112     -0.145     -0.210    26.0546   996.7856 0.0000e+00
     -0.141      0.026     7.9929     99.319     27.347  28.138138     1.8424      8.318   262.2404 1.2366e-01     1.4485     -0.138     -0.200    26.1001   996.7736 0.0000e+00
     -0.135      0.019     8.1280    101.199     27.322  28.173700     1.7920      8.311   262.6190 1.2368e-01     1.4272     -0.131     -0.190    26.1444   996.7619 0.0000e+00
     -0.131      0.013     8.1832    102.029     27.274  28.166761     1.7897      8.301   262.7916 1.2370e-01     1.3822     -0.128     -0.186    26.2045   996.7459 0.0000e+00
     -0.131      0.008     8.0770    100.801     27.259  28.181204     1.8491      8.291   263.0368 1.2375e-01     1.3632     -0.127     -0.185    26.3058   996.7189 0.0000e+00
     -0.131      0.003     7.8738     98.330     27.279  28.221484     1.9475      8.283   263.1744 1.2379e-01     1.3621     -0.129     -0.187    26.4468   996.6809 0.0000e+00
     -0.129     -0.001     7.6390     95.434     27.318  28.273145     1.9911      8.279   263.1646 1.2378e-01     1.3687     -0.127     -0.184    26.5673   996.6483 0.0000e+00
     -0.128     -0.004     7.3900     92.342     27.337  28.298281     1.9865      8.275   263.3487 1.2370e-01     1.3768     -0.123     -0.179    26.6384   996.6290 0.0000e+00
     -0.129     -0.005     7.1390     89.226     27.304  28.271636     2.0037      8.270   263.6792 1.2365e-01     1.3950     -0.125     -0.182    26.6891   996.6152 0.0000e+00
     -0.134     -0.005     6.8969     86.227     27.230  28.204771     2.0436      8.261   263.8918 1.2366e-01     1.4249     -0.132     -0.192    26.7274   996.6048 0.0000e+00
     -0.138     -0.004     6.6837     83.594     27.141  28.124281     2.0692      8.246   264.1122 1.2370e-01     1.4100     -0.137     -0.199    26.7455   996.5999 0.0000e+00
     -0.138     -0.003     6.5292     81.699     27.066  28.059807     2.0716      8.229   264.4506 1.2370e-01     1.3462     -0.135     -0.196    26.7511   996.5984 0.0000e+00
     -0.136      0.000     6.4300     80.504     27.049  28.059691     2.0543      8.210   264.7136 1.2368e-01     1.3089     -0.133     -0.193    26.7625   996.5953 0.0000e+00
     -0.136      0.001     6.3620     79.699     27.093  28.122904     2.0078      8.193   264.7981 1.2368e-01     1.3196     -0.133     -0.193    26.7829   996.5897 0.0000e+00
     -0.135      0.001     6.3090     79.071     27.144  28.189691     1.9506      8.178   264.9552 1.2366e-01     1.3456     -0.132     -0.190    26.8024   996.5843 0.0000e+00
     -0.134      0.000     6.2641     78.523     27.180  28.232781     1.9265      8.165   265.4091 1.2369e-01     1.3610     -0.130     -0.188    26.8271   996.5776 0.0000e+00
     -0.134     -0.000     6.2196     77.956     27.212  28.263226     1.9331      8.153   265.8977 1.2376e-01     1.3740     -0.132     -0.191    26.8620   996.5679 0.0000e+00
     -0.136     -0.000     6.1678     77.282     27.261  28.304014     1.9618      8.142   266.2164 1.2380e-01     1.3714     -0.134     -0.194    26.8962   996.5586 0.0000e+00
     -0.136     -0.001     6.1098     76.535     27.310  28.345262     2.0220      8.132   266.3370 1.2376e-01     1.3291     -0.134     -0.194    26.9244   996.5509 0.0000e+00
     -0.136     -0.001     6.0498     75.767     27.350  28.381261     2.0626      8.123   266.1518 1.2371e-01     1.3216     -0.133     -0.193    26.9386   996.5471 0.0000e+00
     -0.135     -0.001     5.9981     75.105     27.395  28.422046     2.0531      8.115   265.9566 1.2371e-01     1.3469     -0.132     -0.191    26.9276   996.5500 0.0000e+00
     -0.135     -0.001     5.9714     74.755     27.436  28.457694     2.0120      8.107   266.0406 1.2372e-01     1.3400     -0.132     -0.191    26.9051   996.5563 0.0000e+00
     -0.136     -0.001     5.9830     74.884     27.478  28.495040     1.9473      8.100   266.3072 1.2372e-01     1.3362     -0.133     -0.192    26.8879   996.5610 0.0000e+00
     -0.137     -0.001     6.0382     75.563     27.542  28.556353     1.9038      8.092   266.5997 1.2376e-01     1.3667     -0.135     -0.195    26.8779   996.5637 0.0000e+00
     -0.137     -0.001     6.1320     76.728     27.614  28.627997     1.8930      8.085   266.9961 1.2381e-01     1.3807     -0.134     -0.194    26.8697   996.5660 0.0000e+00
     -0.137     -0.001     6.2477     78.169     27.650  28.663360     1.8955      8.079   267.4863 1.2381e-01     1.3412     -0.133     -0.193    26.8570   996.5695 0.0000e+00
     -0.137     -0.000     6.3613     79.585     27.655  28.666700     1.9168      8.073   267.7943 1.2376e-01     1.3152     -0.134     -0.194    26.8422   996.5735 0.0000e+00
     -0.137     -0.000     6.4550     80.755     27.658  28.668376     1.9335      8.066   267.9671 1.2370e-01     1.3293     -0.134     -0.194    26.8330   996.5761 0.0000e+00
     -0.137     -0.001     6.5195     81.563     27.673  28.683618     1.9330      8.060   268.1983 1.2370e-01     1.3479     -0.135     -0.195    26.8287   996.5773 0.0000e+00
     -0.137     -0.001     6.5486     81.924     27.712  28.724100     1.9272      8.055   268.4392 1.2377e-01     1.3438     -0.134     -0.195    26.8244   996.5785 0.0000e+00
     -0.137     -0.001     6.5431     81.847     27.767  28.777167     1.9237      8.049   268.6428 1.2380e-01     1.3443     -0.134     -0.194    26.8202   996.5796 0.0000e+00
     -0.138     -0.001     6.5069     81.381     27.811  28.817664     1.9256      8.044   268.8533 1.2372e-01     1.3864     -0.135     -0.196    26.8185   996.5800 0.0000e+00
     -0.139     -0.000     6.4433     80.575     27.830  28.833047     1.9321      8.039   269.0060 1.2363e-01     1.4270     -0.136     -0.197    26.8194   996.5797 0.0000e+00
     -0.139      0.000     6.3594     79.527     27.833  28.836266     1.9425      8.034   269.1119 1.2365e-01     1.4097     -0.137     -0.199    26.8208   996.5795 0.0000e+00
     -0.138      0.000     6.2632     78.332     27.849  28.856586     1.9646      8.029   269.1865 1.2372e-01     1.3740     -0.136     -0.197    26.8150   996.5811 0.0000e+00
     -0.137      0.001     6.1609     77.063     27.876  28.888394     1.9915      8.024   269.0475 1.2373e-01     1.3891     -0.134     -0.194    26.8017   996.5847 0.0000e+00
     -0.137      0.001     6.0610     75.820     27.888  28.903620     1.9986      8.018   268.8950 1.2373e-01     1.3947     -0.134     -0.194    26.7927   996.5871 0.0000e+00
     -0.137      0.001     5.9741     74.737     27.896  28.913794     1.9902      8.012   268.9773 1.2376e-01     1.3765     -0.135     -0.195    26.7938   996.5869 0.0000e+00
     -0.137      0.001     5.9039     73.861     27.928  28.947968     1.9413      8.007   269.0968 1.2378e-01     1.3980     -0.135     -0.195    26.8019   996.5846 0.0000e+00
     -0.136      0.000     5.8547     73.243     27.979  28.999569     1.8583      8.002   269.1353 1.2379e-01     1.4252     -0.134     -0.194    26.8114   996.5820 0.0000e+00
     -0.136 1.5239e-08     5.8308     72.938     28.012  29.030117     1.8189      7.997   269.1839 1.2379e-01     1.4111     -0.133     -0.193    26.8168   996.5806 0.0000e+00
     -0.136 1.6763e-07     5.8273     72.888     28.047  29.063530     1.8208      7.993   269.2546 1.2375e-01     1.3586     -0.133     -0.193    26.8183   996.5802 0.0000e+00
     -0.136 -2.050e-07     5.8401     73.039     28.133  29.149757     1.8468      7.990   269.3881 1.2370e-01     1.3146     -0.134     -0.194    26.8194   996.5799 0.0000e+00
     -0.137      0.000     5.8671     73.367     28.232  29.247851     1.8908      7.987   269.5933 1.2361e-01     1.3381     -0.134     -0.194    26.8181   996.5802 0.0000e+00
     -0.137      0.000     5.9026     73.798     28.286  29.297841     1.9101      7.984   269.7568 1.2357e-01     1.3801     -0.134     -0.194    26.8130   996.5816 0.0000e+00
     -0.137     -0.001     5.9376     74.218     28.305  29.310031     1.9153      7.980   269.9013 1.2365e-01     1.3969     -0.134     -0.194    26.8073   996.5833 0.0000e+00
     -0.137     -0.001     5.9667     74.562     28.334  29.331783     1.9101      7.976   269.9647 1.2370e-01     1.3764     -0.133     -0.193    26.8023   996.5847 0.0000e+00
     -0.137     -0.001     5.9917     74.856     28.378  29.370487     1.8825      7.971   269.9208 1.2368e-01     1.3289     -0.134     -0.195    26.7944   996.5869 0.0000e+00
     -0.137     -0.001     6.0174     75.156     28.412  29.397290     1.8673      7.966   269.9723 1.2370e-01     1.3146     -0.134     -0.194    26.7843   996.5896 0.0000e+00
     -0.138     -0.002     6.0433     75.455     28.427  29.402050     1.8658      7.958   269.8136 1.2371e-01     1.3350     -0.135     -0.196    26.7712   996.5932 0.0000e+00
     -0.138     -0.003     6.0652     75.702     28.401  29.364571     1.8900      7.943   269.2067 1.2371e-01     1.3459     -0.136     -0.197    26.7542   996.5978 0.0000e+00
     -0.138     -0.004     6.0794     75.864     28.369  29.324820     1.9519      7.925   268.7430 1.2372e-01     1.3475     -0.135     -0.195    26.7413   996.6013 0.0000e+00
     -0.138     -0.005     6.0877     75.964     28.349  29.302103     1.9892      7.908   268.6811 1.2375e-01     1.3543     -0.134     -0.195    26.7301   996.6044 0.0000e+00
     -0.140     -0.006     6.0912     75.999     28.269  29.216795     1.9853      7.892   268.7156 1.2374e-01     1.3630     -0.137     -0.199    26.7100   996.6099 0.0000e+00
     -0.143     -0.006     6.0867     75.923     28.182  29.118198     1.9746      7.879   268.6438 1.2373e-01     1.3875     -0.142     -0.205    26.6857   996.6164 0.0000e+00
     -0.146     -0.006     6.0743     75.746     28.136  29.061693     1.9211      7.868   268.5877 1.2374e-01     1.3875     -0.144     -0.208    26.6744   996.6195 0.0000e+00
     -0.146     -0.005     6.0499     75.424     28.061  28.977716     1.8149      7.858   268.7257 1.2374e-01     1.3635     -0.143     -0.207    26.6779   996.6186 0.0000e+00
     -0.147     -0.002     6.0111     74.928     27.957  28.864204     1.7571      7.846   268.9356 1.2372e-01     1.3599     -0.144     -0.209    26.6745   996.6194 0.0000e+00
     -0.147     -0.000     5.9617     74.298     27.869  28.767822     1.7594      7.833   269.1474 1.2368e-01     1.3774     -0.145     -0.211    26.6551   996.6246 0.0000e+00
     -0.147      0.001     5.9027     73.549     27.810  28.700624     1.7301      7.821   269.3070 1.2370e-01     1.3781     -0.145     -0.210    26.6362   996.6297 0.0000e+00
     -0.146      0.001     5.8345     72.685     27.802  28.686184     1.6636      7.813   269.2305 1.2378e-01     1.3346     -0.143     -0.207    26.6251   996.6328 0.0000e+00
     -0.145      0.000     5.7603     71.740     27.843  28.720110     1.6221      7.806   269.0835 1.2379e-01     1.3114     -0.142     -0.206    26.6155   996.6354 0.0000e+00
     -0.145     -0.000     5.6880     70.812     27.864  28.730126     1.6181      7.798   269.0776 1.2372e-01     1.3593     -0.141     -0.205    26.6054   996.6381 0.0000e+00
     -0.146     -0.001     5.6247     69.995     27.828  28.680381     1.6854      7.792   269.1594 1.2368e-01     1.3893     -0.142     -0.207    26.5956   996.6407 0.0000e+00
     -0.147     -0.002     5.5714     69.304     27.788  28.626192     1.8115      7.788   269.2984 1.2369e-01     1.3463     -0.145     -0.210    26.5855   996.6435 0.0000e+00
     -0.148     -0.002     5.5261     68.715     27.756  28.582495     1.8682      7.784   269.4672 1.2372e-01     1.3307     -0.146     -0.211    26.5705   996.6475 0.0000e+00
     -0.148     -0.002     5.4866     68.201     27.718  28.532705     1.8593      7.783   269.6522 1.2374e-01     1.3648     -0.145     -0.211    26.5478   996.6537 0.0000e+00
     -0.149     -0.001     5.4511     67.739     27.727  28.531735     1.8603      7.782   269.8137 1.2372e-01     1.3655     -0.146     -0.212    26.5229   996.6605 0.0000e+00
     -0.149      0.000     5.4179     67.304     27.775  28.570757     1.8709      7.780   269.9576 1.2371e-01     1.3387     -0.146     -0.211    26.5015   996.6662 0.0000e+00
     -0.148      0.001     5.3863     66.887     27.775  28.560381     1.8842      7.776   270.0161 1.2375e-01     1.3364     -0.145     -0.210    26.4817   996.6715 0.0000e+00
     -0.148      0.002     5.3561     66.487     27.698  28.469701     1.8825      7.770   269.9184 1.2375e-01     1.3370     -0.145     -0.211    26.4625   996.6767 0.0000e+00
     -0.148      0.002     5.3256     66.088     27.603  28.362583     1.8760      7.760   269.8086 1.2375e-01     1.3460     -0.145     -0.211    26.4455   996.6813 0.0000e+00
     -0.147      0.002     5.2937     65.675     27.592  28.343802     1.8832      7.746   269.7206 1.2373e-01     1.3474     -0.145     -0.210    26.4284   996.6859 0.0000e+00
     -0.146      0.001     5.2598     65.237     27.625  28.369501     1.8834      7.731   269.6288 1.2366e-01     1.2882     -0.143     -0.208    26.4075   996.6916 0.0000e+00
     -0.146      0.000     5.2238     64.772     27.621  28.356062     1.8696      7.716   269.5597 1.2363e-01     1.2532     -0.142     -0.206    26.3856   996.6975 0.0000e+00
     -0.146     -0.001     5.1875     64.302     27.646  28.371639     1.8463      7.704   269.5742 1.2363e-01     1.2847     -0.142     -0.206    26.3674   996.7023 0.0000e+00
     -0.147     -0.003     5.1524     63.846     27.713  28.430937     1.8271      7.692   269.6308 1.2367e-01     1.3415     -0.144     -0.208    26.3539   996.7060 0.0000e+00
     -0.148     -0.003     5.1187     63.408     27.729  28.438554     1.8198      7.681   269.6416 1.2377e-01     1.3823     -0.145     -0.210    26.3414   996.7093 0.0000e+00
     -0.149     -0.002     5.0872     63.000     27.639  28.336829     1.8103      7.672   269.6189 1.2383e-01     1.3524     -0.146     -0.211    26.3249   996.7137 0.0000e+00
     -0.150     -0.001     5.0592     62.639     27.528  28.216107     1.8072      7.663   269.5290 1.2380e-01     1.3401     -0.148     -0.214    26.3065   996.7187 0.0000e+00
     -0.150      0.000     5.0328     62.301     27.503  28.184368     1.8429      7.654   269.5015 1.2375e-01     1.3647     -0.148     -0.215    26.2890   996.7235 0.0000e+00
     -0.149      0.001     5.0038     61.931     27.530  28.206849     1.9042      7.643   269.6305 1.2380e-01     1.3550     -0.146     -0.212    26.2716   996.7280 0.0000e+00
     -0.148      0.001     4.9735     61.544     27.562  28.234135     1.9330      7.634   269.7113 1.2381e-01     1.3545     -0.145     -0.210    26.2557   996.7323 0.0000e+00
     -0.147      0.001     4.9466     61.196     27.595  28.260499     1.9228      7.630   269.6183 1.2378e-01     1.3577     -0.144     -0.209    26.2422   996.7359 0.0000e+00
     -0.147      0.001     4.9226     60.883     27.614  28.271815     1.8840      7.628   269.5383 1.2378e-01     1.3614     -0.144     -0.209    26.2321   996.7386 0.0000e+00
     -0.148      0.001     4.9001     60.589     27.595  28.244048     1.8369      7.627   269.6046 1.2376e-01     1.3659     -0.145     -0.210    26.2247   996.7406 0.0000e+00
     -0.148      0.001     4.8797     60.322     27.538  28.178548     1.8129      7.623   269.7308 1.2374e-01     1.3477     -0.146     -0.211    26.2145   996.7434 0.0000e+00
     -0.148      0.002     4.8610     60.079     27.482  28.114293     1.8021      7.613   269.8597 1.2375e-01     1.3380     -0.145     -0.211    26.1998   996.7473 0.0000e+00
     -0.147      0.002     4.8427     59.844     27.474  28.101594     1.7931      7.598   269.9586 1.2379e-01     1.3462     -0.145     -0.210    26.1844   996.7514 0.0000e+00
     -0.145      0.002     4.8245     59.610     27.527  28.151891     1.7729      7.579   270.0665 1.2380e-01     1.3486     -0.143     -0.207    26.1693   996.7555 0.0000e+00
     -0.144      0.002     4.8069     59.383     27.593  28.214860     1.7567      7.564   270.1317 1.2377e-01     1.3337     -0.141     -0.204    26.1552   996.7592 0.0000e+00
     -0.144      0.002     4.7914     59.180     27.613  28.228489     1.7533      7.543   269.8864 1.2376e-01     1.3305     -0.141     -0.204    26.1436   996.7622 0.0000e+00
     -0.145      0.002     4.7799     59.026     27.580  28.189777     1.7329      7.511   269.3388 1.2374e-01     1.3430     -0.142     -0.206    26.1366   996.7641 0.0000e+00
     -0.145      0.002     4.7737     58.938     27.525  28.127461     1.7094      7.483   268.7585 1.2371e-01     1.3533     -0.142     -0.206    26.1310   996.7656 0.0000e+00
     -0.144      0.003     4.7717     58.906     27.511  28.109473     1.7024      7.476   268.2043 1.2374e-01     1.3899     -0.142     -0.206    26.1204   996.7684 0.0000e+00
     -0.143      0.006     4.7713     58.899     27.626  28.226059     1.7009      7.489   267.8864 1.2378e-01     1.4244     -0.140     -0.203    26.1077   996.7719 0.0000e+00
     -0.141      0.012     4.7706     58.897     27.726  28.331621     1.7004      7.507   267.8402 1.2381e-01     1.4103     -0.138     -0.201    26.0986   996.7743 0.0000e+00
     -0.140      0.019     4.7689     58.889     27.572  28.180355     1.7129      7.524   267.6454 1.2381e-01     1.3831     -0.138     -0.200    26.0878   996.7772 0.0000e+00
     -0.137      0.026     4.7649     58.861     27.306  27.919815     1.7390      7.549   267.3387 1.2376e-01     1.3580     -0.136     -0.197    26.0780   996.7797 0.0000e+00
     -0.129      0.032     4.7533     58.751     27.279  27.909601     1.7565      7.578   266.9705 1.2371e-01     1.3025     -0.129     -0.187    26.0766   996.7802 0.0000e+00
     -0.115      0.041     4.7348     58.550     27.533  28.183782     1.7597      7.601   266.2051 1.2369e-01     1.2697     -0.112     -0.163    26.0844   996.7783 0.0000e+00
     -0.102      0.052     4.7206     58.390     27.841  28.506792     1.7516      7.608   265.2262 1.2373e-01     1.3220     -0.097     -0.141    26.0957   996.7753 0.0000e+00
     -0.092      0.062     4.7259     58.471     27.904  28.579365     1.7453      7.590   264.5987 1.2377e-01     1.3777     -0.092     -0.133    26.1115   996.7710 0.0000e+00
     -0.079      0.070     4.7616     58.941     27.616  28.299900     1.7526      7.559   264.2972 1.2373e-01     1.3859     -0.082     -0.118    26.1512   996.7604 0.0000e+00
     -0.059      0.074     4.8223     59.743     27.283  27.982901     1.7533      7.540   264.0747 1.2370e-01     1.3557     -0.061     -0.088    26.1850   996.7516 0.0000e+00
     -0.032      0.075     4.8935     60.666     27.139  27.855431     1.7455      7.537   264.0597 1.2370e-01     1.3072     -0.032     -0.046    26.1875   996.7511 0.0000e+00
     -0.004      0.073     4.9701     61.605     27.125  27.837270     1.7539      7.537   264.2020 1.2373e-01     1.3244      0.002      0.002    26.2006   996.7479 0.0000e+00
      0.015      0.069     5.0574     62.639     27.200  27.890195     1.7678      7.536   264.1608 1.2378e-01     1.3668      0.020      0.029    26.2223   996.7420 0.0000e+00
      0.024      0.065     5.1503     63.753     27.374  28.051187     1.7667      7.531   263.9062 1.2374e-01     1.3618      0.022      0.032    26.2743   996.7280 0.0000e+00
      0.034      0.063     5.2318     64.761     27.579  28.261112     1.7836      7.519   263.7901 1.2365e-01     1.3623      0.031      0.045    26.3409   996.7101 0.0000e+00
      0.048      0.066     5.2914     65.514     27.705  28.398137     1.8334      7.501   263.8760 1.2368e-01     1.3728      0.047      0.068    26.3195   996.7159 0.0000e+00
      0.066      0.073     5.3278     65.968     27.744  28.439037     1.8736      7.488   263.9121 1.2375e-01     1.3898      0.062      0.091    26.2542   996.7335 0.0000e+00
      0.087      0.082     5.3418     66.128     27.750  28.438409     1.8797      7.483   263.8823 1.2379e-01     1.4036      0.084      0.122    26.2192   996.7429 0.0000e+00
      0.112      0.087     5.3347     66.025     27.710  28.390529     1.8477      7.476   263.9462 1.2379e-01     1.3751      0.110      0.161    26.2245   996.7418 0.0000e+00
      0.137      0.088     5.3081     65.687     27.629  28.304226     1.8068      7.464   264.0819 1.2376e-01     1.3733      0.136      0.197    26.2511   996.7349 0.0000e+00
      0.161      0.086     5.2641     65.139     27.610  28.283168     1.8017      7.448   264.1470 1.2371e-01     1.4148      0.158      0.230    26.2525   996.7346 0.0000e+00
      0.184      0.081     5.2093     64.462     27.652  28.326257     1.8120      7.435   264.3027 1.2367e-01     1.4183      0.181      0.262    26.2332   996.7399 0.0000e+00
      0.204      0.075     5.1516     63.755     27.640  28.317632     1.8098      7.425   264.6744 1.2369e-01     1.3833      0.203      0.293    26.2196   996.7436 0.0000e+00
      0.220      0.070     5.0961     63.079     27.624  28.305788     1.8102      7.413   265.0274 1.2373e-01     1.3521      0.216      0.314    26.2142   996.7450 0.0000e+00
      0.235      0.067     5.0465     62.474     27.685  28.373391     1.8159      7.405   265.3873 1.2371e-01     1.3690      0.228      0.331    26.2110   996.7460 0.0000e+00
      0.251      0.066     5.0031     61.953     27.678  28.373666     1.8184      7.402   265.8428 1.2375e-01     1.4236      0.246      0.357    26.2114   996.7459 0.0000e+00
      0.268      0.067     4.9657     61.515     27.603  28.309132     1.8233      7.398   266.2319 1.2385e-01     1.4216      0.264      0.382    26.2181   996.7442 0.0000e+00
      0.283      0.068     4.9338     61.140     27.637  28.354486     1.8232      7.394   266.5654 1.2381e-01     1.3457      0.276      0.400    26.2304   996.7410 0.0000e+00
      0.302      0.070     4.9065     60.815     27.689  28.414480     1.8165      7.393   266.8627 1.2373e-01     1.2921      0.295      0.428    26.2338   996.7402 0.0000e+00
      0.322      0.070     4.8838     60.538     27.611  28.336627     1.8202      7.393   267.0732 1.2373e-01     1.2981      0.318      0.462    26.2461   996.7370 0.0000e+00
      0.339      0.069     4.8650     60.297     27.518  28.237966     1.8245      7.393   267.2185 1.2377e-01     1.3199      0.331      0.481    26.2765   996.7289 0.0000e+00
      0.357      0.068     4.8485     60.079     27.586  28.300144     1.8343      7.390   267.3280 1.2382e-01     1.3254      0.349      0.505    26.2933   996.7245 0.0000e+00
      0.376      0.068     4.8314     59.862     27.800  28.517395     1.8614      7.384   267.5375 1.2380e-01     1.2990      0.370      0.536    26.3049   996.7214 0.0000e+00
      0.393      0.068     4.8291     59.866     27.970  28.707555     1.8832      7.374   267.7730 1.2374e-01     1.2966      0.386      0.560    26.3125   996.7194 0.0000e+00
      0.407      0.069     4.9124     61.021     27.963  28.759422     1.8972      7.357   267.7653 1.2373e-01     1.3626      0.398      0.576    26.3033   996.7220 0.0000e+00
      0.422      0.071     5.1851     64.649     27.860  28.763931     1.9268      7.337   267.7026 1.2372e-01     1.4081      0.411      0.596    26.2859   996.7267 0.0000e+00
      0.443      0.072     5.6722     71.018     27.735  28.762241     1.9730      7.319   267.7900 1.2371e-01     1.3878      0.434      0.630    26.2754   996.7297 0.0000e+00
      0.464      0.074     6.2746     78.823     27.610  28.739200     2.0052      7.307   267.9614 1.2371e-01     1.3783      0.457      0.662    26.2843   996.7275 0.0000e+00
      0.484      0.079     6.8740     86.553     27.539  28.739288     2.0127      7.293   268.1404 1.2371e-01     1.3922      0.474      0.688    26.3770   996.7026 0.0000e+00
      0.501      0.083     7.3968     93.279     27.515  28.763419     1.9947      7.275   268.3196 1.2371e-01     1.3594      0.492      0.714    26.6071   996.6405 0.0000e+00
      0.519      0.084     7.7954     98.402     27.499  28.777247     1.9598      7.263   268.4070 1.2372e-01     1.3100      0.507      0.735    26.8677   996.5695 0.0000e+00
      0.543      0.083     8.0496    101.672     27.483  28.779636     1.9378      7.261   268.2508 1.2373e-01     1.3193      0.529      0.768    27.0581   996.5172 0.0000e+00
      0.570      0.082     8.1577    103.075     27.484  28.792332     1.9285      7.262   268.0658 1.2373e-01     1.3402      0.562      0.815    27.1867   996.4819 0.0000e+00
      0.594      0.080     8.1370    102.835     27.489  28.803875     1.9252      7.263   268.1492 1.2373e-01     1.3332      0.585      0.846    27.2713   996.4585 0.0000e+00
      0.612      0.077     8.0345    101.552     27.474  28.792330     1.9324      7.263   268.4839 1.2373e-01     1.3333      0.600      0.870    27.3248   996.4437 0.0000e+00
      0.628      0.074     7.9047     99.922     27.459  28.779630     1.9371      7.261   268.8438 1.2373e-01     1.3413      0.616      0.894    27.3581   996.4346 0.0000e+00
      0.644      0.072     7.7828     98.390     27.454  28.777227     1.9303      7.254   269.0595 1.2373e-01     1.3646      0.630      0.915    27.3765   996.4295 0.0000e+00
      0.661      0.072     7.6814     97.110     27.440  28.763280     1.9283      7.246   269.1134 1.2371e-01     1.3857      0.647      0.938    27.3867   996.4267 0.0000e+00
      0.681      0.074     7.6005     96.075     27.419  28.737883     1.9474      7.240   269.2364 1.2371e-01     1.3670      0.668      0.968    27.3927   996.4251 0.0000e+00
      0.701      0.075     7.5377     95.248     27.417  28.723933     1.9713      7.233   269.4286 1.2372e-01     1.3347      0.688      0.998    27.3985   996.4236 0.0000e+00
      0.722      0.072     7.4922     94.624     27.430  28.721500     1.9831      7.229   269.5440 1.2373e-01     1.3231      0.707      1.025    27.4050   996.4219 0.0000e+00
      0.743      0.067     7.4598     94.175     27.430  28.708439     1.9853      7.228   269.6852 1.2374e-01     1.3579      0.729      1.058    27.4052   996.4220 0.0000e+00
      0.761      0.062     7.4372     93.855     27.426  28.692876     1.9552      7.227   269.7596 1.2375e-01     1.3945      0.750      1.088    27.4026   996.4227 0.0000e+00
      0.774      0.058     7.4221     93.628     27.406  28.660210     1.9049      7.226   269.7553 1.2374e-01     1.3721      0.760      1.102    27.3819   996.4286 0.0000e+00
      0.784      0.056     7.4109     93.432     27.333  28.567242     1.8809      7.222   269.8050 1.2367e-01     1.3505      0.767      1.113    27.3437   996.4393 0.0000e+00
      0.795      0.056     7.4040     93.249     27.258  28.457035     1.8808      7.213   269.9308 1.2363e-01     1.3615      0.779      1.129    27.3232   996.4450 0.0000e+00
      0.809      0.060     7.4018     93.076     27.255  28.406244     1.8783      7.202   270.1577 1.2365e-01     1.3745      0.794      1.151    27.3054   996.4500 0.0000e+00
      0.825      0.065     7.3971     92.858     27.296  28.397174     1.8676      7.194   270.3971 1.2372e-01     1.3769      0.808      1.172    27.2834   996.4562 0.0000e+00
      0.843      0.070     7.3832     92.552     27.290  28.347291     1.8641      7.187   270.5885 1.2379e-01     1.3576      0.825      1.196    27.2599   996.4627 0.0000e+00
      0.865      0.074     7.3628     92.175     27.233  28.247163     1.8707      7.182   270.8365 1.2380e-01     1.3374      0.849      1.231    27.2047   996.4782 0.0000e+00
      0.886      0.077     7.3427     91.776     27.174  28.138158     1.9216      7.176   271.0732 1.2376e-01     1.3299      0.871      1.263    27.1091   996.5047 0.0000e+00
      0.904      0.081     7.3277     91.423     27.136  28.044374     2.0111      7.168   271.1268 1.2375e-01     1.3320      0.886      1.287    26.9995   996.5349 0.0000e+00
      0.922      0.084     7.3212     91.169     27.150  28.001372     2.0513      7.160   271.1417 1.2374e-01     1.3295      0.903      1.311    26.9261   996.5551 0.0000e+00
      0.941      0.084     7.3196     90.987     27.200  27.998812     2.0523      7.154   271.2525 1.2374e-01     1.3331      0.921      1.335    26.8662   996.5716 0.0000e+00
      0.966      0.080     7.3204     90.873     27.254  28.013335     2.0323      7.150   271.4338 1.2380e-01     1.3427      0.943      1.369    26.7710   996.5978 0.0000e+00
      0.994      0.072     7.3283     90.908     27.309  28.050008     1.9732      7.149   271.6130 1.2383e-01     1.3150      0.976      1.417    26.6682   996.6259 0.0000e+00
      1.018      0.061     7.3443     91.096     27.324  28.061525     1.9367      7.150   271.6988 1.2378e-01     1.2935      1.003      1.454    26.5623   996.6548 0.0000e+00
      1.031      0.049     7.3623     91.325     27.287  28.025690     1.9369      7.151   271.7825 1.2375e-01     1.3112      1.014      1.470    26.4525   996.6845 0.0000e+00
      1.035      0.039     7.3787     91.507     27.267  27.997401     1.9413      7.150   271.8510 1.2375e-01     1.3323      1.016      1.474    26.3747   996.7055 0.0000e+00
      1.036      0.034     7.3947     91.651     27.261  27.973264     1.9638      7.147   271.9249 1.2375e-01     1.3519      1.015      1.472    26.3369   996.7157 0.0000e+00
      1.040      0.034     7.4091     91.773     27.231  27.924157     1.9926      7.141   272.0737 1.2373e-01     1.3523      1.018      1.476    26.3369   996.7157 0.0000e+00
      1.049      0.040     7.4207     91.876     27.231  27.911173     1.9944      7.132   272.2733 1.2374e-01     1.3372      1.028      1.490    26.3555   996.7107 0.0000e+00
      1.062      0.048     7.4322     91.981     27.274  27.943147     1.9862      7.120   272.5312 1.2379e-01     1.3325      1.042      1.510    26.3435   996.7140 0.0000e+00
      1.078      0.056     7.4436     92.086     27.273  27.930069     1.9713      7.107   272.7831 1.2380e-01     1.3289      1.057      1.533    26.2996   996.7258 0.0000e+00
      1.094      0.065     7.4516     92.164     27.231  27.879918     1.9437      7.097   273.0814 1.2376e-01     1.3255      1.073      1.557    26.2619   996.7360 0.0000e+00
      1.111      0.076     7.4515     92.145     27.201  27.844319     1.9301      7.088   273.3844 1.2373e-01     1.3240      1.090      1.580    26.2428   996.7412 0.0000e+00
      1.126      0.088     7.4418     91.988     27.186  27.816861     1.9371      7.081   273.5219 1.2373e-01     1.3442      1.104      1.601    26.2217   996.7470 0.0000e+00
      1.146      0.099     7.4277     91.756     27.190  27.801678     2.0023      7.077   273.5391 1.2377e-01     1.3730      1.120      1.625    26.1931   996.7546 0.0000e+00
      1.176      0.108     7.4158     91.531     27.201  27.787605     2.1196      7.075   273.5065 1.2380e-01     1.3770      1.150      1.668    26.1841   996.7572 0.0000e+00
      1.213      0.114     7.4094     91.360     27.217  27.773546     2.1855      7.075   273.5581 1.2377e-01     1.3603      1.190      1.726    26.1808   996.7582 0.0000e+00
      1.249      0.116     7.4083     91.260     27.230  27.758546     2.1918      7.074   273.7321 1.2375e-01     1.3352      1.227      1.779    26.1568   996.7648 0.0000e+00
      1.279      0.112     7.4079     91.194     27.225  27.733076     2.2312      7.072   273.8046 1.2376e-01     1.3355      1.255      1.821    26.1226   996.7741 0.0000e+00
      1.305      0.104     7.4054     91.122     27.225  27.719340     2.3149      7.071   273.9183 1.2379e-01     1.3638      1.280      1.856    26.0767   996.7864 0.0000e+00
      1.329      0.096     7.4025     91.057     27.235  27.719330     2.3634      7.069   274.0734 1.2380e-01     1.3828      1.303      1.890    26.0145   996.8031 0.0000e+00
      1.352      0.089     7.3993     90.993     27.256  27.732945     2.3656      7.067   274.0449 1.2380e-01     1.3687      1.327      1.925    25.9579   996.8182 0.0000e+00
      1.372      0.084     7.3949     90.919     27.286  27.757055     2.3591      7.064   274.0905 1.2380e-01     1.3243      1.345      1.951    25.9229   996.8275 0.0000e+00
      1.392      0.079     7.3929     90.882     27.290  27.757056     2.3804      7.061   274.2814 1.2379e-01     1.3047      1.363      1.977    25.9001   996.8338 0.0000e+00
      1.414      0.075     7.3931     90.878     27.268  27.732948     2.4404      7.057   274.3730 1.2376e-01     1.3279      1.387      2.011    25.8824   996.8385 0.0000e+00
      1.434      0.071     7.3922     90.864     27.256  27.719334     2.4774      7.049   274.4244 1.2374e-01     1.3425      1.408      2.041    25.8687   996.8422 0.0000e+00
      1.451      0.067     7.3908     90.846     27.256  27.719343     2.4821      7.039   274.5586 1.2376e-01     1.3506      1.424      2.065    25.8566   996.8455 0.0000e+00
      1.465      0.062     7.3906     90.846     27.269  27.733062     2.5402      7.033   274.7055 1.2376e-01     1.3591      1.436      2.082    25.8486   996.8477 0.0000e+00
      1.480      0.057     7.3905     90.852     27.292  27.758314     2.6519      7.031   274.8240 1.2374e-01     1.3481      1.450      2.103    25.8454   996.8486 0.0000e+00
      1.497      0.052     7.3883     90.831     27.302  27.770898     2.7144      7.031   274.8729 1.2376e-01     1.3478      1.471      2.132    25.8444   996.8489 0.0000e+00
      1.510      0.048     7.3829     90.768     27.288  27.758324     2.7134      7.029   274.8669 1.2378e-01     1.3558      1.484      2.150    25.8434   996.8492 0.0000e+00
      1.519      0.045     7.3753     90.672     27.264  27.733176     2.6405      7.027   274.9225 1.2385e-01     1.3469      1.490      2.161    25.8442   996.8490 0.0000e+00
      1.529      0.044     7.3693     90.592     27.254  27.720602     2.5097      7.026   275.0300 1.2387e-01     1.3712      1.498      2.173    25.8496   996.8477 0.0000e+00
      1.539      0.044     7.3678     90.557     27.272  27.733177     2.4324      7.025   275.1331 1.2377e-01     1.3869      1.508      2.187    25.8549   996.8464 0.0000e+00
      1.550      0.048     7.3684     90.538     27.306  27.758327     2.4165      7.023   275.3946 1.2368e-01     1.3411      1.520      2.206    25.8570   996.8459 0.0000e+00
      1.561      0.056     7.3668     90.491     27.326  27.770903     2.4303      7.018   275.7835 1.2363e-01     1.3088      1.530      2.219    25.8551   996.8464 0.0000e+00
      1.574      0.066     7.3614     90.404     27.321  27.758329     2.4690      7.008   276.0491 1.2364e-01     1.3243      1.542      2.237    25.8520   996.8472 0.0000e+00
      1.591      0.076     7.3521     90.272     27.301  27.733172     2.4944      7.000   276.2826 1.2368e-01     1.3638      1.559      2.262    25.8429   996.8496 0.0000e+00
      1.612      0.086     7.3413     90.126     27.294  27.720494     2.4942      6.995   276.5426 1.2371e-01     1.3939      1.578      2.288    25.8232   996.8550 0.0000e+00
      1.639      0.094     7.3318     89.997     27.309  27.731926     2.5280      6.991   276.6109 1.2376e-01     1.3931      1.608      2.331    25.8063   996.8597 0.0000e+00
      1.668      0.097     7.3191     89.827     27.326  27.744491     2.6170      6.989   276.5920 1.2380e-01     1.3874      1.638      2.375    25.7951   996.8628 0.0000e+00
      1.695      0.094     7.3014     89.599     27.331  27.745531     2.6677      6.988   276.5716 1.2378e-01     1.3895      1.661      2.408    25.7845   996.8656 0.0000e+00
      1.721      0.088     7.2834     89.370     27.332  27.744492     2.6647      6.989   276.4510 1.2376e-01     1.3855      1.690      2.450    25.7762   996.8678 0.0000e+00
      1.744      0.081     7.2668     89.162     27.321  27.731917     2.6587      6.989   276.4250 1.2379e-01     1.3725      1.714      2.485    25.7686   996.8701 0.0000e+00
      1.760      0.075     7.2525     88.983     27.311  27.720373     2.6294      6.989   276.5153 1.2378e-01     1.3626      1.728      2.506    25.7597   996.8725 0.0000e+00
      1.774      0.070     7.2420     88.852     27.323  27.731813     2.5792      6.989   276.5957 1.2373e-01     1.3654      1.738      2.521    25.7523   996.8744 0.0000e+00
      1.789      0.066     7.2362     88.778     27.335  27.743347     2.5542      6.990   276.6228 1.2370e-01     1.3400      1.752      2.540    25.7476   996.8756 0.0000e+00
      1.808      0.064     7.2351     88.762     27.326  27.732938     2.5529      6.990   276.5854 1.2366e-01     1.3180      1.774      2.574    25.7449   996.8766 0.0000e+00
      1.827      0.066     7.2354     88.762     27.327  27.732843     2.5199      6.990   276.5737 1.2366e-01     1.3941      1.794      2.602    25.7434   996.8770 0.0000e+00
      1.842      0.069     7.2335     88.735     27.338  27.742195     2.4590      6.987   276.6527 1.2370e-01     1.5065      1.807      2.620    25.7419   996.8775 0.0000e+00
      1.857      0.073     7.2284     88.669     27.316  27.719117     2.4316      6.981   276.8525 1.2371e-01     1.5624      1.820      2.640    25.7401   996.8781 0.0000e+00
      1.874      0.075     7.2213     88.579     27.305  27.707582     2.4322      6.976   277.0102 1.2368e-01     1.5788      1.836      2.662    25.7378   996.8787 0.0000e+00
      1.894      0.078     7.2145     88.493     27.327  27.729622     2.4920      6.970   277.0972 1.2368e-01     1.5733      1.856      2.691    25.7358   996.8793 0.0000e+00
      1.918      0.081     7.2096     88.432     27.330  27.731815     2.6089      6.963   277.3027 1.2371e-01     1.5623      1.882      2.730    25.7338   996.8800 0.0000e+00
      1.941      0.082     7.2061     88.388     27.333  27.734104     2.6660      6.954   277.5159 1.2371e-01     1.5760      1.906      2.764    25.7321   996.8805 0.0000e+00
      1.961      0.081     7.2033     88.354     27.356  27.757297     2.6711      6.946   277.6096 1.2376e-01     1.6085      1.924      2.790    25.7310   996.8809 0.0000e+00
      1.981      0.077     7.2026     88.344     27.357  27.758461     2.6796      6.937   277.5751 1.2378e-01     1.5950      1.942      2.817    25.7297   996.8813 0.0000e+00
      2.001      0.070     7.2048     88.371     27.347  27.748176     2.6809      6.928   277.5299 1.2369e-01     1.5760      1.964      2.848    25.7287   996.8816 0.0000e+00
      2.020      0.062     7.2088     88.421     27.359  27.759833     2.6785      6.924   277.6644 1.2366e-01     1.6095      1.982      2.874    25.7279   996.8820 0.0000e+00
      2.037      0.055     7.2130     88.472     27.371  27.772522     2.6765      6.927   277.8252 1.2368e-01     1.6056      1.999      2.899    25.7275   996.8822 0.0000e+00
      2.050      0.050     7.2177     88.530     27.373  27.774706     2.6836      6.933   277.9258 1.2368e-01     1.5621      2.013      2.920    25.7276   996.8822 0.0000e+00
      2.057      0.047     7.2231     88.596     27.384  27.786241     2.7027      6.941   278.0208 1.2373e-01     1.5421      2.016      2.925    25.7273   996.8823 0.0000e+00
      2.064      0.047     7.2277     88.652     27.383  27.785097     2.7173      6.947   278.0262 1.2378e-01     1.5598      2.021      2.932    25.7273   996.8823 0.0000e+00
      2.075      0.049     7.2302     88.682     27.359  27.760874     2.7214      6.950   277.9912 1.2378e-01     1.6125      2.035      2.952    25.7272   996.8824 0.0000e+00
      2.090      0.054     7.2302     88.682     27.346  27.747137     2.7176      6.951   277.9417 1.2375e-01     1.6555      2.048      2.971    25.7269   996.8825 0.0000e+00
      2.105      0.059     7.2274     88.647     27.345  27.745887     2.7232      6.953   277.8574 1.2376e-01     1.6536      2.063      2.992    25.7271   996.8825 0.0000e+00
      2.123      0.063     7.2211     88.568     27.346  27.745765     2.7373      6.954   277.8333 1.2377e-01     1.6221      2.082      3.020    25.7268   996.8827 0.0000e+00
      2.140      0.065     7.2143     88.481     27.347  27.745650     2.7408      6.954   277.9078 1.2375e-01     1.6350      2.100      3.046    25.7267   996.8828 0.0000e+00
      2.156      0.068     7.2099     88.422     27.347  27.744495     2.7391      6.952   278.0703 1.2371e-01     1.6783      2.115      3.066    25.7268   996.8829 0.0000e+00
      2.171      0.071     7.2090     88.405     27.336  27.731808     2.7000      6.947   278.1634 1.2369e-01     1.6545      2.128      3.086    25.7262   996.8831 0.0000e+00
      2.189      0.073     7.2100     88.411     27.326  27.719130     2.6232      6.940   278.0865 1.2371e-01     1.6086      2.144      3.110    25.7254   996.8834 0.0000e+00
      2.209      0.074     7.2090     88.393     27.327  27.718091     2.5910      6.933   278.0007 1.2371e-01     1.6153      2.164      3.140    25.7235   996.8839 0.0000e+00
      2.231      0.072     7.2053     88.343     27.330  27.719245     2.6054      6.927   277.9007 1.2368e-01     1.6366      2.187      3.172    25.7200   996.8850 0.0000e+00
      2.253      0.068     7.1992     88.264     27.345  27.733077     2.5886      6.925   277.7384 1.2367e-01     1.6044      2.212      3.207    25.7157   996.8862 0.0000e+00
      2.271      0.063     7.1927     88.183     27.370  27.758443     2.5450      6.926   277.6722 1.2371e-01     1.5536      2.231      3.235    25.7121   996.8872 0.0000e+00
      2.283      0.059     7.1867     88.110     27.385  27.772171     2.5284      6.927   277.7882 1.2372e-01     1.5467      2.241      3.250    25.7084   996.8883 0.0000e+00
      2.292      0.055     7.1801     88.029     27.385  27.772170     2.5354      6.927   278.0237 1.2371e-01     1.5869      2.248      3.259    25.7048   996.8893 0.0000e+00
      2.304      0.053     7.1745     87.959     27.371  27.758433     2.5605      6.927   278.1958 1.2372e-01     1.6142      2.256      3.273    25.7030   996.8897 0.0000e+00
      2.320      0.052     7.1722     87.929     27.346  27.732973     2.5976      6.927   278.2349 1.2372e-01     1.5816      2.274      3.299    25.7024   996.8899 0.0000e+00
      2.336      0.054     7.1755     87.968     27.332  27.718102     2.6196      6.928   278.3236 1.2375e-01     1.5864      2.293      3.326    25.7026   996.8900 0.0000e+00
      2.350      0.057     7.1834     88.062     27.321  27.705508     2.6268      6.927   278.3219 1.2376e-01     1.6391      2.306      3.344    25.7024   996.8902 0.0000e+00
      2.361      0.060     7.1930     88.177     27.324  27.707586     2.6415      6.925   278.2152 1.2371e-01     1.6609      2.316      3.359    25.7017   996.8904 0.0000e+00
      2.374      0.064     7.2003     88.263     27.360  27.743230     2.6588      6.921   278.2373 1.2371e-01     1.6534      2.325      3.374    25.7012   996.8905 0.0000e+00
      2.391      0.068     7.2024     88.283     27.374  27.755813     2.6630      6.917   278.2458 1.2371e-01     1.6144      2.344      3.399    25.6995   996.8911 0.0000e+00
      2.411      0.071     7.2016     88.268     27.353  27.732839     2.6662      6.916   278.2321 1.2370e-01     1.5828      2.365      3.430    25.6976   996.8917 0.0000e+00
      2.432      0.074     7.1989     88.229     27.342  27.719225     2.6617      6.916   278.3291 1.2372e-01     1.5983      2.383      3.457    25.6960   996.8922 0.0000e+00
      2.453      0.076     7.1979     88.208     27.344  27.718091     2.6352      6.917   278.4720 1.2378e-01     1.6057      2.407      3.492    25.6941   996.8928 0.0000e+00
      2.472      0.077     7.2014     88.242     27.348  27.719124     2.6060      6.917   278.5827 1.2378e-01     1.6072      2.426      3.519    25.6913   996.8936 0.0000e+00
      2.488      0.079     7.2014     88.233     27.363  27.731708     2.5951      6.917   278.7216 1.2368e-01     1.6158      2.438      3.537    25.6870   996.8948 0.0000e+00
      2.506      0.081     7.1917     88.105     27.378  27.743346     2.5986      6.917   278.7750 1.2364e-01     1.6119      2.457      3.564    25.6830   996.8959 0.0000e+00
      2.527      0.083     7.1737     87.880     27.369  27.732955     2.6054      6.917   278.7117 1.2365e-01     1.5931      2.478      3.594    25.6784   996.8972 0.0000e+00
      2.551      0.084     7.1532     87.625     27.370  27.732955     2.6077      6.916   278.8170 1.2365e-01     1.5520      2.500      3.626    25.6727   996.8988 0.0000e+00
      2.576      0.084     7.1376     87.430     27.382  27.743337     2.6087      6.915   279.0156 1.2371e-01     1.5414      2.526      3.664    25.6666   996.9005 0.0000e+00
      2.600      0.084     7.1276     87.304     27.372  27.731593     2.6181      6.912   279.0478 1.2372e-01     1.5625      2.553      3.702    25.6613   996.9021 0.0000e+00
      2.620      0.083     7.1197     87.205     27.359  27.717847     2.6683      6.908   279.0348 1.2370e-01     1.6439      2.570      3.728    25.6585   996.9029 0.0000e+00
      2.636      0.081     7.1128     87.120     27.345  27.704014     2.7560      6.906   279.1166 1.2370e-01     1.7716      2.584      3.748    25.6563   996.9035 0.0000e+00
      2.655      0.078     7.1086     87.066     27.333  27.691231     2.7953      6.906   279.1767 1.2375e-01     1.8278      2.603      3.774    25.6535   996.9043 0.0000e+00
      2.679      0.076     7.1061     87.034     27.333  27.690173     2.7797      6.905   279.2449 1.2376e-01     1.8315      2.627      3.810    25.6514   996.9050 0.0000e+00
      2.701      0.075     7.1042     87.007     27.335  27.691220     2.7319      6.904   279.4248 1.2372e-01     1.7837      2.650      3.844    25.6502   996.9054 0.0000e+00
      2.719      0.076     7.1044     87.004     27.349  27.703899     2.6509      6.900   279.7172 1.2372e-01     1.6767      2.667      3.868    25.6496   996.9056 0.0000e+00
      2.735      0.077     7.1041     86.994     27.364  27.716578     2.6059      6.894   279.9403 1.2375e-01     1.5860      2.683      3.891    25.6487   996.9060 0.0000e+00
      2.751      0.078     7.1019     86.958     27.368  27.717628     2.5951      6.889   279.8863 1.2379e-01     1.5389      2.697      3.913    25.6477   996.9063 0.0000e+00
      2.770      0.081     7.0995     86.917     27.372  27.716589     2.5470      6.886   279.8384 1.2377e-01     1.5331      2.715      3.937    25.6458   996.9068 0.0000e+00
      2.794      0.085     7.0955     86.855     27.364  27.704006     2.4746      6.883   279.9629 1.2369e-01     1.5491      2.739      3.973    25.6423   996.9079 0.0000e+00
      2.819      0.088     7.0878     86.750     27.356  27.692369     2.4309      6.879   280.0151 1.2368e-01     1.5691      2.766      4.012    25.6379   996.9092 0.0000e+00
      2.842      0.089     7.0764     86.608     27.367  27.702769     2.4176      6.876   280.0401 1.2370e-01     1.5776      2.787      4.042    25.6323   996.9107 0.0000e+00
      2.864      0.086     7.0621     86.433     27.367  27.702863     2.4090      6.876   280.1793 1.2369e-01     1.5531      2.807      4.072    25.6248   996.9128 0.0000e+00
      2.889      0.080     7.0474     86.248     27.359  27.693512     2.3875      6.876   280.3206 1.2370e-01     1.5361      2.834      4.111    25.6147   996.9155 0.0000e+00
      2.910      0.073     7.0355     86.090     27.386  27.716592     2.3657      6.875   280.2860 1.2370e-01     1.5354      2.856      4.142    25.6073   996.9176 0.0000e+00
      2.927      0.066     7.0298     86.004     27.403  27.728139     2.3617      6.876   280.1911 1.2367e-01     1.5450      2.870      4.162    25.6068   996.9178 0.0000e+00
      2.942      0.061     7.0313     86.004     27.388  27.706226     2.3574      6.879   280.2917 1.2370e-01     1.5866      2.886      4.186    25.6090   996.9173 0.0000e+00
      2.956      0.059     7.0358     86.040     27.393  27.705396     2.4000      6.882   280.4703 1.2372e-01     1.6125      2.901      4.208    25.6073   996.9178 0.0000e+00
      2.967      0.061     7.0368     86.037     27.411  27.718095     2.4949      6.883   280.6295 1.2371e-01     1.5957      2.908      4.218    25.5980   996.9202 0.0000e+00
      2.979      0.067     7.0302     85.946     27.430  27.732873     2.5344      6.883   280.8396 1.2371e-01     1.5799      2.919      4.233    25.5863   996.9233 0.0000e+00
      2.995      0.075     7.0165     85.771     27.456  27.757193     2.5309      6.883   281.0321 1.2370e-01     1.5864      2.936      4.259    25.5761   996.9260 0.0000e+00
      3.017      0.084     7.0004     85.570     27.459  27.758365     2.5387      6.881   281.1510 1.2366e-01     1.6077      2.956      4.287    25.5630   996.9296 0.0000e+00
      3.043      0.093     6.9865     85.393     27.450  27.747039     2.5427      6.879   281.3303 1.2367e-01     1.6410      2.984      4.328    25.5513   996.9329 0.0000e+00
      3.070      0.100     6.9745     85.241     27.452  27.747136     2.5361      6.878   281.5649 1.2373e-01     1.6279      3.013      4.370    25.5454   996.9345 0.0000e+00
      3.095      0.102     6.9630     85.093     27.466  27.759530     2.5280      6.878   281.5789 1.2372e-01     1.5806      3.034      4.402    25.5422   996.9355 0.0000e+00
      3.122      0.099     6.9533     84.968     27.479  27.770009     2.5316      6.879   281.4984 1.2367e-01     1.6584      3.061      4.439    25.5394   996.9363 0.0000e+00
      3.151      0.093     6.9462     84.874     27.459  27.746939     2.5442      6.879   281.6244 1.2367e-01     1.8148      3.091      4.483    25.5354   996.9375 0.0000e+00
      3.176      0.086     6.9418     84.817     27.448  27.734364     2.5512      6.879   281.8125 1.2370e-01     1.8663      3.117      4.521    25.5312   996.9387 0.0000e+00
      3.196      0.078     6.9418     84.816     27.459  27.744851     2.5464      6.878   281.8794 1.2371e-01     1.8227      3.136      4.547    25.5271   996.9398 0.0000e+00
      3.213      0.071     6.9456     84.860     27.462  27.746846     2.5377      6.878   281.9166 1.2374e-01     1.7792      3.150      4.569    25.5219   996.9412 0.0000e+00
      3.228      0.066     6.9509     84.920     27.474  27.758487     2.5417      6.877   282.0046 1.2381e-01     1.7987      3.167      4.593    25.5177   996.9424 0.0000e+00
      3.242      0.066     6.9569     84.985     27.478  27.758703     2.5509      6.875   282.0836 1.2378e-01     1.8295      3.181      4.614    25.5154   996.9431 0.0000e+00
      3.256      0.068     6.9623     85.025     27.478  27.749457     2.5454      6.873   282.0967 1.2370e-01     1.8234      3.190      4.628    25.5141   996.9434 0.0000e+00
      3.274      0.073     6.9638     84.997     27.518  27.773570     2.5448      6.871   282.1641 1.2372e-01     1.8238      3.209      4.655    25.5134   996.9437 0.0000e+00
      3.295      0.077     6.9577     84.864     27.561  27.796453     2.6123      6.868   282.3820 1.2377e-01     1.8338      3.232      4.689    25.5121   996.9442 0.0000e+00
      3.317      0.082     6.9416     84.608     27.558  27.772328     2.7283      6.865   282.5805 1.2376e-01     1.8465      3.252      4.717    25.5084   996.9453 0.0000e+00
      3.338      0.084     6.9181     84.266     27.541  27.735620     2.7861      6.863   282.6702 1.2373e-01     1.8469      3.274      4.748    25.4925   996.9495 0.0000e+00
      3.360      0.084     6.8936     83.918     27.556  27.733250     2.7830      6.861   282.6925 1.2371e-01     1.8384      3.295      4.780    25.4603   996.9580 0.0000e+00
      3.383      0.084     6.8723     83.616     27.582  27.743646     2.7255      6.860   282.8502 1.2362e-01     1.9073      3.318      4.812    25.4205   996.9685 0.0000e+00
      3.405      0.085     6.8563     83.378     27.588  27.734404     2.6194      6.859   283.2005 1.2362e-01     2.0242      3.340      4.845    25.3810   996.9789 0.0000e+00
      3.425      0.089     6.8470     83.223     27.618  27.748376     2.5576      6.858   283.4865 1.2369e-01     2.0724      3.359      4.872    25.3453   996.9882 0.0000e+00
      3.445      0.094     6.8433     83.129     27.673  27.785666     2.5504      6.857   283.6407 1.2369e-01     2.0637      3.378      4.899    25.3134   996.9966 0.0000e+00
      3.467      0.097     6.8422     83.054     27.714  27.804576     2.5587      6.858   283.7743 1.2370e-01     1.9839      3.397      4.929    25.2861   997.0038 0.0000e+00
      3.494      0.100     6.8392     82.946     27.785  27.850093     2.5803      6.857   283.9828 1.2375e-01     1.8618      3.424      4.968    25.2591   997.0108 0.0000e+00
      3.526      0.103     6.8282     82.748     27.850  27.891855     2.6023      6.851   284.2690 1.2377e-01     1.8323      3.460      5.017    25.2314   997.0181 0.0000e+00
      3.556      0.107     6.8028     82.383     27.845  27.865378     2.6175      6.847   284.5682 1.2374e-01     1.8571      3.491      5.063    25.2028   997.0257 0.0000e+00
      3.579      0.109     6.7582     81.772     27.853  27.847150     2.6339      6.847   284.7617 1.2374e-01     1.9006      3.510      5.091    25.1618   997.0364 0.0000e+00
      3.602      0.107     6.6922     80.872     27.906  27.861757     2.6525      6.846   284.9736 1.2379e-01     1.9974      3.528      5.117    25.1078   997.0504 0.0000e+00
      3.632      0.103     6.6101     79.746     27.947  27.851604     2.6614      6.845   285.2369 1.2377e-01     2.0766      3.560      5.163    25.0670   997.0610 0.0000e+00
      3.663      0.100     6.5277     78.600     27.942  27.787754     2.6636      6.844   285.4493 1.2374e-01     2.1045      3.596      5.214    25.0344   997.0696 0.0000e+00
      3.690      0.098     6.4578     77.590     27.879  27.660665     2.6522      6.843   285.7351 1.2373e-01     2.0724      3.621      5.251    24.9940   997.0801 0.0000e+00
      3.712      0.096     6.4068     76.788     27.812  27.520327     2.6277      6.840   286.0258 1.2372e-01     2.0493      3.640      5.279    24.9255   997.0976 0.0000e+00
      3.732      0.093     6.3832     76.286     27.800  27.423145     2.6185      6.838   286.2112 1.2374e-01     2.0871      3.660      5.309    24.8266   997.1231 0.0000e+00
      3.753      0.089     6.4003     76.250     27.845  27.373730     2.6198      6.837   286.2562 1.2376e-01     2.1035      3.679      5.337    24.7245   997.1490 0.0000e+00
      3.778      0.089     6.4774     76.932     27.866  27.303385     2.6087      6.837   286.3109 1.2374e-01     2.0507      3.704      5.372    24.6064   997.1789 0.0000e+00
      3.804      0.089     6.6238     78.432     27.794  27.143464     2.5442      6.836   286.5284 1.2374e-01     1.9403      3.733      5.414    24.4782   997.2114 0.0000e+00
      3.826      0.088     6.8171     80.449     27.710  26.962634     2.4378      6.836   286.7354 1.2376e-01     1.8508      3.754      5.445    24.3239   997.2501 0.0000e+00
      3.846      0.084     7.0169     82.503     27.685  26.829787     2.3721      6.837   286.9210 1.2373e-01     1.8202      3.770      5.468    24.1449   997.2948 0.0000e+00
      3.869      0.077     7.1986     84.349     27.700  26.742464     2.3564      6.838   287.2231 1.2369e-01     1.8002      3.795      5.503    23.9820   997.3351 0.0000e+00
      3.892      0.070     7.3635     86.034     27.710  26.667968     2.3701      6.840   287.4626 1.2370e-01     1.8052      3.819      5.540    23.8323   997.3720 0.0000e+00
      3.909      0.065     7.5210     87.656     27.677  26.563351     2.3990      6.843   287.4944 1.2374e-01     1.8472      3.836      5.563    23.6546   997.4155 0.0000e+00
      3.921      0.064     7.6671     89.121     27.618  26.429056     2.4200      6.843   287.6076 1.2376e-01     1.8817      3.846      5.578    23.4441   997.4665 0.0000e+00
      3.931      0.064     7.7879     90.234     27.595  26.312930     2.4326      6.840   287.8848 1.2378e-01     1.8954      3.854      5.590    23.2530   997.5125 0.0000e+00
      3.944      0.066     7.8795     90.978     27.622  26.237632     2.4036      6.839   288.1787 1.2382e-01     1.9147      3.865      5.606    23.1044   997.5480 0.0000e+00
      3.964      0.071     7.9476     91.491     27.623  26.152896     2.3383      6.839   288.4939 1.2382e-01     1.9832      3.885      5.634    22.9870   997.5759 0.0000e+00
      3.988      0.078     7.9872     91.759     27.577  26.049551     2.3109      6.839   288.7708 1.2378e-01     2.0690      3.912      5.674    22.8563   997.6068 0.0000e+00
      4.009      0.084     7.9841     91.550     27.518  25.939611     2.3156      6.837   289.0313 1.2375e-01     2.0996      3.934      5.705    22.6787   997.6486 0.0000e+00
      4.028      0.086     7.9274     90.626     27.503  25.838578     2.3246      6.835   289.3196 1.2373e-01     2.0915      3.947      5.725    22.4815   997.6946 0.0000e+00
      4.050      0.084     7.8084     88.921     27.558  25.779432     2.3430      6.835   289.5901 1.2369e-01     2.0685      3.969      5.757    22.3088   997.7345 0.0000e+00
      4.076      0.082     7.6256     86.550     27.609  25.731837     2.3553      6.837   289.8075 1.2371e-01     2.0517      3.999      5.800    22.2169   997.7557 0.0000e+00
      4.100      0.081     7.3895     83.640     27.599  25.643607     2.3612      6.838   290.0540 1.2376e-01     2.0845      4.023      5.834    22.1609   997.7686 0.0000e+00
      4.117      0.080     7.1221     80.377     27.574  25.537239     2.3012      6.837   290.3338 1.2380e-01     2.0061      4.038      5.856    21.9909   997.8074 0.0000e+00
      4.132      0.078     6.8440     76.980     27.594  25.460656     2.1762      6.836   290.5238 1.2378e-01     1.7601      4.051      5.876    21.7470   997.8624 0.0000e+00
      4.151      0.076     6.5666     73.616     27.646  25.415330     2.1153      6.836   290.6304 1.2370e-01     1.6006      4.069      5.901    21.5786   997.9001 0.0000e+00
      4.173      0.075     6.2988     70.407     27.686  25.369700     2.1196      6.836   290.6758 1.2372e-01     1.5849      4.093      5.936    21.4634   997.9258 0.0000e+00
      4.195      0.076     6.0509     67.467     27.675  25.289467     2.1251      6.836   290.7281 1.2381e-01     1.6024      4.116      5.970    21.3096   997.9598 0.0000e+00
      4.214      0.077     5.8329     64.896     27.650  25.206396     2.1821      6.836   290.8330 1.2379e-01     1.6814      4.134      5.996    21.1258   998.0002 0.0000e+00
      4.231      0.081     5.6490     62.721     27.626  25.126462     2.2968      6.835   291.0845 1.2375e-01     1.8191      4.149      6.017    20.9513   998.0381 0.0000e+00
      4.248      0.086     5.5008     60.932     27.582  25.020719     2.3676      6.834   291.7037 1.2376e-01     1.8589      4.164      6.040    20.8014   998.0705 0.0000e+00
      4.269      0.094     5.3836     59.460     27.587  24.942765     2.3964      6.832   292.6409 1.2374e-01     1.8017      4.185      6.070    20.6794   998.0967 0.0000e+00
      4.294      0.106     5.2860     58.188     27.622  24.881619     2.6104      6.831   293.3817 1.2373e-01     1.7171      4.209      6.105    20.5738   998.1193 0.0000e+00
      4.324      0.119     5.1940     56.974     27.628  24.788771     3.0129      6.832   293.6913 1.2373e-01     1.6229      4.239      6.149    20.4752   998.1403 0.0000e+00
      4.356      0.129     5.0936     55.666     27.653  24.708115     3.2566      6.830   293.9748 1.2372e-01     1.5807      4.272      6.196    20.3634   998.1639 0.0000e+00
      4.392      0.134     4.9774     54.192     27.723  24.667515     3.3897      6.824   294.4008 1.2374e-01     1.5675      4.304      6.244    20.2123   998.1958 0.0000e+00
      4.432      0.134     4.8435     52.553     27.843  24.678360     4.4577      6.819   294.7127 1.2379e-01     1.5280      4.347      6.305    20.0359   998.2326 0.0000e+00
      4.470      0.129     4.6908     50.757     27.967  24.712241     6.4073      6.819   294.9921 1.2385e-01     1.4316      4.386      6.361    19.8637   998.2682 0.0000e+00
      4.503      0.120     4.5218     48.853     27.997  24.696452     7.4807      6.819   295.4564 1.2387e-01     1.3521      4.416      6.404    19.6726   998.3073 0.0000e+00
      4.533      0.109     4.3466     46.924     27.927  24.614276     7.5787      6.819   295.9385 1.2386e-01     1.3533      4.448      6.451    19.4773   998.3468 0.0000e+00
      4.558      0.099     4.1771     45.034     27.890  24.543295     7.5489      6.819   296.1753 1.2379e-01     1.3148      4.474      6.488    19.3016   998.3821 0.0000e+00
      4.576      0.090     4.0291     43.331     27.960  24.535967     7.4853      6.817   296.2549 1.2371e-01     1.1820      4.488      6.508    19.1524   998.4117 0.0000e+00
      4.595      0.082     3.9157     42.006     28.025  24.525586     7.4503      6.816   296.4699 1.2369e-01     1.0909      4.505      6.533    19.0801   998.4261 0.0000e+00
      4.620      0.076     3.8323     41.050     28.021  24.481122     7.4814      6.816   296.6246 1.2372e-01     1.0986      4.531      6.572    19.0799   998.4262 0.0000e+00
      4.643      0.072     3.7642     40.285     28.005  24.442355     7.8264      6.816   296.5758 1.2378e-01     1.1434      4.557      6.609    19.0264   998.4367 0.0000e+00
      4.658      0.068     3.7056     39.635     28.017  24.437439     8.4404      6.816   296.5684 1.2376e-01     1.1739      4.570      6.628    18.8702   998.4673 0.0000e+00
      4.672      0.062     3.6618     39.158     28.006  24.421650     8.7665      6.816   296.6218 1.2369e-01     1.1724      4.579      6.642    18.7262   998.4953 0.0000e+00
      4.688      0.057     3.6339     38.838     27.974  24.378315     8.7956      6.816   296.7906 1.2369e-01     1.1574      4.598      6.669    18.6692   998.5064 0.0000e+00
      4.703      0.057     3.6177     38.593     28.009  24.357519     8.7919      6.815   297.0603 1.2375e-01     1.1243      4.615      6.693    18.6359   998.5128 0.0000e+00
      4.714      0.058     3.6088     38.395     28.097  24.360438     8.6442      6.813   297.2162 1.2378e-01     1.1003      4.622      6.704    18.5931   998.5210 0.0000e+00
      4.725      0.059     3.6020     38.231     28.162  24.350078     8.3712      6.812   297.3843 1.2376e-01     1.1293      4.630      6.716    18.6000   998.5197 0.0000e+00
      4.743      0.060     3.5941     38.076     28.158  24.295598     8.2304      6.810   297.6303 1.2374e-01     1.1470      4.649      6.744    18.6010   998.5196 0.0000e+00
      4.763      0.065     3.5810     37.879     28.106  24.209151     8.2249      6.809   297.7820 1.2373e-01     1.1176      4.674      6.779    18.4973   998.5395 0.0000e+00
      4.780      0.072     3.5577     37.575     28.061  24.129456     8.1573      6.806   297.9272 1.2372e-01     1.1015      4.690      6.801    18.3315   998.5710 0.0000e+00
      4.792      0.078     3.5247     37.145     28.090  24.093167     8.0194      6.801   298.1815 1.2373e-01     1.0834      4.697      6.813    18.2200   998.5920 0.0000e+00
      4.809      0.082     3.4824     36.591     28.179  24.087486     7.9368      6.797   298.4475 1.2370e-01     1.0626      4.712      6.835    18.1322   998.6085 0.0000e+00
      4.835      0.084     3.4319     35.950     28.245  24.060651     7.9130      6.796   298.6491 1.2363e-01     1.0794      4.741      6.876    18.0567   998.6226 0.0000e+00
      4.864      0.085     3.3765     35.278     28.284  24.022344     7.8105      6.797   298.8121 1.2365e-01     1.1225      4.773      6.923    18.0085   998.6316 0.0000e+00
      4.888      0.084     3.3164     34.578     28.329  24.004830     7.6245      6.797   298.9550 1.2371e-01     1.1579      4.796      6.956    17.8971   998.6522 0.0000e+00
      4.908      0.079     3.2513     33.842     28.350  23.975683     7.5186      6.796   299.1728 1.2372e-01     1.1468      4.813      6.981    17.7356   998.6819 0.0000e+00
      4.926      0.074     3.1855     33.107     28.338  23.923611     7.5272      6.795   299.3805 1.2372e-01     1.1192      4.832      7.008    17.5796   998.7102 0.0000e+00
      4.942      0.069     3.1259     32.438     28.337  23.882646     7.7287      6.795   299.4878 1.2375e-01     1.1192      4.847      7.030    17.4531   998.7330 0.0000e+00
      4.957      0.068     3.0714     31.828     28.357  23.860926     8.0820      6.794   299.7808 1.2373e-01     1.1146      4.861      7.049    17.3584   998.7499 0.0000e+00
      4.973      0.070     3.0202     31.253     28.391  23.851256     8.2706      6.794   300.2560 1.2368e-01     1.0964      4.876      7.072    17.2786   998.7642 0.0000e+00
      4.992      0.074     2.9775     30.761     28.418  23.829117     8.3008      6.793   300.5870 1.2368e-01     1.0958      4.895      7.100    17.2073   998.7768 0.0000e+00
      5.012      0.079     2.9424     30.338     28.427  23.783489     8.4911      6.791   300.6862 1.2366e-01     1.1078      4.915      7.128    17.1356   998.7895 0.0000e+00
      5.032      0.083     2.9105     29.947     28.447  23.743539     8.8457      6.789   300.8537 1.2365e-01     1.1420      4.934      7.155    17.0666   998.8017 0.0000e+00
      5.054      0.085     2.8807     29.582     28.492  23.726611     9.0332      6.789   301.2353 1.2372e-01     1.1490      4.955      7.186    17.0054   998.8125 0.0000e+00
      5.078      0.086     2.8492     29.206     28.525  23.705613     9.0506      6.787   301.5149 1.2381e-01     1.0945      4.979      7.223    16.9279   998.8259 0.0000e+00
      5.102      0.084     2.8109     28.766     28.547  23.679889     9.1167      6.784   301.7384 1.2386e-01     1.0731      5.005      7.259    16.8301   998.8429 0.0000e+00
      5.123      0.081     2.7662     28.269     28.580  23.669272     9.8236      6.782   302.1314 1.2387e-01     1.1523      5.023      7.285    16.7271   998.8607 0.0000e+00
      5.143      0.080     2.7169     27.737     28.580  23.640632    11.1296      6.781   302.5664 1.2384e-01     1.2654      5.043      7.315    16.6291   998.8775 0.0000e+00
      5.164      0.080     2.6609     27.138     28.548  23.587298    11.8510      6.780   302.9541 1.2381e-01     1.3260      5.066      7.349    16.5481   998.8913 0.0000e+00
      5.180      0.084     2.5989     26.472     28.521  23.531850    11.9571      6.779   303.2052 1.2377e-01     1.3613      5.080      7.368    16.4691   998.9046 0.0000e+00
      5.196      0.088     2.5355     25.784     28.510  23.477638    12.4824      6.776   303.2802 1.2374e-01     1.4301      5.092      7.385    16.3943   998.9172 0.0000e+00
      5.220      0.088     2.4752     25.120     28.529  23.439233    13.4508      6.773   303.4294 1.2375e-01     1.5353      5.117      7.421    16.3543   998.9240 0.0000e+00
      5.249      0.085     2.4188     24.507     28.594  23.448023    13.9813      6.771   303.6329 1.2375e-01     1.5843      5.148      7.466    16.3149   998.9306 0.0000e+00
      5.279      0.080     2.3646     23.936     28.635  23.457003    14.0335      6.771   303.5904 1.2372e-01     1.5643      5.179      7.512    16.2550   998.9408 0.0000e+00
      5.301      0.072     2.3130     23.398     28.613  23.420908    14.1163      6.771   303.4312 1.2370e-01     1.5549      5.203      7.547    16.1795   998.9533 0.0000e+00
      5.314      0.063     2.2634     22.880     28.602  23.392170    14.2797      6.771   303.4296 1.2370e-01     1.5687      5.213      7.560    16.0682   998.9715 0.0000e+00
      5.321      0.056     2.2155     22.375     28.597  23.363244    14.3792      6.770   303.4845 1.2376e-01     1.5674      5.217      7.567    15.9791   998.9862 0.0000e+00
      5.331      0.054     2.1716     21.896     28.603  23.324868    14.4187      6.769   303.4921 1.2383e-01     1.5390      5.227      7.581    15.9532   998.9903 0.0000e+00
      5.344      0.057     2.1282     21.410     28.658  23.308710    14.7997      6.769   303.5221 1.2378e-01     1.5861      5.240      7.599    15.9251   998.9948 0.0000e+00
      5.360      0.062     2.0755     20.833     28.716  23.294666    15.5095      6.768   303.5890 1.2373e-01     1.7437      5.255      7.621    15.8883   999.0009 0.0000e+00
      5.379      0.068     1.9993     20.029     28.765  23.281853    15.8996      6.765   303.6121 1.2378e-01     1.8383      5.276      7.652    15.8618   999.0053 0.0000e+00
      5.399      0.073     1.8827     18.830     28.820  23.280593    15.9447      6.761   303.5442 1.2379e-01     1.8129      5.296      7.681    15.7818   999.0182 0.0000e+00
      5.416      0.074     1.7131     17.109     28.868  23.279369    16.0980      6.758   303.5420 1.2376e-01     1.7970      5.310      7.702    15.6606   999.0376 0.0000e+00
      5.436      0.072     1.4830     14.791     28.897  23.267012    17.8320      6.758   303.7576 1.2374e-01     1.9404      5.329      7.731    15.5509   999.0550 0.0000e+00
      5.457      0.069     1.1992     11.946     28.929  23.258009    21.0183      6.758   303.9996 1.2367e-01     2.2031      5.354      7.766    15.4592   999.0695 0.0000e+00
      5.475      0.067     0.8875      8.830     29.023  23.297341    22.7615      6.758   304.0596 1.2361e-01     2.3187      5.371      7.789    15.3840   999.0813 0.0000e+00
      5.490      0.067     0.5774      5.738     29.152  23.361932    22.9129      6.758   304.0524 1.2366e-01     2.2898      5.385      7.810    15.3132   999.0923 0.0000e+00
      5.504      0.068     0.2914      2.893     29.262  23.404602    22.8824      6.755   304.0850 1.2375e-01     2.2798      5.398      7.829    15.2539   999.1015 0.0000e+00
      5.518      0.069     0.0515      0.513     29.360  23.432613    22.8270      6.753   304.1950 1.2383e-01     2.2958      5.410      7.845    15.1954   999.1106 0.0000e+00
      5.537      0.071    -0.1191     -1.175     29.439  23.446821    22.8067      6.752   304.3509 1.2382e-01     2.3195      5.428      7.872    15.1325   999.1203 0.0000e+00
      5.560      0.071    -0.2175     -2.145     29.495  23.449470    22.8015      6.750   304.5068 1.2378e-01     2.3367      5.452      7.907    15.0691   999.1301 0.0000e+00
      5.582      0.071    -0.2559     -2.521     29.567  23.464585    22.7382      6.749   304.7028 1.2378e-01     2.3731      5.477      7.943    14.9932   999.1417 0.0000e+00
      5.600      0.068    -0.2481     -2.441     29.666  23.502660    22.6312      6.748   304.9146 1.2380e-01     2.4650      5.494      7.968    14.9005   999.1557 0.0000e+00
      5.614      0.062    -0.2099     -2.062     29.731  23.529193    22.5907      6.746   305.0886 1.2377e-01     2.4965      5.505      7.984    14.8133   999.1688 0.0000e+00
      5.629      0.056    -0.1563     -1.536     29.728  23.531624    22.6909      6.745   305.1719 1.2374e-01     2.4595      5.521      8.007    14.7492   999.1783 0.0000e+00
      5.643      0.051    -0.0997     -0.981     29.699  23.532059    23.7294      6.746   305.2332 1.2376e-01     2.5090      5.536      8.029    14.6808   999.1885 0.0000e+00
      5.654      0.049    -0.0450     -0.442     29.690  23.534490    25.6284      6.746   305.3997 1.2379e-01     2.6037      5.545      8.043    14.5984   999.2007 0.0000e+00
      5.664      0.049     0.0044      0.043     29.755  23.561024    26.6908      6.744   305.5502 1.2379e-01     2.6538      5.554      8.055    14.5457   999.2084 0.0000e+00
      5.675      0.049     0.0465      0.456     29.864  23.599114    27.0896      6.743   305.5047 1.2375e-01     2.6564      5.565      8.072    14.5608   999.2062 0.0000e+00
      5.689      0.049     0.0839      0.821     29.949  23.614376    30.4244      6.743   305.2789 1.2369e-01     2.6351      5.578      8.089    14.6234   999.1972 0.0000e+00
      5.704      0.048     0.1174      1.148     30.014  23.618631    36.5279      6.743   305.0574 1.2366e-01     2.6583      5.593      8.112    14.6598   999.1919 0.0000e+00
      5.719      0.048     0.1449      1.415     30.088  23.650497    39.8592      6.743   304.9779 1.2371e-01     2.7077      5.609      8.135    14.6001   999.2007 0.0000e+00
      5.730      0.048     0.1646      1.607     30.214  23.745898    40.1326      6.741   304.9199 1.2376e-01     2.7083      5.621      8.153    14.5050   999.2147 0.0000e+00
      5.738      0.050     0.1774      1.732     30.641  24.074346    39.9027      6.739   304.8724 1.2377e-01     2.6978      5.627      8.161    14.4216   999.2267 0.0000e+00
      5.746      0.054     0.1841      1.795     31.499  24.703712    37.2092      6.738   304.9203 1.2376e-01     2.8762      5.633      8.170    14.3284   999.2402 0.0000e+00
      5.759      0.057     0.1859      1.808     32.316  25.265590    32.2842      6.736   304.8962 1.2373e-01     3.2589      5.646      8.189    14.2789   999.2473 0.0000e+00
      5.778      0.060     0.1849      1.794     32.928  25.666024    29.5743      6.733   304.7536 1.2371e-01     3.5236      5.665      8.216    14.2938   999.2453 0.0000e+00
      5.799      0.063     0.1839      1.780     33.668  26.182952    28.9535      6.731   304.6578 1.2370e-01     3.5858      5.688      8.249    14.3077   999.2435 0.0000e+00
      5.818      0.065     0.1845      1.782     34.483  26.757571    24.7780      6.730   304.6844 1.2374e-01     3.5193      5.708      8.279    14.2395   999.2537 0.0000e+00
      5.831      0.068     0.1852      1.785     35.090  27.157571    17.1680      6.727   304.8165 1.2382e-01     3.4082      5.720      8.295    14.0839   999.2759 0.0000e+00
      5.843      0.070     0.1837      1.766     35.421  27.339508    13.0194      6.722   304.9658 1.2383e-01     3.3895      5.728      8.309    13.9534   999.2942 0.0000e+00
      5.859      0.074     0.1810      1.737     35.634  27.434600    12.6520      6.717   304.9403 1.2381e-01     3.3920      5.743      8.329    13.8859   999.3038 0.0000e+00
      5.881      0.081     0.1793      1.717     35.859  27.545886    12.6651      6.712   304.5087 1.2378e-01     3.3716      5.765      8.363    13.8029   999.3155 0.0000e+00
      5.906      0.087     0.1789      1.711     36.094  27.669861    12.7351      6.704   301.8977 1.2376e-01     3.3728      5.792      8.401    13.6951   999.3306 0.0000e+00
      5.929      0.089     0.1788      1.706     36.239  27.728018    12.7706      6.696   296.0854 1.2375e-01     3.3741      5.814      8.432    13.5864   999.3454 0.0000e+00
      5.953      0.085     0.1777      1.694     36.315  27.741427    12.7836      6.691   289.4703 1.2379e-01     3.3872      5.834      8.462    13.4872   999.3587 0.0000e+00
      5.980      0.077     0.1747      1.663     36.557  27.895387    12.8481      6.687   283.5198 1.2383e-01     3.3996      5.866      8.509    13.4032   999.3701 0.0000e+00
      6.004      0.071     0.1719      1.636     36.978  28.193659    12.9523      6.684   278.3428 1.2379e-01     3.3598      5.894      8.549    13.3267   999.3804 0.0000e+00
      6.014      0.069     0.1708      1.623     37.325  28.429192    13.0118      6.680   274.5403 1.2377e-01     3.3329      5.900      8.557    13.2514   999.3902 0.0000e+00
      6.020      0.071     0.1688      1.603     37.582  28.585925    13.0470      6.675   272.1331 1.2380e-01     3.3691      5.899      8.555    13.1830   999.3990 0.0000e+00
      6.034      0.077     0.1668      1.583     37.781  28.692777    13.3439      6.670   270.4890 1.2377e-01     3.4368      5.915      8.579    13.1453   999.4040 0.0000e+00
      6.057      0.088     0.1663      1.576     37.778  28.642430    13.8785      6.665   268.6000 1.2371e-01     3.5286      5.940      8.615    13.1250   999.4069 0.0000e+00
      6.085      0.101     0.1663      1.573     37.721  28.548183    14.1701      6.659   265.9842 1.2366e-01     3.5941      5.964      8.651    13.0859   999.4121 0.0000e+00
      6.115      0.111     0.1657      1.564     37.819  28.568374    14.1995      6.654   262.9524 1.2364e-01     3.6063      5.997      8.698    13.0304   999.4194 0.0000e+00
      6.147      0.114     0.1664      1.568     38.062  28.696155    14.2000      6.649   259.2175 1.2369e-01     3.5783      6.029      8.745    12.9714   999.4271 0.0000e+00
      6.178      0.111     0.1677      1.578     38.386  28.887566    14.2535      6.646   254.8110 1.2378e-01     3.3535      6.058      8.785    12.9066   999.4355 0.0000e+00
      6.208      0.105     0.1660      1.560     38.738  29.106041    14.3695      6.643   250.9738 1.2378e-01     2.9851      6.090      8.832    12.8398   999.4439 0.0000e+00
      6.236      0.098     0.1626      1.527     39.064  29.307247    14.4320      6.640   248.1840 1.2369e-01     2.8279      6.119      8.874    12.7692   999.4528 0.0000e+00
      6.257      0.090     0.1597      1.498     39.265  29.416742    14.3768      6.636   245.9445 1.2369e-01     2.8619      6.138      8.902    12.6912   999.4626 0.0000e+00
      6.277      0.083     0.1585      1.484     39.223  29.351202    13.7451      6.635   243.6856 1.2379e-01     2.8064      6.154      8.926    12.6218   999.4713 0.0000e+00
      6.297      0.078     0.1573      1.472     39.054  29.212737    12.5951      6.634   241.3500 1.2379e-01     2.6149      6.174      8.954    12.5637   999.4785 0.0000e+00
      6.317      0.077     0.1538      1.440     39.362  29.455764    11.9595      6.631   239.3869 1.2370e-01     2.4805      6.196      8.987    12.5091   999.4854 0.0000e+00
      6.335      0.079     0.1501      1.406     40.338  30.195669    11.8685      6.628   237.9317 1.2367e-01     2.4932      6.212      9.011    12.4535   999.4922 0.0000e+00
      6.352      0.084     0.1484      1.389     41.446  30.988612    11.5125      6.624   236.7474 1.2367e-01     2.5718      6.227      9.032    12.4023   999.4984 0.0000e+00
      6.372      0.088     0.1483      1.385     42.489  31.682317    10.8539      6.619   235.5642 1.2370e-01     2.6433      6.248      9.062    12.3819   999.5008 0.0000e+00
      6.397      0.091     0.1486      1.384     43.454  32.300732    10.4773      6.615   234.3800 1.2376e-01     2.6695      6.273      9.099    12.4124   999.4973 0.0000e+00
      6.425      0.092     0.1490      1.384     44.189  32.754299    10.3396      6.611   233.2707 1.2379e-01     2.6595      6.301      9.139    12.4511   999.4933 0.0000e+00
      6.452      0.089     0.1496      1.387     44.940  33.231628     9.2414      6.607   232.0459 1.2377e-01     2.4572      6.329      9.179    12.4077   999.4989 0.0000e+00
      6.476      0.084     0.1514      1.402     45.829  33.819906     7.2304      6.604   230.6701 1.2370e-01     2.0913      6.353      9.215    12.2859   999.5138 0.0000e+00
      6.495      0.078     0.1548      1.431     46.626  34.345575     6.1215      6.601   229.4562 1.2361e-01     1.8742      6.371      9.240    12.1590   999.5292 0.0000e+00
      6.512      0.072     0.1564      1.444     47.361  34.827389     6.0121      6.596   228.4679 1.2361e-01     1.7978      6.386      9.263    12.0527   999.5416 0.0000e+00
      6.527      0.068     0.1552      1.431     48.286  35.456487     6.0120      6.592   227.4104 1.2365e-01     1.7240      6.402      9.286    11.9672   999.5517 0.0000e+00
      6.542      0.066     0.1547      1.425     49.677  36.429944     6.0159      6.588   226.1348 1.2371e-01     1.6373      6.416      9.305    11.8931   999.5606 0.0000e+00
      6.559      0.067     0.1544      1.420     51.332  37.584096     6.0161      6.585   224.6600 1.2379e-01     1.6023      6.431      9.328    11.8273   999.5683 0.0000e+00
      6.578      0.071     0.1520      1.396     52.681  38.493289     6.0233      6.580   223.1726 1.2381e-01     1.5957      6.452      9.358    11.7631   999.5758 0.0000e+00
      6.595      0.076     0.1497      1.371     53.563  39.043633     6.0252      6.574   221.9172 1.2378e-01     1.5567      6.468      9.381    11.7083   999.5821 0.0000e+00
      6.612      0.080     0.1489      1.361     54.477  39.604035     6.0649      6.566   220.8383 1.2376e-01     1.5908      6.482      9.401    11.6719   999.5867 0.0000e+00
      6.634      0.084     0.1491      1.361     55.783  40.444143     6.1480      6.559   219.5928 1.2377e-01     1.7131      6.503      9.433    11.6145   999.5938 0.0000e+00
      6.660      0.085     0.1505      1.371     56.971  41.201936     6.1972      6.552   217.8705 1.2375e-01     1.8221      6.532      9.474    11.5361   999.6030 0.0000e+00
      6.684      0.085     0.1521      1.383     57.816  41.719213     6.2096      6.545   215.4146 1.2366e-01     1.8596      6.556      9.509    11.4489   999.6127 0.0000e+00
      6.706      0.084     0.1536      1.393     58.761  42.317578     6.3143      6.538   212.0110 1.2362e-01     1.9048      6.576      9.537    11.3478   999.6237 0.0000e+00
      6.726      0.083     0.1553      1.407     60.048  43.166755     6.5264      6.530   208.3801 1.2364e-01     2.0078      6.598      9.569    11.2476   999.6349 0.0000e+00
      6.745      0.082     0.1541      1.394     61.388  44.049602     6.6503      6.522   205.2416 1.2367e-01     2.0567      6.616      9.595    11.1557   999.6451 0.0000e+00
      6.762      0.081     0.1515      1.369     62.283  44.610332     6.5983      6.515   202.1117 1.2371e-01     2.0697      6.628      9.614    11.0735   999.6537 0.0000e+00
      6.785      0.079     0.1500      1.354     63.087  45.120532     5.7855      6.509   198.8447 1.2374e-01     2.0997      6.652      9.648    11.0034   999.6612 0.0000e+00
      6.811      0.078     0.1480      1.334     64.507  46.090706     4.2875      6.502   195.7681 1.2373e-01     2.0914      6.682      9.691    10.9439   999.6679 0.0000e+00
      6.831      0.078     0.1455      1.310     66.654  47.576992     3.4679      6.495   192.9617 1.2369e-01     2.0354      6.701      9.719    10.8787   999.6751 0.0000e+00
      6.847      0.077     0.1434      1.290     68.811  49.055757     3.3662      6.488   190.4662 1.2370e-01     2.0121      6.713      9.737    10.8034   999.6828 0.0000e+00
      6.863      0.074     0.1433      1.287     70.045  49.870738     3.0669      6.480   188.3097 1.2376e-01     2.0718      6.729      9.759    10.7505   999.6884 0.0000e+00
      6.883      0.071     0.1445      1.297     70.661  50.253723     2.5195      6.473   186.4179 1.2378e-01     2.1346      6.749      9.789    10.7252   999.6914 0.0000e+00
      6.905      0.072     0.1455      1.305     71.263  50.637477     2.2095      6.465   184.5421 1.2376e-01     2.1157      6.772      9.822    10.6926   999.6954 0.0000e+00
      6.923      0.076     0.1443      1.294     72.138  51.207651     2.1709      6.455   182.6659 1.2374e-01     2.0403      6.792      9.851    10.6446   999.7012 0.0000e+00
      6.937      0.080     0.1417      1.269     73.363  52.002390     2.0870      6.445   181.0263 1.2376e-01     2.0751      6.802      9.865    10.5933   999.7065 0.0000e+00
      6.953      0.081     0.1423      1.271     74.185  52.496772     1.9321      6.435   179.6023 1.2378e-01     2.2414      6.814      9.884    10.5524   999.7105 0.0000e+00
      6.978      0.079     0.1440      1.286     74.640  52.738480     1.8417      6.427   177.9246 1.2377e-01     2.3136      6.842      9.923    10.5280   999.7132 0.0000e+00
      7.007      0.077     0.1425      1.271     75.392  53.209563     1.8262      6.420   175.7987 1.2372e-01     2.2610      6.876      9.972    10.4983   999.7164 0.0000e+00
      7.030      0.076     0.1405      1.252     76.036  53.618592     1.8231      6.414   173.6877 1.2372e-01     2.2279      6.898     10.005    10.4434   999.7224 0.0000e+00
      7.044      0.073     0.1390      1.238     76.185  53.681734     1.8209      6.408   171.8449 1.2376e-01     2.2405      6.908     10.019    10.3772   999.7289 0.0000e+00
      7.055      0.071     0.1355      1.207     76.209  53.655331     1.8173      6.401   170.2090 1.2376e-01     2.2821      6.916     10.031    10.3205   999.7341 0.0000e+00
      7.071      0.073     0.1318      1.173     76.409  53.744009     1.8140      6.392   168.5354 1.2370e-01     2.3384      6.933     10.055    10.2825   999.7382 0.0000e+00
      7.091      0.080     0.1291      1.148     76.945  54.055058     1.8072      6.383   166.7524 1.2369e-01     2.3308      6.954     10.086    10.2566   999.7409 0.0000e+00
      7.112      0.090     0.1268      1.126     77.940  54.684326     1.7438      6.376   165.1697 1.2376e-01     2.2233      6.974     10.115    10.2286   999.7434 0.0000e+00
      7.136      0.097     0.1267      1.123     79.027  55.380395     1.6291      6.369   163.8543 1.2378e-01     2.1196      6.997     10.148    10.2022   999.7460 0.0000e+00
      7.164      0.101     0.1273      1.128     79.987  55.990749     1.5728      6.363   162.4633 1.2378e-01     2.0931      7.024     10.187    10.1710   999.7490 0.0000e+00
      7.195      0.103     0.1258      1.114     81.123  56.727034     1.5665      6.356   160.5685 1.2376e-01     2.0997      7.056     10.235    10.1244   999.7534 0.0000e+00
      7.223      0.103     0.1239      1.097     82.375  57.547669     1.4575      6.349   158.4963 1.2371e-01     2.1021      7.087     10.279    10.0773   999.7583 0.0000e+00
      7.247      0.100     0.1243      1.099     83.330  58.161079     1.2517      6.343   156.6817 1.2374e-01     2.0891      7.107     10.307    10.0364   999.7625 0.0000e+00
      7.270      0.096     0.1272      1.124     83.782  58.424914     1.1412      6.338   154.9766 1.2376e-01     2.0730      7.127     10.337     9.9967   999.7663 0.0000e+00
      7.296      0.094     0.1286      1.135     84.158  58.640706     1.1273      6.332   153.3665 1.2367e-01     2.0710      7.157     10.380     9.9606   999.7701 0.0000e+00
      7.320      0.094     0.1271      1.121     84.987  59.181516     1.1012      6.327   152.0134 1.2360e-01     2.0327      7.181     10.415     9.9281   999.7735 0.0000e+00
      7.340      0.094     0.1259      1.110     86.043  59.880096     1.0588      6.323   150.8331 1.2363e-01     1.9376      7.196     10.438     9.8955   999.7767 0.0000e+00
      7.362      0.094     0.1260      1.110     87.066  60.541767     1.0309      6.319   149.5922 1.2368e-01     1.8710      7.217     10.467     9.8636   999.7797 0.0000e+00
      7.389      0.093     0.1270      1.117     88.015  61.144465     1.0331      6.314   148.2816 1.2368e-01     1.8502      7.246     10.510     9.8343   999.7823 0.0000e+00
      7.417      0.092     0.1258      1.106     88.889  61.701779     1.1115      6.309   146.8593 1.2370e-01     1.8505      7.275     10.551     9.8152   999.7845 0.0000e+00
      7.441      0.093     0.1215      1.069     89.842  62.322979     1.2504      6.304   145.3013 1.2374e-01     1.8740      7.298     10.585     9.7988   999.7864 0.0000e+00
      7.461      0.093     0.1182      1.039     90.697  62.871758     1.3256      6.299   143.9851 1.2374e-01     1.8720      7.316     10.612     9.7675   999.7896 0.0000e+00
      7.481      0.094     0.1187      1.042     91.233  63.188878     1.3266      6.294   142.9901 1.2372e-01     1.8270      7.335     10.640     9.7301   999.7932 0.0000e+00
      7.504      0.095     0.1210      1.062     91.655  63.424191     1.2373      6.290   141.8752 1.2369e-01     1.7886      7.357     10.671     9.7021   999.7959 0.0000e+00
      7.530      0.098     0.1213      1.064     92.285  63.810064     1.0688      6.287   140.5713 1.2370e-01     1.8012      7.384     10.708     9.6842   999.7979 0.0000e+00
      7.559      0.101     0.1192      1.045     93.330  64.485662     0.9723      6.283   139.3563 1.2372e-01     1.8477      7.414     10.753     9.6611   999.8004 0.0000e+00
      7.586      0.105     0.1181      1.034     94.492  65.236489     0.9628      6.279   138.3700 1.2373e-01     1.8596      7.441     10.793     9.6278   999.8034 0.0000e+00
      7.610      0.105     0.1185      1.037     95.262  65.705459     0.9629      6.275   137.5089 1.2375e-01     1.8460      7.462     10.823     9.5959   999.8062 0.0000e+00
      7.635      0.102     0.1203      1.052     95.732  65.960555     0.9475      6.271   136.4299 1.2373e-01     1.8472      7.484     10.855     9.5686   999.8088 0.0000e+00
      7.665      0.100     0.1230      1.075     96.573  66.477319     0.9236      6.266   135.2174 1.2368e-01     1.8422      7.518     10.903     9.5455   999.8112 0.0000e+00
      7.695      0.100     0.1245      1.087     98.230  67.567233     0.9078      6.263   134.2073 1.2368e-01     1.8174      7.550     10.949     9.5202   999.8141 0.0000e+00
      7.716      0.103     0.1245      1.087    100.227  68.903484     0.8955      6.260   133.2498 1.2371e-01     1.8099      7.569     10.977     9.4854   999.8172 0.0000e+00
      7.734      0.106     0.1235      1.078    102.117  70.173154     0.8445      6.256   132.2451 1.2375e-01     1.8501      7.582     10.996     9.4472   999.8203 0.0000e+00
      7.759      0.108     0.1218      1.062    103.868  71.347295     0.7507      6.254   131.0933 1.2376e-01     1.8775      7.605     11.031     9.4133   999.8234 0.0000e+00
      7.793      0.108     0.1205      1.051    105.194  72.227246     0.6892      6.251   129.8203 1.2376e-01     1.8455      7.642     11.084     9.3882   999.8263 0.0000e+00
      7.828      0.108     0.1190      1.038    105.982  72.737190     0.6808      6.247   128.7273 1.2374e-01     1.7920      7.679     11.137     9.3703   999.8286 0.0000e+00
      7.859      0.105     0.1165      1.016    106.407  72.998216     0.7015      6.245   127.7722 1.2366e-01     1.7873      7.709     11.181     9.3567   999.8305 0.0000e+00
      7.884      0.100     0.1147      1.000    106.594  73.094046     0.7230      6.241   126.8765 1.2362e-01     1.8214      7.732     11.215     9.3444   999.8324 0.0000e+00
      7.904      0.094     0.1137      0.990    106.704  73.132744     0.7244      6.238   125.9840 1.2366e-01     1.8441      7.750     11.241     9.3281   999.8342 0.0000e+00
      7.924      0.090     0.1131      0.984    106.872  73.211706     0.7184      6.236   125.1550 1.2368e-01     1.8643      7.769     11.269     9.3130   999.8357 0.0000e+00
      7.947      0.090     0.1134      0.986    106.937  73.222060     0.6767      6.234   124.5967 1.2366e-01     1.8688      7.794     11.304     9.2999   999.8370 0.0000e+00
      7.970      0.092     0.1114      0.969    106.574  72.939938     0.6013      6.231   124.1385 1.2368e-01     1.8341      7.816     11.336     9.2846   999.8384 0.0000e+00
      7.993      0.095     0.1072      0.932    106.034  72.534910     0.5611      6.229   123.7449 1.2373e-01     1.8053      7.837     11.367     9.2667   999.8399 0.0000e+00
      8.018      0.097     0.1055      0.918    105.505  72.140216     0.5550      6.227   123.4510 1.2371e-01     1.8158      7.862     11.403     9.2492   999.8415 0.0000e+00
      8.045      0.097     0.1075      0.935    104.580  71.474250     0.5700      6.225   123.0797 1.2369e-01     1.8298      7.890     11.443     9.2337   999.8430 0.0000e+00
      8.071      0.097     0.1103      0.958    103.721  70.841287     0.6044      6.224   122.6109 1.2374e-01     1.8423      7.917     11.482     9.2194   999.8440 0.0000e+00
      8.096      0.093     0.1113      0.965    103.534  70.654796     0.6245      6.224   121.8269 1.2380e-01     1.8686      7.940     11.517     9.2011   999.8452 0.0000e+00
      8.119      0.086     0.1111      0.964    103.655  70.681775     0.6225      6.223   120.6564 1.2378e-01     1.8863      7.962     11.547     9.1844   999.8466 0.0000e+00
      8.142      0.080     0.1118      0.969    103.962  70.849510     0.5968      6.223   119.5566 1.2378e-01     1.8593      7.985     11.581     9.1735   999.8471 0.0000e+00
      8.163      0.078     0.1127      0.976    104.644  71.283996     0.5651      6.222   118.7680 1.2379e-01     1.8046      8.009     11.616     9.1504   999.8485 0.0000e+00
      8.178      0.079     0.1146      0.993    105.446  71.802100     0.5509      6.221   118.0054 1.2375e-01     1.7821      8.022     11.636     9.1188   999.8511 0.0000e+00
      8.189      0.079     0.1160      1.004    105.912  72.090599     0.5553      6.221   117.1326 1.2373e-01     1.8167      8.027     11.642     9.0899   999.8533 0.0000e+00
      8.209      0.078     0.1141      0.988    106.151  72.228740     0.5924      6.221   116.3029 1.2373e-01     1.8626      8.045     11.669     9.0699   999.8550 0.0000e+00
      8.239      0.076     0.1109      0.961    106.508  72.454928     0.6448      6.222   115.5452 1.2378e-01     1.8782      8.081     11.721     9.0582   999.8564 0.0000e+00
      8.266      0.076     0.1099      0.951    106.926  72.726998     0.6681      6.223   114.8543 1.2377e-01     1.8739      8.111     11.764     9.0450   999.8579 0.0000e+00
      8.283      0.074     0.1104      0.955    107.684  73.229119     0.6658      6.224   114.2298 1.2369e-01     1.8431      8.125     11.784     9.0306   999.8591 0.0000e+00
      8.295      0.070     0.1085      0.938    108.762  73.947454     0.6605      6.225   113.7594 1.2373e-01     1.8009      8.133     11.796     9.0180   999.8601 0.0000e+00
      8.308      0.065     0.1065      0.921    109.284  74.290034     0.6644      6.226   113.4687 1.2378e-01     1.7901      8.146     11.815     9.0107   999.8609 0.0000e+00
      8.325      0.063     0.1071      0.926    109.249  74.255204     0.6697      6.226   113.0379 1.2371e-01     1.7777      8.164     11.841     9.0065   999.8613 0.0000e+00
      8.343      0.066     0.1080      0.934    109.502  74.416640     0.6727      6.227   112.3366 1.2367e-01     1.7499      8.182     11.867     9.0001   999.8622 0.0000e+00
      8.362      0.072     0.1076      0.931    110.328  74.970019     0.6833      6.227   111.7011 1.2372e-01     1.7815      8.201     11.894     8.9923   999.8635 0.0000e+00
      8.379      0.078     0.1066      0.922    111.177  75.540415     0.7199      6.225   111.2040 1.2379e-01     1.8974      8.218     11.920     8.9869   999.8641 0.0000e+00
      8.395      0.085     0.1054      0.911    111.735  75.907542     0.7867      6.223   110.6287 1.2380e-01     2.0369      8.232     11.939     8.9826   999.8644 0.0000e+00
      8.416      0.093     0.1044      0.902    112.423  76.356182     0.8315      6.221   109.9067 1.2370e-01     2.0915      8.251     11.965     8.9767   999.8648 0.0000e+00
      8.444      0.103     0.1037      0.896    113.247  76.894442     0.8369      6.218   109.1856 1.2367e-01     2.0663      8.280     12.009     8.9734   999.8656 0.0000e+00
      8.474      0.111     0.1034      0.893    113.633  77.136664     0.7994      6.217   108.6213 1.2371e-01     2.0594      8.311     12.056     8.9725   999.8663 0.0000e+00
      8.504      0.116     0.1032      0.891    113.454  76.995183     0.7251      6.218   107.9879 1.2375e-01     2.0411      8.338     12.094     8.9669   999.8669 0.0000e+00
      8.535      0.116     0.1031      0.890    112.975  76.646646     0.6759      6.218   107.2054 1.2379e-01     1.9770      8.368     12.137     8.9573   999.8681 0.0000e+00
      8.569      0.111     0.1041      0.899    112.587  76.357000     0.6723      6.217   106.3876 1.2380e-01     1.9720      8.404     12.190     8.9474   999.8694 0.0000e+00
      8.599      0.105     0.1056      0.911    112.718  76.418720     0.6815      6.216   105.4999 1.2375e-01     2.0464      8.435     12.234     8.9387   999.8702 0.0000e+00
      8.623      0.098     0.1060      0.915    113.257  76.756864     0.6840      6.215   104.7320 1.2368e-01     2.0895      8.456     12.266     8.9312   999.8708 0.0000e+00
      8.645      0.090     0.1057      0.912    113.948  77.201775     0.6841      6.215   104.0724 1.2363e-01     2.0667      8.478     12.297     8.9205   999.8715 0.0000e+00
      8.666      0.084     0.1054      0.910    114.845  77.791118     0.6831      6.215   103.2893 1.2365e-01     2.0335      8.499     12.328     8.9081   999.8722 0.0000e+00
      8.685      0.080     0.1046      0.902    115.690  78.348949     0.6805      6.215   102.6619 1.2373e-01     2.0482      8.518     12.355     8.8960   999.8733 0.0000e+00
      8.704      0.078     0.1023      0.883    116.082  78.603574     0.6782      6.216   102.4231 1.2379e-01     2.0812      8.535     12.379     8.8834   999.8746 0.0000e+00
      8.723      0.078     0.1003      0.865    116.153  78.643538     0.6731      6.216   102.2095 1.2384e-01     2.0712      8.553     12.407     8.8730   999.8756 0.0000e+00
      8.744      0.080     0.0998      0.861    116.066  78.577706     0.6714      6.215   101.7144 1.2388e-01     2.0257      8.575     12.437     8.8653   999.8767 0.0000e+00
      8.765      0.083     0.1004      0.866    115.787  78.380066     0.6564      6.215   101.0831 1.2387e-01     1.9908      8.596     12.468     8.8590   999.8777 0.0000e+00
      8.785      0.087     0.1012      0.873    115.483  78.162082     0.6048      6.215   100.5996 1.2385e-01     2.0089      8.615     12.495     8.8541   999.8781 0.0000e+00
      8.805      0.090     0.1012      0.873    115.331  78.041083     0.5590      6.216   100.2560 1.2380e-01     2.0487      8.632     12.519     8.8513   999.8784 0.0000e+00
      8.830      0.090     0.1015      0.875    115.299  77.998371     0.5458      6.216    99.9396 1.2374e-01     2.0459      8.658     12.558     8.8488   999.8787 0.0000e+00
      8.858      0.090     0.1011      0.872    115.371  78.027271     0.5485      6.216    99.6134 1.2374e-01     2.0075      8.688     12.602     8.8450   999.8790 0.0000e+00
      8.882      0.089     0.0978      0.843    115.558  78.136051     0.6088      6.216    99.2371 1.2376e-01     1.9773      8.711     12.634     8.8402   999.8794 0.0000e+00
      8.902      0.087     0.0952      0.820    115.819  78.295912     0.7203      6.217    98.8318 1.2373e-01     2.0089      8.730     12.662     8.8323   999.8800 0.0000e+00
      8.922      0.087     0.0967      0.832    116.140  78.497173     0.7867      6.218    98.3259 1.2373e-01     2.0622      8.750     12.691     8.8218   999.8808 0.0000e+00
      8.942      0.090     0.0982      0.846    116.497  78.724862     0.7967      6.217    97.7673 1.2373e-01     2.0645      8.769     12.718     8.8132   999.8815 0.0000e+00
      8.963      0.095     0.0973      0.839    116.850  78.949810     0.8324      6.216    97.3263 1.2373e-01     2.1024      8.789     12.746     8.8064   999.8822 0.0000e+00
      8.988      0.100     0.0977      0.841    117.117  79.117905     0.9143      6.217    97.0377 1.2375e-01     2.2259      8.812     12.781     8.7988   999.8829 0.0000e+00
      9.017      0.102     0.0994      0.855    117.304  79.230661     0.9629      6.218    96.8593 1.2380e-01     2.2790      8.841     12.824     8.7917   999.8837 0.0000e+00
      9.049      0.101     0.1004      0.864    117.515  79.358981     0.9604      6.218    96.7179 1.2380e-01     2.2529      8.875     12.872     8.7862   999.8844 0.0000e+00
      9.079      0.097     0.1013      0.871    117.780  79.524408     0.8757      6.219    96.5329 1.2377e-01     2.2044      8.906     12.917     8.7805   999.8851 0.0000e+00
      9.101      0.091     0.1009      0.867    118.064  79.704164     0.7116      6.221    96.1706 1.2377e-01     2.0864      8.927     12.946     8.7751   999.8857 0.0000e+00
      9.119      0.085     0.1011      0.869    118.337  79.878512     0.6233      6.221    95.6069 1.2379e-01     2.0062      8.942     12.969     8.7699   999.8862 0.0000e+00
      9.138      0.079     0.1032      0.887    118.592  80.042142     0.6219      6.221    94.9658 1.2380e-01     2.0211      8.960     12.997     8.7636   999.8868 0.0000e+00
      9.158      0.077     0.1042      0.896    118.867  80.219510     0.6089      6.221    94.2692 1.2377e-01     2.0377      8.982     13.026     8.7573   999.8874 0.0000e+00
      9.178      0.079     0.1022      0.878    119.197  80.432733     0.5869      6.220    93.5512 1.2377e-01     2.0098      9.001     13.056     8.7526   999.8880 0.0000e+00
      9.197      0.083     0.0992      0.853    119.528  80.648182     0.5817      6.220    92.9088 1.2383e-01     2.0123      9.019     13.082     8.7485   999.8885 0.0000e+00
      9.217      0.087     0.1001      0.860    119.843  80.852453     0.5810      6.220    92.4395 1.2383e-01     2.0670      9.038     13.107     8.7449   999.8890 0.0000e+00
      9.240      0.092     0.1042      0.895    120.160  81.057732     0.6040      6.221    92.1792 1.2379e-01     2.0811      9.060     13.140     8.7414   999.8893 0.0000e+00
      9.266      0.095     0.1055      0.907    120.415  81.221724     0.6603      6.221    91.9991 1.2378e-01     2.0519      9.088     13.180     8.7372   999.8899 0.0000e+00
      9.292      0.097     0.1013      0.870    120.647  81.372105     0.6983      6.221    91.7238 1.2371e-01     2.0419      9.112     13.217     8.7340   999.8904 0.0000e+00
      9.318      0.097     0.0969      0.832    120.997  81.603643     0.7077      6.221    91.3460 1.2362e-01     2.0582      9.136     13.252     8.7307   999.8908 0.0000e+00
      9.344      0.096     0.0956      0.822    121.380  81.858255     0.7141      6.222    90.9586 1.2361e-01     2.0851      9.165     13.293     8.7266   999.8914 0.0000e+00
      9.368      0.094     0.0946      0.813    121.651  82.033127     0.7229      6.222    90.4812 1.2368e-01     2.1054      9.188     13.326     8.7238   999.8918 0.0000e+00
      9.389      0.089     0.0936      0.805    121.807  82.127550     0.7274      6.222    89.8754 1.2377e-01     2.0737      9.205     13.351     8.7206   999.8921 0.0000e+00
      9.413      0.084     0.0941      0.809    121.887  82.172856     0.7264      6.223    89.2265 1.2378e-01     2.0296      9.230     13.387     8.7188   999.8925 0.0000e+00
      9.438      0.079     0.0958      0.824    122.028  82.262820     0.7538      6.223    88.6584 1.2374e-01     2.0307      9.259     13.429     8.7188   999.8928 0.0000e+00
      9.457      0.077     0.0978      0.841    122.315  82.451863     0.8064      6.223    88.1698 1.2369e-01     2.0217      9.277     13.456     8.7150   999.8933 0.0000e+00
      9.469      0.080     0.0982      0.844    122.659  82.677204     0.8343      6.223    87.6199 1.2374e-01     2.0195      9.286     13.468     8.7095   999.8938 0.0000e+00
      9.483      0.087     0.0971      0.834    123.079  82.951549     0.8395      6.222    86.9995 1.2378e-01     2.0691      9.297     13.485     8.7056   999.8941 0.0000e+00
      9.504      0.098     0.0969      0.833    123.686  83.351334     0.8344      6.222    86.3480 1.2372e-01     2.0650      9.318     13.516     8.7043   999.8943 0.0000e+00
      9.532      0.112     0.0971      0.834    124.306  83.757248     0.7724      6.222    85.8511 1.2363e-01     2.0671      9.347     13.556     8.7033   999.8947 0.0000e+00
      9.565      0.123     0.0969      0.832    124.748  84.042031     0.6700      6.222    85.4653 1.2360e-01     2.1927      9.378     13.602     8.7002   999.8952 0.0000e+00
      9.604      0.127     0.0975      0.837    125.168  84.313261     0.6201      6.221    84.8668 1.2361e-01     2.2727      9.416     13.658     8.6965   999.8957 0.0000e+00
      9.645      0.125     0.0961      0.825    125.727  84.682512     0.6201      6.221    84.1221 1.2363e-01     2.2807      9.460     13.722     8.6929   999.8964 0.0000e+00
      9.681      0.120     0.0941      0.808    126.502  85.198041     0.6263      6.222    83.5156 1.2362e-01     2.2576      9.497     13.775     8.6881   999.8973 0.0000e+00
      9.707      0.114     0.0948      0.814    127.377  85.774381     0.6262      6.222    83.1267 1.2363e-01     2.1568      9.521     13.809     8.6825   999.8979 0.0000e+00
      9.727      0.106     0.0956      0.820    128.007  86.178866     0.6183      6.222    82.8610 1.2370e-01     2.0784      9.538     13.833     8.6771   999.8985 0.0000e+00
      9.750      0.099     0.0956      0.820    128.367  86.398060     0.6184      6.222    82.5409 1.2372e-01     2.0632      9.559     13.863     8.6744   999.8989 0.0000e+00
      9.777      0.094     0.0952      0.817    128.667  86.579289     0.6103      6.223    82.0951 1.2370e-01     2.1047      9.587     13.904     8.6735   999.8994 0.0000e+00
      9.806      0.092     0.0943      0.809    128.983  86.779245     0.5798      6.224    81.6868 1.2369e-01     2.1864      9.620     13.952     8.6684   999.9003 0.0000e+00
      9.831      0.091     0.0944      0.811    129.552  87.161244     0.5623      6.224    81.3900 1.2371e-01     2.2311      9.643     13.986     8.6600   999.9012 0.0000e+00
      9.849      0.090     0.0969      0.832    130.350  87.698100     0.5636      6.224    81.0883 1.2373e-01     2.2520      9.658     14.007     8.6506   999.9020 0.0000e+00
      9.868      0.088     0.0983      0.844    130.986  88.115868     0.5786      6.224    80.6198 1.2369e-01     2.2755      9.677     14.034     8.6417   999.9029 0.0000e+00
      9.890      0.088     0.0967      0.829    131.519  88.457879     0.6126      6.224    79.9413 1.2368e-01     2.2865      9.699     14.067     8.6357   999.9035 0.0000e+00
      9.914      0.091     0.0953      0.817    132.209  88.905948     0.6363      6.224    79.3369 1.2375e-01     2.2862      9.722     14.101     8.6368   999.9037 0.0000e+00
      9.938      0.095     0.0959      0.822    133.058  89.460480     0.6319      6.223    78.9914 1.2381e-01     2.2719      9.747     14.136     8.6398   999.9040 0.0000e+00
      9.962      0.099     0.0970      0.832    133.806  89.944095     0.6034      6.221    78.6897 1.2379e-01     2.2446      9.769     14.169     8.6344   999.9047 0.0000e+00
      9.986      0.101     0.0969      0.831    134.459  90.361973     0.5683      6.221    78.3552 1.2379e-01     2.2182      9.791     14.201     8.6265   999.9055 0.0000e+00
     10.014      0.103     0.0946      0.810    135.457  91.012561     0.5542      6.222    77.9583 1.2380e-01     2.2477      9.821     14.244     8.6211   999.9062 0.0000e+00
     10.043      0.104     0.0922      0.790    136.598  91.763870     0.5627      6.223    77.5049 1.2376e-01     2.3068      9.850     14.286     8.6158   999.9071 0.0000e+00
     10.069      0.106     0.0920      0.789    137.158  92.126494     0.6371      6.223    77.1750 1.2372e-01     2.3089      9.874     14.321     8.6084   999.9081 0.0000e+00
     10.095      0.106     0.0922      0.790    137.684  92.469176     0.7688      6.222    76.8948 1.2369e-01     2.3066      9.899     14.358     8.5996   999.9089 0.0000e+00
     10.121      0.105     0.0933      0.800    139.119  93.424731     0.8373      6.221    76.5271 1.2369e-01     2.3119      9.925     14.396     8.5919   999.9100 0.0000e+00
     10.148      0.102     0.0963      0.825    140.851  94.577577     0.8318      6.220    76.0841 1.2369e-01     2.2751      9.951     14.433     8.5866   999.9111 0.0000e+00
     10.178      0.097     0.0987      0.845    142.187  95.459383     0.7716      6.220    75.6683 1.2368e-01     2.2545      9.981     14.476     8.5818   999.9116 0.0000e+00
     10.205      0.091     0.0992      0.849    143.592  96.383848     0.6733      6.220    75.1989 1.2368e-01     2.2596     10.009     14.517     8.5770   999.9120 0.0000e+00
     10.227      0.084     0.0981      0.839    145.443  97.606346     0.6229      6.221    74.6246 1.2367e-01     2.2711     10.032     14.550     8.5756   999.9130 0.0000e+00
     10.245      0.078     0.0968      0.829    147.035  98.653288     0.6215      6.221    74.1454 1.2370e-01     2.2954     10.048     14.574     8.5726   999.9140 0.0000e+00
     10.260      0.073     0.0974      0.834    147.555  98.982742     0.6224      6.220    73.6199 1.2374e-01     2.2906     10.061     14.592     8.5663   999.9149 0.0000e+00
     10.276      0.071     0.0973      0.833    148.229  99.424948     0.6246      6.220    72.8312 1.2373e-01     2.2791     10.076     14.614     8.5598   999.9158 0.0000e+00
     10.295      0.074     0.0946      0.810    151.822 101.834918     0.6312      6.219    71.9227 1.2378e-01     2.2869     10.097     14.645     8.5531   999.9172 0.0000e+00
     10.315      0.080     0.0925      0.792    157.795 105.832943     0.6329      6.217    71.2397 1.2379e-01     2.2868     10.117     14.673     8.5455   999.9185 0.0000e+00
     10.333      0.086     0.0921      0.788    161.971 108.597015     0.6272      6.216    70.7680 1.2371e-01     2.2782     10.131     14.694     8.5376   999.9192 0.0000e+00
     10.354      0.088     0.0917      0.785    163.054 109.268201     0.6141      6.215    70.1770 1.2366e-01     2.2477     10.150     14.721     8.5335   999.9193 0.0000e+00
     10.382      0.086     0.0917      0.784    163.545 109.552961     0.6047      6.212    69.5144 1.2367e-01     2.2134     10.181     14.767     8.5361   999.9206 0.0000e+00
     10.411      0.081     0.0927      0.792    164.635 110.256199     0.6182      6.211    68.8661 1.2370e-01     2.2235     10.212     14.811     8.5375   999.9237 0.0000e+00
     10.433      0.074     0.0941      0.804    166.559 111.527790     0.6387      6.210    68.1889 1.2369e-01     2.2729     10.233     14.841     8.5242   999.9263 0.0000e+00
     10.448      0.064     0.0940      0.804    169.936 113.778197     0.7051      6.208    67.5208 1.2364e-01     2.3192     10.247     14.862     8.5023   999.9277 0.0000e+00
     10.461      0.054     0.0927      0.792    174.581 116.885542     0.8310      6.207    66.8972 1.2364e-01     2.3233     10.259     14.879     8.4890   999.9288 0.0000e+00
     10.471      0.045     0.0929      0.793    182.716 122.334768     0.9031      6.207    66.2410 1.2365e-01     2.2905     10.269     14.893     8.4823   999.9298 0.0000e+00
     10.481      0.040     0.0928      0.792    196.269 131.410671     0.9010      6.208    65.5237 1.2368e-01     2.2505     10.278     14.907     8.4772   999.9306 0.0000e+00
     10.490      0.036     0.0913      0.781    208.760 139.774211     0.8409      6.208    64.9356 1.2374e-01     2.2320     10.287     14.920     8.4743   999.9324 0.0000e+00
     10.498      0.033     0.0908      0.777    214.371 143.540921     0.7398      6.208    64.2934 1.2377e-01     2.2307     10.294     14.931     8.4733   999.9339 0.0000e+00
     10.507      0.029     0.0902      0.772    216.792 145.183785     0.6836      6.208    63.0933 1.2374e-01     2.2350     10.303     14.944     8.4749   999.9360 0.0000e+00
     10.515      0.025     0.0895      0.766    214.822 143.875164     0.6736      6.209    61.3513 1.2368e-01     2.2515     10.313     14.957     8.4758   999.9422 0.0000e+00
     10.521      0.022     0.0902      0.771    206.906 138.561865     0.6794      6.210    59.8364 1.2368e-01     2.2003     10.319     14.966     8.4743   999.9486 0.0000e+00
     10.525      0.020     0.0907      0.775    203.489 136.257936     0.7023      6.212    59.0599 1.2375e-01     2.1070     10.322     14.970     8.4756   999.9488 0.0000e+00
     10.528      0.019     0.0904      0.773    204.718 137.075152     0.7164      6.212    58.8463 1.2376e-01     2.0749     10.324     14.974     8.4841   999.9495 0.0000e+00
     10.531 -9.990e-29 -9.990e-29 -9.990e-29 -9.990e-29 -9.990e-29 -9.990e-29 -9.990e-29 -9.990e-29 1.2373e-01 -9.990e-29     10.327     14.979     8.4876   999.9502 0.0000e+00
     10.536 -9.990e-29 -9.990e-29 -9.990e-29 -9.990e-29 -9.990e-29 -9.990e-29 -9.990e-29 -9.990e-29 1.2372e-01 -9.990e-29     10.333     14.986     8.4820   999.9444 0.0000e+00
     10.541 -9.990e-29 -9.990e-29 -9.990e-29 -9.990e-29 -9.990e-29 -9.990e-29 -9.990e-29 -9.990e-29 1.2373e-01 -9.990e-29     10.338     14.994     8.4775   999.9436 0.0000e+00
     10.543 -9.990e-29 -9.990e-29 -9.990e-29 -9.990e-29 -9.990e-29 -9.990e-29 -9.990e-29 -9.990e-29 1.2373e-01 -9.990e-29     10.340     14.997     8.4760   999.9471 0.0000e+00
