* Sea-Bird SBE19plus  Data File:
* FileName = C:\DATA\073018_fcr50_0001.hex
* Software version 2.6.3.104 SB_Terminal.dll
* Temperature SN = 7809
* Conductivity SN = 7809
* System UpLoad Time = Jul 30 2018 16:25:45
* <ApplicationData>
* <Seaterm232>
* <SoftwareVersion>2.6.3.104</SoftwareVersion>
* <BuildDate>30-Jun-2017</BuildDate>
* </Seaterm232>
* </ApplicationData>
* cast   1 26 Jul 2018 15:11:58 samples 1 to 893, avg = 1, stop = mag switch
# nquan = 15
# nvalues = 746                         
# units = specified
# name 0 = depFM: Depth [fresh water, m]
# name 1 = dz/dtM: Descent Rate [m/s]
# name 2 = sbeox0Mg/L: Oxygen, SBE 43 [mg/l]
# name 3 = sbeox0PS: Oxygen, SBE 43 [% saturation]
# name 4 = specc: Specific Conductance [uS/cm]
# name 5 = c0uS/cm: Conductivity [uS/cm]
# name 6 = flECO-AFL: Fluorescence, WET Labs ECO-AFL/FL [mg/m^3]
# name 7 = ph: pH
# name 8 = orp: Oxidation Reduction Potential [mV]
# name 9 = par/sat/log: PAR/Logarithmic, Satlantic
# name 10 = turbWETntu0: Turbidity, WET Labs ECO [NTU]
# name 11 = prdM: Pressure, Strain Gauge [db]
# name 12 = prdE: Pressure, Strain Gauge [psi]
# name 13 = tv290C: Temperature [ITS-90, deg C]
# name 14 = flag:  0.000e+00
# span 0 =     -0.317,      7.100       
# span 1 =     -0.124,      0.126       
# span 2 =    -1.4855,     9.4341       
# span 3 =    -15.712,    114.327       
# span 4 =     28.605,     61.258       
# span 5 =  25.512695,  41.577794       
# span 6 =     1.1670,     9.0614       
# span 7 =      6.685,      8.786       
# span 8 =     4.8403,   199.7000       
# span 9 = 1.2531e-01, 2.4784e+03       
# span 10 =     1.1991,     8.9794      
# span 11 =     -0.315,      6.978      
# span 12 =     -0.456,     10.120      
# span 13 =     8.9090,    25.3732      
# span 14 = 0.0000e+00, 0.0000e+00      
# interval = seconds: 0.25
# start_time = Jul 26 2018 15:11:58 [Instrument's time stamp, header]
# bad_flag = -9.990e-29
# <Sensors count="9" >
#   <sensor Channel="1" >
#     <!-- Count, Temperature -->
#     <TemperatureSensor SensorID="58" >
#       <SerialNumber>7809</SerialNumber>
#       <CalibrationDate>09-Mar-18</CalibrationDate>
#       <A0>1.21093245e-003</A0>
#       <A1>2.84356597e-004</A1>
#       <A2>-1.94507398e-006</A2>
#       <A3>2.12806664e-007</A3>
#       <Slope>1.00000000</Slope>
#       <Offset>0.0000</Offset>
#     </TemperatureSensor>
#   </sensor>
#   <sensor Channel="2" >
#     <!-- Frequency 0, Conductivity -->
#     <ConductivitySensor SensorID="3" >
#       <SerialNumber>7809</SerialNumber>
#       <CalibrationDate>09-Mar-18</CalibrationDate>
#       <UseG_J>1</UseG_J>
#       <!-- Cell const and series R are applicable only for wide range sensors. -->
#       <SeriesR>0.0000</SeriesR>
#       <CellConst>2000.0000</CellConst>
#       <ConductivityType>0</ConductivityType>
#       <Coefficients equation="0" >
#         <A>0.00000000e+000</A>
#         <B>0.00000000e+000</B>
#         <C>0.00000000e+000</C>
#         <D>0.00000000e+000</D>
#         <M>0.0</M>
#         <CPcor>-9.57000000e-008</CPcor>
#       </Coefficients>
#       <Coefficients equation="1" >
#         <G>-1.00672082e+000</G>
#         <H>1.26906489e-001</H>
#         <I>-1.40584351e-004</I>
#         <J>2.47837121e-005</J>
#         <CPcor>-9.57000000e-008</CPcor>
#         <CTcor>3.2500e-006</CTcor>
#         <!-- WBOTC not applicable unless ConductivityType = 1. -->
#         <WBOTC>0.00000000e+000</WBOTC>
#       </Coefficients>
#       <Slope>1.00000000</Slope>
#       <Offset>0.00000</Offset>
#     </ConductivitySensor>
#   </sensor>
#   <sensor Channel="3" >
#     <!-- Count, Pressure, Strain Gauge -->
#     <PressureSensor SensorID="46" >
#       <SerialNumber>7809</SerialNumber>
#       <CalibrationDate>07-Mar-18</CalibrationDate>
#       <PA0>-4.08176359e-002</PA0>
#       <PA1>4.85188419e-004</PA1>
#       <PA2>-3.51168169e-012</PA2>
#       <PTEMPA0>-5.37806900e+001</PTEMPA0>
#       <PTEMPA1>5.36620721e+001</PTEMPA1>
#       <PTEMPA2>4.87214332e-002</PTEMPA2>
#       <PTCA0>5.25213435e+005</PTCA0>
#       <PTCA1>1.79532409e+000</PTCA1>
#       <PTCA2>-2.84353509e-001</PTCA2>
#       <PTCB0>2.51668750e+001</PTCB0>
#       <PTCB1>3.75000000e-004</PTCB1>
#       <PTCB2>0.00000000e+000</PTCB2>
#       <Offset>0.000000</Offset>
#     </PressureSensor>
#   </sensor>
#   <sensor Channel="4" >
#     <!-- A/D voltage 0, pH -->
#     <pH_Sensor SensorID="43" >
#       <SerialNumber>0363</SerialNumber>
#       <CalibrationDate>16-Mar-18</CalibrationDate>
#       <Slope>4.6194</Slope>
#       <Offset>2.5947</Offset>
#     </pH_Sensor>
#   </sensor>
#   <sensor Channel="5" >
#     <!-- A/D voltage 1, Oxidation Reduction Potential -->
#     <OxidationReductionPotentialSensor SensorID="41" >
#       <SerialNumber>0363</SerialNumber>
#       <CalibrationDate>16-Mar-18</CalibrationDate>
#       <B>2.499480</B>
#       <M>-0.496195</M>
#       <Offset>0.0</Offset>
#     </OxidationReductionPotentialSensor>
#   </sensor>
#   <sensor Channel="6" >
#     <!-- A/D voltage 2, Oxygen, SBE 43 -->
#     <OxygenSensor SensorID="38" >
#       <SerialNumber>0434</SerialNumber>
#       <CalibrationDate>13-Mar-18</CalibrationDate>
#       <Use2007Equation>1</Use2007Equation>
#       <CalibrationCoefficients equation="0" >
#         <!-- Coefficients for Owens-Millard equation. -->
#         <Boc>0.0000</Boc>
#         <Soc>0.0000e+000</Soc>
#         <offset>0.0000</offset>
#         <Pcor>0.00e+000</Pcor>
#         <Tcor>0.0000</Tcor>
#         <Tau>0.0</Tau>
#       </CalibrationCoefficients>
#       <CalibrationCoefficients equation="1" >
#         <!-- Coefficients for Sea-Bird equation - SBE calibration in 2007 and later. -->
#         <Soc>4.5718e-001</Soc>
#         <offset>-0.6113</offset>
#         <A>-4.0649e-003</A>
#         <B> 2.0945e-004</B>
#         <C>-3.3182e-006</C>
#         <D0> 2.5826e+000</D0>
#         <D1> 1.92634e-004</D1>
#         <D2>-4.64803e-002</D2>
#         <E> 3.6000e-002</E>
#         <Tau20> 1.2200</Tau20>
#         <H1>-3.3000e-002</H1>
#         <H2> 5.0000e+003</H2>
#         <H3> 1.4500e+003</H3>
#       </CalibrationCoefficients>
#     </OxygenSensor>
#   </sensor>
#   <sensor Channel="7" >
#     <!-- A/D voltage 3, PAR/Logarithmic, Satlantic -->
#     <PARLog_SatlanticSensor SensorID="76" >
#       <SerialNumber>1122</SerialNumber>
#       <CalibrationDate>22-Jun-2017</CalibrationDate>
#       <a0>9.6090e-001</a0>
#       <a1>8.0780e-001</a1>
#       <Im>1.3589e+000</Im>
#       <Multiplier>1.0000e+000</Multiplier>
#     </PARLog_SatlanticSensor>
#   </sensor>
#   <sensor Channel="8" >
#     <!-- A/D voltage 4, Fluorometer, WET Labs ECO-AFL/FL -->
#     <FluoroWetlabECO_AFL_FL_Sensor SensorID="20" >
#       <SerialNumber>FLNTURT-2496</SerialNumber>
#       <CalibrationDate>25-Jan-2017</CalibrationDate>
#       <ScaleFactor>5.30000000e+001</ScaleFactor>
#       <!-- Dark output -->
#       <Vblank>0.0560</Vblank>
#     </FluoroWetlabECO_AFL_FL_Sensor>
#   </sensor>
#   <sensor Channel="9" >
#     <!-- A/D voltage 5, Turbidity Meter, WET Labs, ECO-NTU -->
#     <TurbidityMeter SensorID="67" >
#       <SerialNumber>FLNTURT-2496</SerialNumber>
#       <CalibrationDate>25-Jan-2017</CalibrationDate>
#       <ScaleFactor>176.000000</ScaleFactor>
#       <!-- Dark output -->
#       <DarkVoltage>0.072000</DarkVoltage>
#     </TurbidityMeter>
#   </sensor>
# </Sensors>
# datcnv_date = Jul 30 2018 17:58:12, 7.26.7.114 [datcnv_vars = 14]
# datcnv_in = C:\DATA\073018_bvr50.hex C:\DATA\SBE19plusV2_7809.xmlcon
# datcnv_skipover = 0
# datcnv_ox_hysteresis_correction = yes
# datcnv_ox_tau_correction = yes
# filter_date = Jul 30 2018 17:58:36, 7.26.7.114
# filter_in = C:\DATA\073018_bvr50.cnv
# filter_low_pass_tc_A = 0.030
# filter_low_pass_tc_B = 0.150
# filter_low_pass_A_vars = prdM prdE tv290C
# filter_low_pass_B_vars = depFM dz/dtM sbeox0Mg/L sbeox0PS specc c0uS/cm flECO-AFL ph orp par/sat/log turbWETntu0
# alignctd_date = Jul 30 2018 17:59:03, 7.26.7.114
# alignctd_in = C:\DATA\073018_bvr50.cnv
# alignctd_adv = dz/dtM 1.000, sbeox0Mg/L 1.000, sbeox0PS 1.000, specc 1.000, c0uS/cm 1.000, flECO-AFL 1.000, ph 1.000, orp 1.000, turbWETntu0 1.000                                                                                 
# file_type = ascii
*END*
     -0.180      0.001     6.4050     77.967     34.524  34.742595     3.0634      8.745   133.2471 2.4593e+03     8.4041     -0.176     -0.256    25.2966 0.0000e+00
     -0.180     -0.000     6.3564     77.375     34.800  35.020724     3.0604      8.748   133.4291 2.4491e+03     8.3724     -0.176     -0.255    25.3032 0.0000e+00
     -0.179     -0.002     6.3007     76.696     35.043  35.265132     3.0517      8.749   133.5585 2.4303e+03     8.3355     -0.176     -0.256    25.3081 0.0000e+00
     -0.179     -0.004     6.2426     75.987     35.000  35.220436     3.0309      8.749   133.7795 2.4129e+03     8.2934     -0.175     -0.253    25.3097 0.0000e+00
     -0.180     -0.004     6.1853     75.289     34.706  34.924929     3.0110      8.748   134.1229 2.4048e+03     8.2303     -0.176     -0.255    25.3112 0.0000e+00
     -0.182     -0.003     6.1318     74.640     34.586  34.804643     2.9958      8.747   134.4404 2.4068e+03     8.1520     -0.179     -0.259    25.3109 0.0000e+00
     -0.186     -0.002     6.0855     74.078     34.689  34.909442     2.9749      8.747   134.6926 2.4187e+03     8.1409     -0.182     -0.264    25.3102 0.0000e+00
     -0.186      0.000     6.0458     73.597     34.890  35.112232     2.9708      8.749   134.9356 2.4311e+03     8.1567     -0.184     -0.267    25.3094 0.0000e+00
     -0.184 3.6004e-10     6.0103     73.164     35.064  35.287440     2.9913      8.751   135.1418 2.4364e+03     8.0987     -0.181     -0.262    25.3084 0.0000e+00
     -0.182 3.9605e-09     5.9798     72.794     35.025  35.249302     3.0119      8.752   135.2921 2.4374e+03     8.0196     -0.178     -0.258    25.3098 0.0000e+00
     -0.181 4.3565e-08     5.9560     72.505     34.809  35.032237     3.0171      8.754   135.4631 2.4324e+03     7.9939     -0.177     -0.257    25.3117 0.0000e+00
     -0.181 4.7921e-07     5.9353     72.256     34.662  34.886123     3.0181      8.754   135.7471 2.4254e+03     8.0624     -0.176     -0.255    25.3123 0.0000e+00
     -0.184      0.000     5.9143     72.006     34.780  35.007115     3.0329      8.754   136.0586 2.4214e+03     8.1767     -0.180     -0.261    25.3129 0.0000e+00
     -0.187      0.000     5.8908     71.723     34.869  35.097713     3.0488      8.754   136.3032 2.4159e+03     8.2159     -0.186     -0.270    25.3126 0.0000e+00
     -0.186      0.001     5.8651     71.411     34.737  34.965222     3.0542      8.753   136.5539 2.4096e+03     8.2009     -0.184     -0.267    25.3125 0.0000e+00
     -0.182      0.002     5.8397     71.102     34.764  34.993173     3.0430      8.750   136.8528 2.4038e+03     8.2082     -0.178     -0.257    25.3159 0.0000e+00
     -0.181      0.002     5.8144     70.796     34.950  35.181588     3.0142      8.745   137.2501 2.3999e+03     8.2137     -0.176     -0.255    25.3204 0.0000e+00
     -0.181     -0.001     5.7928     70.535     35.041  35.274226     2.9998      8.740   137.5719 2.3989e+03     8.2359     -0.180     -0.261    25.3221 0.0000e+00
     -0.180     -0.006     5.7813     70.397     35.116  35.351011     2.9983      8.736   137.6464 2.3989e+03     8.2629     -0.176     -0.256    25.3224 0.0000e+00
     -0.180     -0.011     5.7795     70.379     35.048  35.284218     3.0054      8.735   137.6344 2.4076e+03     8.2353     -0.173     -0.250    25.3240 0.0000e+00
     -0.186     -0.012     5.7857     70.459     34.739  34.974802     3.0294      8.737   137.7701 2.4195e+03     8.2070     -0.183     -0.265    25.3246 0.0000e+00
     -0.193     -0.008     5.7982     70.613     34.550  34.785876     3.0498      8.739   138.1690 2.4261e+03     8.2270     -0.190     -0.276    25.3258 0.0000e+00
     -0.200     -0.005     5.8109     70.769     34.731  34.969042     3.0600      8.739   138.4136 2.4341e+03     8.2630     -0.196     -0.285    25.3290 0.0000e+00
     -0.202     -0.003     5.8195     70.873     35.107  35.347392     3.0607      8.740   138.4045 2.4358e+03     8.2457     -0.202     -0.293    25.3308 0.0000e+00
     -0.197     -0.003     5.8249     70.936     35.372  35.612787     3.0856      8.745   138.5752 2.4273e+03     8.1392     -0.194     -0.282    25.3343 0.0000e+00
     -0.187     -0.004     5.8303     71.000     35.334  35.573555     3.1402      8.750   138.8423 2.4167e+03     8.0135     -0.180     -0.261    25.3369 0.0000e+00
     -0.186     -0.004     5.8387     71.104     35.016  35.254156     3.1696      8.752   139.1388 2.4079e+03     7.9767     -0.178     -0.258    25.3381 0.0000e+00
     -0.195     -0.004     5.8493     71.236     34.753  34.990517     3.1832      8.750   139.5800 2.4032e+03     7.9994     -0.191     -0.277    25.3375 0.0000e+00
     -0.205     -0.004     5.8585     71.349     34.751  34.990257     3.1957      8.743   139.9614 2.4025e+03     8.0439     -0.204     -0.295    25.3341 0.0000e+00
     -0.209     -0.004     5.8636     71.413     34.820  35.060454     3.1917      8.737   140.0495 2.4116e+03     8.1484     -0.208     -0.301    25.3321 0.0000e+00
     -0.204     -0.002     5.8637     71.415     34.836  35.077037     3.1900      8.735   139.9575 2.4220e+03     8.2259     -0.200     -0.291    25.3333 0.0000e+00
     -0.197      0.002     5.8578     71.345     34.823  35.063722     3.1939      8.738   140.0530 2.4247e+03     8.2181     -0.190     -0.276    25.3367 0.0000e+00
     -0.194      0.004     5.8456     71.197     34.785  35.026504     3.1279      8.744   140.3439 2.4300e+03     8.1770     -0.188     -0.273    25.3381 0.0000e+00
     -0.196      0.003     5.8296     71.004     34.766  35.008151     2.9984      8.749   140.6357 2.4362e+03     8.1554     -0.192     -0.279    25.3389 0.0000e+00
     -0.199      0.000     5.8119     70.790     34.852  35.095894     2.9341      8.751   141.0000 2.4372e+03     8.1699     -0.196     -0.284    25.3398 0.0000e+00
     -0.200     -0.001     5.7942     70.576     35.016  35.261645     2.9385      8.750   141.3073 2.4364e+03     8.2001     -0.197     -0.286    25.3402 0.0000e+00
     -0.200     -0.000     5.7780     70.380     35.113  35.360706     2.9865      8.749   141.4253 2.4353e+03     8.2158     -0.197     -0.285    25.3412 0.0000e+00
     -0.198      0.001     5.7628     70.195     35.093  35.340831     3.0731      8.749   141.4806 2.4328e+03     8.2072     -0.195     -0.282    25.3423 0.0000e+00
     -0.197      0.002     5.7474     70.010     35.027  35.275425     3.1226      8.750   141.5452 2.4313e+03     8.1873     -0.193     -0.279    25.3440 0.0000e+00
     -0.197      0.002     5.7321     69.826     34.956  35.205091     3.1242      8.751   141.7771 2.4335e+03     8.1573     -0.192     -0.278    25.3455 0.0000e+00
     -0.198      0.001     5.7181     69.658     34.938  35.189147     3.1212      8.749   142.1334 2.4380e+03     8.1503     -0.193     -0.281    25.3464 0.0000e+00
     -0.198     -0.001     5.7054     69.505     35.147  35.400256     3.1228      8.748   142.4979 2.4439e+03     8.1638     -0.195     -0.283    25.3467 0.0000e+00
     -0.197     -0.004     5.6929     69.354     35.470  35.724926     3.1252      8.750   142.8278 2.4503e+03     8.1678     -0.194     -0.281    25.3476 0.0000e+00
     -0.197     -0.008     5.6815     69.213     35.494  35.748074     3.1310      8.755   142.8524 2.4532e+03     8.1983     -0.192     -0.279    25.3497 0.0000e+00
     -0.197     -0.009     5.6723     69.101     35.174  35.426051     3.1289      8.757   142.7097 2.4536e+03     8.2887     -0.192     -0.279    25.3521 0.0000e+00
     -0.201     -0.007     5.6648     69.013     34.945  35.198000     3.1097      8.753   142.8233 2.4536e+03     8.3755     -0.196     -0.283    25.3542 0.0000e+00
     -0.210     -0.003     5.6617     68.978     35.023  35.277485     3.0829      8.747   143.0214 2.4506e+03     8.3939     -0.206     -0.298    25.3546 0.0000e+00
     -0.215     -0.001     5.6639     69.003     35.179  35.434291     3.0615      8.745   143.2117 2.4490e+03     8.3893     -0.215     -0.311    25.3524 0.0000e+00
     -0.210      0.001     5.6660     69.028     35.251  35.505912     3.0623      8.746   143.4901 2.4485e+03     8.3805     -0.209     -0.303    25.3516 0.0000e+00
     -0.201      0.003     5.6651     69.017     35.253  35.508242     3.0655      8.746   143.6344 2.4470e+03     8.3186     -0.193     -0.281    25.3552 0.0000e+00
     -0.196      0.003     5.6600     68.955     35.208  35.462459     3.0544      8.748   143.7509 2.4475e+03     8.2508     -0.189     -0.274    25.3583 0.0000e+00
     -0.199      0.001     5.6486     68.817     35.079  35.333489     3.0564      8.753   143.9530 2.4425e+03     8.2320     -0.196     -0.284    25.3575 0.0000e+00
     -0.203     -0.002     5.6314     68.608     34.902  35.155773     3.0699      8.757   144.0994 2.4381e+03     8.2139     -0.201     -0.291    25.3548 0.0000e+00
     -0.205     -0.003     5.6125     68.378     34.839  35.092282     3.1079      8.759   144.2298 2.4416e+03     8.2444     -0.201     -0.292    25.3543 0.0000e+00
     -0.208     -0.002     5.5975     68.195     35.010  35.264544     3.1671      8.759   144.3258 2.4481e+03     8.3572     -0.203     -0.295    25.3556 0.0000e+00
     -0.209      0.001     5.5880     68.079     35.267  35.523511     3.1978      8.756   144.3998 2.4600e+03     8.4187     -0.206     -0.299    25.3563 0.0000e+00
     -0.205      0.003     5.5806     67.989     35.426  35.682602     3.2030      8.755   144.4353 2.4698e+03     8.4082     -0.203     -0.293    25.3574 0.0000e+00
     -0.200      0.004     5.5727     67.895     35.532  35.790638     3.1569      8.756   144.4112 2.4732e+03     8.3522     -0.194     -0.282    25.3577 0.0000e+00
     -0.199      0.004     5.5649     67.800     35.554  35.813421     3.0637      8.758   144.5392 2.4784e+03     8.2301     -0.194     -0.282    25.3582 0.0000e+00
     -0.201      0.003     5.5561     67.694     35.508  35.767499     3.0221      8.760   144.7775 2.4686e+03     8.1526     -0.199     -0.288    25.3578 0.0000e+00
     -0.201      0.001     5.5429     67.534     35.484  35.743578     3.0306      8.761   144.8831 2.4459e+03     8.1774     -0.197     -0.286    25.3567 0.0000e+00
     -0.200     -0.001     5.5230     67.291     35.455  35.714768     3.0194      8.762   144.8698 2.4324e+03     8.2246     -0.195     -0.283    25.3579 0.0000e+00
     -0.201     -0.002     5.4985     66.993     35.413  35.673238     2.9960      8.762   144.9613 2.4244e+03     8.2354     -0.197     -0.286    25.3586 0.0000e+00
     -0.201     -0.001     5.4729     66.682     35.426  35.686104     2.9963      8.759   145.3014 2.4240e+03     8.2168     -0.198     -0.285    25.3589 0.0000e+00
     -0.202     -0.001     5.4482     66.382     35.546  35.806810     3.0143      8.754   145.7114 2.4300e+03     8.2131     -0.197     -0.286    25.3599 0.0000e+00
     -0.204     -0.001     5.4252     66.103     35.726  35.989289     3.0213      8.752   145.8749 2.4397e+03     8.2211     -0.200     -0.292    25.3602 0.0000e+00
     -0.204      0.000     5.4037     65.841     35.912  36.177332     3.0067      8.752   145.9014 2.4559e+03     8.2224     -0.201     -0.291    25.3608 0.0000e+00
     -0.203 6.3129e-08     5.3818     65.575     36.098  36.365299     2.9848      8.753   146.0324 2.4654e+03     8.2290     -0.198     -0.287    25.3615 0.0000e+00
     -0.202 6.9442e-07     5.3608     65.320     36.215  36.483319     2.9769      8.755   146.1677 2.4656e+03     8.2398     -0.197     -0.286    25.3620 0.0000e+00
     -0.202      0.000     5.3444     65.121     36.130  36.397345     2.9851      8.758   146.1604 2.4646e+03     8.2298     -0.198     -0.287    25.3627 0.0000e+00
     -0.202      0.000     5.3330     64.984     35.885  36.151608     2.9737      8.760   146.1162 2.4561e+03     8.2008     -0.198     -0.287    25.3632 0.0000e+00
     -0.203      0.001     5.3247     64.885     35.659  35.926031     2.9394      8.761   146.3217 2.4400e+03     8.1942     -0.198     -0.287    25.3636 0.0000e+00
     -0.204      0.003     5.3180     64.806     35.562  35.829697     2.9200      8.762   146.6668 2.4280e+03     8.2111     -0.201     -0.292    25.3639 0.0000e+00
     -0.204      0.005     5.3120     64.734     35.545  35.812630     2.9230      8.763   146.8481 2.4237e+03     8.2211     -0.202     -0.293    25.3641 0.0000e+00
     -0.201      0.005     5.3059     64.659     35.515  35.783205     2.9664      8.764   147.0509 2.4276e+03     8.2546     -0.197     -0.286    25.3656 0.0000e+00
     -0.196      0.005     5.3005     64.594     35.649  35.918584     3.0314      8.764   147.3978 2.4352e+03     8.3418     -0.191     -0.277    25.3681 0.0000e+00
     -0.194      0.002     5.2954     64.533     36.096  36.369579     3.0567      8.761   147.7724 2.4402e+03     8.4206     -0.188     -0.273    25.3705 0.0000e+00
     -0.194     -0.006     5.2893     64.457     36.702  36.980076     3.0508      8.758   148.1390 2.4433e+03     8.4443     -0.190     -0.276    25.3714 0.0000e+00
     -0.196     -0.018     5.2875     64.430     37.241  37.519296     3.0342      8.755   148.4749 2.4457e+03     8.3848     -0.192     -0.279    25.3717 0.0000e+00
     -0.199     -0.033     5.3013     64.590     37.596  37.870643     3.0127      8.755   148.7360 2.4480e+03     8.2493     -0.192     -0.278    25.3726 0.0000e+00
     -0.208     -0.047     5.3396     65.045     37.719  37.988258     3.0016      8.758   148.8002 2.4485e+03     8.1488     -0.200     -0.290    25.3732 0.0000e+00
     -0.224     -0.060     5.3996     65.768     37.346  37.607267     2.9922      8.765   148.9077 2.4435e+03     8.1470     -0.217     -0.316    25.3726 0.0000e+00
     -0.245     -0.067     5.4740     66.669     36.569  36.821616     2.9717      8.771   149.0033 2.4311e+03     8.1970     -0.240     -0.349    25.3687 0.0000e+00
     -0.266     -0.064     5.5683     67.816     35.865  36.112191     2.9479      8.773   148.8370 2.4091e+03     8.2347     -0.260     -0.377    25.3592 0.0000e+00
     -0.289     -0.048     5.6956     69.364     35.267  35.509192     2.9335      8.769   148.7047 2.3891e+03     8.2372     -0.283     -0.411    25.3499 0.0000e+00
     -0.309     -0.020     5.8616     71.369     35.016  35.247781     2.9360      8.760   148.5212 2.3838e+03     8.2262     -0.309     -0.449    25.3430 0.0000e+00
     -0.317      0.011     6.0562     73.694     35.345  35.555841     2.9788      8.755   148.4256 2.3822e+03     8.3159     -0.315     -0.456    25.3383 0.0000e+00
     -0.308      0.036     6.2534     76.036     35.811  35.994317     3.0458      8.759   148.5820 2.3804e+03     8.4979     -0.310     -0.449    25.3385 0.0000e+00
     -0.280      0.051     6.4308     78.149     36.131  36.293366     3.0743      8.765   148.6049 2.3994e+03     8.5953     -0.280     -0.407    25.3409 0.0000e+00
     -0.245      0.056     6.5816     79.964     36.286  36.440079     3.0672      8.770   148.6172 2.3589e+03     8.6080     -0.232     -0.338    25.3333 0.0000e+00
     -0.225      0.051     6.7099     81.527     36.341  36.497734     3.0611      8.771   148.7297 1.9777e+03     8.5911     -0.214     -0.311    25.2960 0.0000e+00
     -0.220      0.038     6.8215     82.894     36.383  36.545804     3.1193      8.772   148.8463 1.3975e+03     8.4825     -0.215     -0.311    25.2449 0.0000e+00
     -0.222      0.022     6.9187     84.088     36.408  36.576624     3.2475      8.775   148.9090 1.3868e+03     8.3323     -0.218     -0.315    25.2106 0.0000e+00
     -0.223      0.010     7.0077     85.179     36.379  36.552761     3.3240      8.778   148.8851 1.9687e+03     8.2698     -0.220     -0.319    25.2015 0.0000e+00
     -0.221      0.005     7.0888     86.172     36.209  36.384340     3.3276      8.781   148.9019 2.3846e+03     8.2467     -0.216     -0.314    25.2092 0.0000e+00
     -0.219      0.008     7.1523     86.946     35.763  35.937799     3.2821      8.782   148.8545 2.4676e+03     8.2661     -0.215     -0.312    25.2173 0.0000e+00
     -0.218      0.018     7.1914     87.417     34.670  34.837988     3.1967      8.778   148.7424 2.4648e+03     8.3828     -0.213     -0.309    25.2253 0.0000e+00
     -0.217      0.037     7.2102     87.627     33.667  33.821288     3.1403      8.772   148.7509 2.4568e+03     8.4672     -0.214     -0.311    25.2325 0.0000e+00
     -0.212      0.057     7.2303     87.823     33.673  33.807842     3.1242      8.767   148.7854 2.4515e+03     8.4630     -0.208     -0.302    25.2373 0.0000e+00
     -0.201      0.071     7.2854     88.433     34.057  34.167430     3.1768      8.767   148.8152 2.4468e+03     8.4232     -0.204     -0.297    25.2389 0.0000e+00
     -0.171      0.076     7.3914     89.682     34.452  34.548625     3.2894      8.767   148.9382 2.4550e+03     8.3818     -0.177     -0.259    25.2378 0.0000e+00
     -0.127      0.074     7.5253     91.298     34.766  34.859834     3.3547      8.766   149.0692 2.4671e+03     8.3601     -0.113     -0.165    25.2318 0.0000e+00
     -0.100      0.064     7.6500     92.820     34.847  34.944884     3.3690      8.767   149.1935 2.4604e+03     8.3742     -0.089     -0.129    25.1979 0.0000e+00
     -0.094      0.048     7.7370     93.888     34.839  34.941769     3.3710      8.771   149.3230 2.4366e+03     8.3999     -0.093     -0.135    25.1498 0.0000e+00
     -0.094      0.028     7.7690     94.289     34.842  34.949226     3.3694      8.774   149.4304 2.3894e+03     8.3954     -0.092     -0.133    25.1267 0.0000e+00
     -0.095      0.012     7.7409     93.958     34.923  35.035047     3.3768      8.775   149.5450 2.2944e+03     8.3810     -0.094     -0.137    25.1259 0.0000e+00
     -0.096      0.005     7.6523     92.892     35.037  35.153679     3.3878      8.777   149.6762 1.8790e+03     8.3791     -0.094     -0.136    25.1326 0.0000e+00
     -0.094      0.004     7.5126     91.208     35.119  35.240244     3.4099      8.779   149.8122 1.3104e+03     8.3413     -0.092     -0.134    25.1411 0.0000e+00
     -0.090      0.004     7.3445     89.178     35.130  35.255944     3.4416      8.779   149.9857 1.4325e+03     8.2595     -0.089     -0.128    25.1482 0.0000e+00
     -0.088      0.004     7.1729     87.105     35.150  35.279989     3.4581      8.779   150.2249 2.0513e+03     8.2142     -0.087     -0.125    25.1545 0.0000e+00
     -0.087      0.002     7.0143     85.187     35.206  35.340416     3.4537      8.777   150.3814 2.3576e+03     8.2214     -0.085     -0.124    25.1603 0.0000e+00
     -0.088      0.000     6.8757     83.510     35.151  35.287840     3.4437      8.777   150.5013 2.3843e+03     8.2246     -0.086     -0.126    25.1668 0.0000e+00
     -0.088     -0.002     6.7584     82.091     35.014  35.152469     3.4111      8.775   150.7279 2.3552e+03     8.1915     -0.087     -0.125    25.1740 0.0000e+00
     -0.089     -0.002     6.6626     80.931     34.961  35.101105     3.3531      8.773   150.9700 2.0139e+03     8.1573     -0.086     -0.126    25.1803 0.0000e+00
     -0.092     -0.002     6.5859     80.001     34.970  35.111452     3.3213      8.772   151.1919 1.7037e+03     8.1468     -0.090     -0.131    25.1851 0.0000e+00
     -0.093     -0.001     6.5201     79.206     35.007  35.150532     3.3204      8.771   151.3455 2.0199e+03     8.1552     -0.092     -0.134    25.1898 0.0000e+00
     -0.091      0.000     6.4613     78.494     34.983  35.128980     3.3064      8.770   151.4513 2.3669e+03     8.2286     -0.088     -0.130    25.1936 0.0000e+00
     -0.090      0.001     6.4074     77.844     34.894  35.041424     3.2811      8.764   151.5246 2.4055e+03     8.3629     -0.088     -0.126    25.1956 0.0000e+00
     -0.090      0.002     6.3575     77.241     34.959  35.108215     3.2714      8.756   151.5432 2.4112e+03     8.4366     -0.088     -0.128    25.1974 0.0000e+00
     -0.091      0.001     6.3140     76.715     35.087  35.237839     3.2715      8.755   151.7618 2.4053e+03     8.4174     -0.089     -0.130    25.1996 0.0000e+00
     -0.091     -0.000     6.2782     76.283     35.123  35.274775     3.2905      8.759   152.0168 2.3713e+03     8.3448     -0.091     -0.132    25.2019 0.0000e+00
     -0.088     -0.001     6.2495     75.935     35.021  35.173692     3.3189      8.764   152.0451 2.3011e+03     8.2307     -0.086     -0.124    25.2045 0.0000e+00
     -0.087      0.002     6.2240     75.626     34.690  34.841403     3.3301      8.767   152.1891 2.2424e+03     8.1668     -0.084     -0.121    25.2073 0.0000e+00
     -0.090      0.008     6.1982     75.313     34.347  34.496579     3.3335      8.765   152.5539 2.2209e+03     8.1829     -0.089     -0.130    25.2092 0.0000e+00
     -0.093      0.014     6.1702     74.972     34.349  34.497993     3.3327      8.760   152.7572 2.1915e+03     8.3029     -0.092     -0.133    25.2102 0.0000e+00
     -0.091      0.019     6.1392     74.592     34.583  34.731461     3.3294      8.755   152.7541 1.9455e+03     8.5188     -0.093     -0.134    25.2114 0.0000e+00
     -0.081      0.022     6.1064     74.190     34.631  34.778689     3.3303      8.757   152.7751 1.4675e+03     8.6566     -0.083     -0.120    25.2129 0.0000e+00
     -0.066      0.023     6.0712     73.760     34.416  34.560872     3.3351      8.761   152.9246 1.0635e+03     8.6570     -0.063     -0.091    25.2130 0.0000e+00
     -0.055      0.023     6.0308     73.268     34.178  34.320992     3.3779      8.765   153.1851 8.0778e+02     8.4925     -0.048     -0.070    25.2115 0.0000e+00
     -0.054      0.020     5.9864     72.727     34.023  34.164970     3.4618      8.770   153.3433 6.8989e+02     8.2558     -0.051     -0.075    25.2096 0.0000e+00
     -0.055      0.016     5.9438     72.207     33.932  34.071808     3.5132      8.773   153.4607 9.1829e+02     8.1753     -0.057     -0.083    25.2070 0.0000e+00
     -0.054      0.012     5.9049     71.733     34.008  34.147329     3.5211      8.774   153.6586 1.2002e+03     8.1901     -0.053     -0.077    25.2048 0.0000e+00
     -0.050      0.009     5.8680     71.284     34.176  34.315874     3.5206      8.774   153.7562 1.1748e+03     8.1902     -0.048     -0.071    25.2035 0.0000e+00
     -0.045      0.008     5.8357     70.891     34.191  34.331199     3.5246      8.774   153.8669 1.2650e+03     8.2074     -0.044     -0.065    25.2022 0.0000e+00
     -0.040      0.007     5.8101     70.578     34.067  34.205577     3.5335      8.774   154.1372 1.4852e+03     8.2157     -0.038     -0.054    25.2008 0.0000e+00
     -0.038      0.004     5.7906     70.339     33.994  34.130861     3.5360      8.774   154.2715 1.5482e+03     8.1985     -0.035     -0.051    25.1996 0.0000e+00
     -0.041      0.002     5.7758     70.157     34.054  34.190020     3.5368      8.774   154.2858 1.5256e+03     8.1824     -0.041     -0.059    25.1992 0.0000e+00
     -0.044      0.000     5.7619     69.987     34.150  34.285691     3.5522      8.773   154.3968 1.5228e+03     8.1729     -0.045     -0.065    25.1984 0.0000e+00
     -0.043     -0.001     5.7469     69.804     34.199  34.334848     3.5752      8.772   154.4944 1.5518e+03     8.1759     -0.043     -0.063    25.1969 0.0000e+00
     -0.042      0.000     5.7322     69.624     34.204  34.339753     3.5855      8.771   154.4332 1.5903e+03     8.1883     -0.040     -0.057    25.1958 0.0000e+00
     -0.042      0.002     5.7179     69.449     34.083  34.217959     3.5836      8.770   154.4312 1.6158e+03     8.2005     -0.040     -0.058    25.1943 0.0000e+00
     -0.042      0.004     5.7020     69.256     33.998  34.132586     3.5528      8.767   154.6415 1.5804e+03     8.2928     -0.042     -0.061    25.1928 0.0000e+00
     -0.042      0.004     5.6840     69.039     34.188  34.323778     3.4981      8.764   154.8260 1.5010e+03     8.4800     -0.041     -0.060    25.1919 0.0000e+00
     -0.040      0.001     5.6660     68.820     34.361  34.497102     3.4644      8.763   154.9407 1.2906e+03     8.6025     -0.040     -0.058    25.1910 0.0000e+00
     -0.036     -0.003     5.6499     68.625     34.187  34.322710     3.4494      8.764   155.0815 9.7807e+02     8.6147     -0.037     -0.053    25.1909 0.0000e+00
     -0.034     -0.006     5.6356     68.451     33.797  33.930183     3.3805      8.765   155.3243 7.3693e+02     8.5362     -0.031     -0.045    25.1912 0.0000e+00
     -0.038     -0.007     5.6218     68.283     33.493  33.625623     3.2561      8.764   155.5533 6.4289e+02     8.4162     -0.034     -0.050    25.1918 0.0000e+00
     -0.048     -0.006     5.6122     68.165     33.430  33.562040     3.1864      8.761   155.6994 6.3809e+02     8.3842     -0.049     -0.071    25.1921 0.0000e+00
     -0.054     -0.006     5.6144     68.188     33.793  33.923580     3.1814      8.759   155.7144 6.3751e+02     8.4241     -0.057     -0.083    25.1915 0.0000e+00
     -0.053     -0.008     5.6288     68.357     34.436  34.567060     3.1768      8.759   155.5625 6.7616e+02     8.4413     -0.053     -0.077    25.1913 0.0000e+00
     -0.048     -0.014     5.6478     68.592     34.539  34.672989     3.1582      8.763   155.5838 7.9976e+02     8.4090     -0.047     -0.068    25.1927 0.0000e+00
     -0.043     -0.021     5.6700     68.877     33.986  34.124562     3.1393      8.767   155.7133 8.5231e+02     8.3990     -0.040     -0.058    25.1919 0.0000e+00
     -0.046     -0.028     5.7034     69.295     33.446  33.589156     3.1328      8.768   155.8375 7.4412e+02     8.4431     -0.037     -0.054    25.1876 0.0000e+00
     -0.064     -0.033     5.7590     69.973     33.074  33.217274     3.1351      8.768   156.0530 6.6084e+02     8.4233     -0.060     -0.087    25.1812 0.0000e+00
     -0.087     -0.033     5.8446     71.008     32.728  32.867405     3.1391      8.767   156.0816 6.7470e+02     8.3120     -0.093     -0.134    25.1828 0.0000e+00
     -0.100     -0.027     5.9621     72.424     32.402  32.534585     3.1354      8.763   155.9256 9.1445e+02     8.1956     -0.100     -0.147    25.1997 0.0000e+00
     -0.102     -0.013     6.1053     74.145     32.183  32.305277     3.1269      8.757   155.8886 1.4317e+03     8.1461     -0.100     -0.144    25.2121 0.0000e+00
     -0.100      0.003     6.2598     76.002     32.205  32.317763     3.1284      8.751   155.9778 1.8310e+03     8.1707     -0.099     -0.143    25.2119 0.0000e+00
     -0.094      0.014     6.4093     77.798     32.453  32.558510     3.1358      8.750   155.9714 1.9345e+03     8.2186     -0.094     -0.137    25.2081 0.0000e+00
     -0.084      0.016     6.5353     79.310     32.641  32.739158     3.1337      8.755   155.8966 1.9329e+03     8.2367     -0.083     -0.120    25.2004 0.0000e+00
     -0.074      0.012     6.6219     80.347     32.632  32.723624     3.1297      8.761   156.0200 1.9534e+03     8.2062     -0.070     -0.102    25.1838 0.0000e+00
     -0.070      0.005     6.6666     80.878     32.475  32.561215     3.1343      8.766   156.2590 1.9524e+03     8.1859     -0.067     -0.097    25.1677 0.0000e+00
     -0.073     -0.005     6.6799     81.034     32.216  32.299756     3.1343      8.767   156.2052 1.8874e+03     8.2054     -0.071     -0.101    25.1571 0.0000e+00
     -0.079     -0.012     6.6783     81.012     32.148  32.229831     3.1291      8.765   155.8863 1.8324e+03     8.1964     -0.078     -0.114    25.1444 0.0000e+00
     -0.085     -0.015     6.6759     80.981     32.523  32.604917     3.1261      8.762   155.7586 1.5693e+03     8.1695     -0.083     -0.121    25.1328 0.0000e+00
     -0.092     -0.014     6.6774     80.997     33.258  33.341720     3.1165      8.762   156.0373 1.3410e+03     8.1858     -0.089     -0.129    25.1267 0.0000e+00
     -0.098     -0.009     6.6748     80.967     34.002  34.088445     3.1237      8.762   156.3310 1.6152e+03     8.2403     -0.099     -0.142    25.1238 0.0000e+00
     -0.100     -0.006     6.6578     80.777     34.425  34.519800     3.1675      8.762   156.2125 1.8216e+03     8.3093     -0.101     -0.145    25.1222 0.0000e+00
     -0.097     -0.006     6.6258     80.420     34.510  34.619155     3.2040      8.762   156.0674 1.6018e+03     8.3483     -0.095     -0.138    25.1207 0.0000e+00
     -0.092     -0.007     6.5908     80.028     34.466  34.591075     3.2169      8.765   156.1253 1.4582e+03     8.3773     -0.088     -0.128    25.1196 0.0000e+00
     -0.092     -0.008     6.5740     79.843     34.364  34.497900     3.2503      8.769   156.0523 1.5217e+03     8.3538     -0.086     -0.126    25.1169 0.0000e+00
     -0.099     -0.011     6.5905     80.053     34.245  34.381849     3.3036      8.771   155.8726 1.2974e+03     8.2481     -0.096     -0.140    25.1255 0.0000e+00
     -0.108     -0.013     6.6412     80.672     34.320  34.458272     3.3281      8.773   155.6737 8.7380e+02     8.1977     -0.108     -0.156    25.1536 0.0000e+00
     -0.113     -0.014     6.7125     81.538     34.457  34.596193     3.3262      8.776   155.4541 7.3111e+02     8.2027     -0.111     -0.161    25.1787 0.0000e+00
     -0.115     -0.012     6.7834     82.399     34.512  34.652038     3.3270      8.778   155.3679 8.2663e+02     8.1860     -0.112     -0.162    25.1914 0.0000e+00
     -0.115     -0.007     6.8381     83.063     34.486  34.625348     3.3105      8.777   155.4919 8.7927e+02     8.1785     -0.114     -0.164    25.1964 0.0000e+00
     -0.115     -0.003     6.8672     83.417     33.313  33.447743     3.2739      8.776   155.7493 7.9482e+02     8.2044     -0.113     -0.165    25.1965 0.0000e+00
     -0.116      0.001     6.8707     83.447     30.899  31.020132     3.2611      8.777   156.0708 7.7187e+02     8.2241     -0.113     -0.164    25.1962 0.0000e+00
     -0.117      0.004     6.8927     83.677     29.243  29.343806     3.2654      8.779   156.3672 1.0158e+03     8.2027     -0.115     -0.168    25.1965 0.0000e+00
     -0.117      0.005     7.0273     85.254     28.851  28.929450     3.2619      8.779   156.4947 1.4880e+03     8.2211     -0.117     -0.170    25.1963 0.0000e+00
     -0.114      0.004     7.3253     88.817     28.808  28.867747     3.2553      8.779   156.4933 1.8913e+03     8.3241     -0.113     -0.164    25.1965 0.0000e+00
     -0.109     -0.000     7.7383     93.791     28.804  28.851739     3.2495      8.775   156.3510 2.0660e+03     8.4100     -0.106     -0.154    25.1956 0.0000e+00
     -0.107     -0.007     8.1891     99.236     28.821  28.862889     3.2562      8.768   155.9783 2.1173e+03     8.4353     -0.103     -0.149    25.1713 0.0000e+00
     -0.109     -0.016     8.6165    104.406     28.836  28.875542     3.2807      8.760   155.6007 2.1251e+03     8.4167     -0.105     -0.152    25.1254 0.0000e+00
     -0.114     -0.025     8.9737    108.734     28.839  28.877725     3.3067      8.757   155.4850 2.0761e+03     8.3994     -0.111     -0.161    25.0917 0.0000e+00
     -0.124     -0.032     9.2368    111.927     28.849  28.889278     3.3136      8.759   155.6124 1.9983e+03     8.4090     -0.121     -0.175    25.0738 0.0000e+00
     -0.137     -0.035     9.3913    113.805     28.846  28.888237     3.3087      8.765   155.9358 1.9533e+03     8.4102     -0.134     -0.194    25.0639 0.0000e+00
     -0.150     -0.032     9.4341    114.327     28.822  28.865147     3.2760      8.770   156.2978 2.0154e+03     8.3842     -0.148     -0.214    25.0605 0.0000e+00
     -0.160     -0.026     9.3911    113.809     28.820  28.864087     3.2118      8.771   156.3758 2.2013e+03     8.3086     -0.159     -0.230    25.0606 0.0000e+00
     -0.166     -0.019     9.3056    112.779     28.830  28.875423     3.1854      8.770   156.1903 2.3290e+03     8.2281     -0.165     -0.239    25.0635 0.0000e+00
     -0.167     -0.014     9.2127    111.659     28.828  28.875215     3.1958      8.770   155.9485 2.3308e+03     8.2043     -0.165     -0.240    25.0672 0.0000e+00
     -0.165     -0.009     9.1312    110.673     28.814  28.861579     3.1996      8.773   155.9473 2.2982e+03     8.2039     -0.162     -0.235    25.0688 0.0000e+00
     -0.165     -0.003     9.0652    109.872     28.790  28.837551     3.1948      8.778   156.4336 2.2898e+03     8.1924     -0.160     -0.232    25.0695 0.0000e+00
     -0.169      0.005     9.0128    109.236     28.792  28.838696     3.1829      8.781   157.0961 2.3132e+03     8.1870     -0.165     -0.240    25.0725 0.0000e+00
     -0.174      0.016     8.9719    108.740     28.828  28.875422     3.1759      8.782   157.7636 2.3257e+03     8.2002     -0.174     -0.253    25.0761 0.0000e+00
     -0.173      0.027     8.9362    108.308     28.853  28.900594     3.1744      8.781   158.4806 2.3096e+03     8.1994     -0.174     -0.254    25.0774 0.0000e+00
     -0.163      0.038     8.9028    107.907     28.841  28.889048     3.1462      8.776   159.0540 2.2898e+03     8.1774     -0.161     -0.234    25.0766 0.0000e+00
     -0.145      0.045     8.8753    107.575     28.815  28.862826     3.0924      8.769   159.3625 2.2793e+03     8.1789     -0.142     -0.206    25.0753 0.0000e+00
     -0.125      0.047     8.8556    107.335     28.790  28.837551     3.0662      8.765   159.4574 2.2533e+03     8.2167     -0.122     -0.177    25.0750 0.0000e+00
     -0.108      0.043     8.8428    107.176     28.790  28.837447     3.0684      8.765   159.5131 2.2165e+03     8.2386     -0.104     -0.151    25.0759 0.0000e+00
     -0.098      0.036     8.8348    107.079     28.814  28.861568     3.0462      8.764   159.6058 2.1923e+03     8.1995     -0.093     -0.135    25.0771 0.0000e+00
     -0.095      0.026     8.8323    107.049     28.828  28.875193     3.0089      8.763   159.6316 2.1827e+03     8.1397     -0.093     -0.134    25.0786 0.0000e+00
     -0.095      0.017     8.8346    107.077     28.828  28.875183     3.0024      8.762   159.5670 2.1510e+03     8.1267     -0.095     -0.139    25.0780 0.0000e+00
     -0.091      0.009     8.8368    107.104     28.814  28.861452     3.0139      8.758   159.5125 2.0712e+03     8.1632     -0.089     -0.130    25.0761 0.0000e+00
     -0.086      0.004     8.8361    107.095     28.789  28.836177     3.0473      8.758   159.5756 1.9958e+03     8.2156     -0.084     -0.120    25.0756 0.0000e+00
     -0.084      0.003     8.8336    107.068     28.776  28.823583     3.1029      8.762   159.7272 1.9619e+03     8.2421     -0.082     -0.118    25.0761 0.0000e+00
     -0.087      0.003     8.8314    107.042     28.788  28.836177     3.1259      8.766   159.7974 1.9171e+03     8.2077     -0.084     -0.122    25.0762 0.0000e+00
     -0.091     -0.001     8.8333    107.064     28.813  28.861452     3.1222      8.766   159.8222 1.8409e+03     8.1970     -0.090     -0.131    25.0753 0.0000e+00
     -0.091     -0.004     8.8427    107.176     28.828  28.875182     3.1139      8.768   159.9408 1.7419e+03     8.2346     -0.094     -0.135    25.0751 0.0000e+00
     -0.084     -0.004     8.8552    107.328     28.828  28.875192     3.0895      8.772   160.1130 1.6763e+03     8.2356     -0.081     -0.117    25.0775 0.0000e+00
     -0.084     -0.001     8.8637    107.430     28.814  28.861567     3.0669      8.775   160.1831 1.7281e+03     8.2096     -0.077     -0.111    25.0784 0.0000e+00
     -0.092      0.002     8.8671    107.470     28.791  28.837437     3.0609      8.777   160.1858 1.7960e+03     8.1946     -0.094     -0.137    25.0762 0.0000e+00
     -0.096      0.002     8.8688    107.489     28.791  28.837438     3.0901      8.778   160.2320 1.7889e+03     8.2058     -0.100     -0.144    25.0759 0.0000e+00
     -0.090      0.003     8.8703    107.505     28.816  28.861580     3.1537      8.778   160.3116 1.5783e+03     8.2229     -0.089     -0.128    25.0764 0.0000e+00
     -0.084      0.005     8.8698    107.498     28.830  28.875329     3.1959      8.778   160.3732 1.1453e+03     8.2189     -0.081     -0.117    25.0761 0.0000e+00
     -0.083      0.007     8.8658    107.448     28.831  28.876682     3.1953      8.777   160.3755 9.3955e+02     8.1881     -0.081     -0.119    25.0756 0.0000e+00
     -0.083      0.008     8.8604    107.389     28.830  28.877941     3.1835      8.773   160.5115 1.0616e+03     8.1551     -0.083     -0.120    25.0734 0.0000e+00
     -0.082      0.004     8.8571    107.364     28.839  28.890547     3.1907      8.768   160.8135 1.2453e+03     8.1560     -0.081     -0.116    25.0727 0.0000e+00
     -0.082     -0.006     8.8567    107.379     28.845  28.902111     3.1995      8.761   160.9294 1.4814e+03     8.1680     -0.082     -0.118    25.0723 0.0000e+00
     -0.080     -0.022     8.8577    107.416     28.826  28.890762     3.1889      8.754   160.5355 1.7274e+03     8.1482     -0.081     -0.117    25.0708 0.0000e+00
     -0.077     -0.042     8.8587    107.455     28.808  28.880342     3.1828      8.751   159.7508 1.8407e+03     8.1606     -0.073     -0.105    25.0744 0.0000e+00
     -0.084     -0.063     8.8626    107.519     28.826  28.903138     3.1523      8.750   158.8417 1.8012e+03     8.2258     -0.074     -0.107    25.0822 0.0000e+00
     -0.110     -0.079     8.8709    107.619     28.836  28.912395     3.0863      8.752   158.0610 1.7657e+03     8.2356     -0.103     -0.150    25.0917 0.0000e+00
     -0.147     -0.088     8.8793    107.714     28.791  28.865268     3.0559      8.756   157.7961 1.7648e+03     8.1872     -0.146     -0.212    25.1057 0.0000e+00
     -0.181     -0.088     8.8861    107.795     28.767  28.841327     3.0610      8.759   157.9623 1.5896e+03     8.1292     -0.179     -0.261    25.1211 0.0000e+00
     -0.208     -0.080     8.8911    107.863     28.800  28.876928     3.0655      8.762   158.1773 1.2432e+03     8.1139     -0.207     -0.300    25.1313 0.0000e+00
     -0.224     -0.065     8.8918    107.882     28.834  28.914714     3.0733      8.766   158.3318 1.1487e+03     8.1540     -0.225     -0.325    25.1294 0.0000e+00
     -0.229     -0.050     8.8874    107.838     28.834  28.917202     3.0736      8.770   158.4533 1.4278e+03     8.1876     -0.227     -0.328    25.1213 0.0000e+00
     -0.233     -0.037     8.8825    107.786     28.823  28.907008     3.0601      8.775   158.5279 1.6689e+03     8.2147     -0.226     -0.329    25.1213 0.0000e+00
     -0.243     -0.026     8.8813    107.774     28.834  28.918470     3.0475      8.779   158.5453 1.7724e+03     8.2686     -0.237     -0.344    25.1270 0.0000e+00
     -0.255     -0.017     8.8813    107.775     28.844  28.928786     3.0498      8.782   158.5769 1.8964e+03     8.3512     -0.253     -0.366    25.1330 0.0000e+00
     -0.262     -0.010     8.8801    107.761     28.820  28.904741     3.0695      8.783   158.6519 1.9877e+03     8.4196     -0.260     -0.378    25.1381 0.0000e+00
     -0.262     -0.001     8.8783    107.737     28.797  28.881744     3.0744      8.781   158.7640 2.0134e+03     8.4245     -0.259     -0.375    25.1416 0.0000e+00
     -0.257      0.014     8.8776    107.727     28.820  28.904732     3.0628      8.775   159.2444 1.9731e+03     8.3492     -0.252     -0.364    25.1426 0.0000e+00
     -0.251      0.033     8.8799    107.754     28.844  28.928673     3.0760      8.767   160.2445 1.7121e+03     8.2417     -0.245     -0.354    25.1427 0.0000e+00
     -0.246      0.053     8.8845    107.803     28.834  28.917212     3.1057      8.762   161.3050 1.3852e+03     8.2227     -0.244     -0.354    25.1426 0.0000e+00
     -0.236      0.071     8.8877    107.821     28.816  28.893167     3.1278      8.757   162.0010 1.1855e+03     8.2718     -0.237     -0.345    25.1420 0.0000e+00
     -0.213      0.085     8.8860    107.778     28.822  28.891937     3.1318      8.754   162.3786 9.3309e+02     8.2554     -0.212     -0.308    25.1394 0.0000e+00
     -0.180      0.092     8.8794    107.688     28.835  28.902329     3.1263      8.754   162.5152 7.3781e+02     8.2082     -0.176     -0.254    25.1409 0.0000e+00
     -0.145      0.092     8.8734    107.616     28.825  28.891814     3.1351      8.758   162.4479 7.4996e+02     8.1893     -0.140     -0.203    25.1423 0.0000e+00
     -0.116      0.082     8.8723    107.607     28.823  28.891804     3.1373      8.763   162.4244 1.0193e+03     8.1803     -0.110     -0.159    25.1274 0.0000e+00
     -0.097      0.066     8.8701    107.582     28.833  28.902204     3.1246      8.768   162.4041 1.5099e+03     8.1908     -0.091     -0.132    25.1118 0.0000e+00
     -0.087      0.045     8.8626    107.490     28.821  28.890555     3.1195      8.773   162.3747 1.8491e+03     8.1929     -0.084     -0.122    25.1080 0.0000e+00
     -0.082      0.024     8.8545    107.389     28.810  28.877961     3.1224      8.777   162.4130 1.8786e+03     8.1757     -0.082     -0.118    25.1103 0.0000e+00
     -0.076      0.007     8.8492    107.317     28.811  28.876929     3.1319      8.778   162.4366 1.7604e+03     8.1959     -0.074     -0.107    25.1137 0.0000e+00
     -0.075     -0.003     8.8484    107.298     28.815  28.878074     3.1418      8.778   162.4883 1.6875e+03     8.2238     -0.069     -0.101    25.1139 0.0000e+00
     -0.082     -0.006     8.8522    107.342     28.830  28.891806     3.1408      8.778   162.6943 1.7058e+03     8.2073     -0.080     -0.116    25.1132 0.0000e+00
     -0.092     -0.006     8.8574    107.416     28.851  28.915956     3.1297      8.777   162.9486 1.7360e+03     8.1808     -0.093     -0.134    25.1128 0.0000e+00
     -0.097     -0.004     8.8621    107.489     28.846  28.916070     3.1262      8.776   162.9811 1.7568e+03     8.1776     -0.098     -0.141    25.1090 0.0000e+00
     -0.095     -0.001     8.8661    107.548     28.820  28.893187     3.1367      8.777   162.9154 1.7688e+03     8.1995     -0.096     -0.138    25.1021 0.0000e+00
     -0.088      0.003     8.8696    107.593     28.820  28.893292     3.1272      8.777   163.0149 1.7433e+03     8.2012     -0.087     -0.125    25.0999 0.0000e+00
     -0.082      0.004     8.8706    107.604     28.844  28.917338     3.0846      8.776   163.2375 1.7038e+03     8.1681     -0.078     -0.113    25.1067 0.0000e+00
     -0.082      0.001     8.8668    107.557     28.856  28.929923     3.0534      8.774   163.4556 1.6897e+03     8.1648     -0.078     -0.113    25.1170 0.0000e+00
     -0.086     -0.004     8.8605    107.478     28.846  28.918453     3.0625      8.771   163.5870 1.6896e+03     8.1922     -0.085     -0.124    25.1225 0.0000e+00
     -0.089     -0.008     8.8563    107.425     28.834  28.905658     3.0936      8.766   163.6220 1.7020e+03     8.1945     -0.089     -0.129    25.1226 0.0000e+00
     -0.091     -0.010     8.8560    107.423     28.830  28.902214     3.1171      8.764   163.5345 1.7100e+03     8.1922     -0.088     -0.128    25.1217 0.0000e+00
     -0.095     -0.010     8.8582    107.453     28.803  28.876815     3.1175      8.763   163.3893 1.7091e+03     8.1952     -0.093     -0.134    25.1217 0.0000e+00
     -0.099     -0.006     8.8625    107.510     28.778  28.852569     3.1167      8.761   163.4143 1.7112e+03     8.1997     -0.099     -0.144    25.1204 0.0000e+00
     -0.100     -0.003     8.8683    107.582     28.788  28.863064     3.1257      8.761   163.4933 1.7009e+03     8.2158     -0.098     -0.140    25.1183 0.0000e+00
     -0.101     -0.003     8.8713    107.617     28.802  28.876709     3.1251      8.765   163.4845 1.6859e+03     8.2069     -0.100     -0.144    25.1189 0.0000e+00
     -0.100     -0.004     8.8694    107.595     28.816  28.890542     3.1181      8.769   163.5659 1.7071e+03     8.1837     -0.102     -0.149    25.1216 0.0000e+00
     -0.094     -0.007     8.8652    107.547     28.828  28.903327     3.1148      8.773   163.7892 1.7637e+03     8.1792     -0.087     -0.127    25.1250 0.0000e+00
     -0.094     -0.010     8.8599    107.485     28.828  28.904283     3.1136      8.776   163.9475 1.8016e+03     8.1838     -0.088     -0.128    25.1258 0.0000e+00
     -0.103     -0.012     8.8545    107.421     28.825  28.902098     3.1211      8.778   163.9307 1.7809e+03     8.1781     -0.104     -0.151    25.1234 0.0000e+00
     -0.111     -0.012     8.8521    107.391     28.800  28.876916     3.1322      8.780   163.9307 1.5375e+03     8.1721     -0.110     -0.160    25.1236 0.0000e+00
     -0.115     -0.010     8.8544    107.411     28.779  28.853806     3.1281      8.782   164.0335 1.1347e+03     8.1716     -0.112     -0.163    25.1259 0.0000e+00
     -0.117     -0.002     8.8616    107.481     28.807  28.876679     3.1268      8.783   164.1414 1.1336e+03     8.1720     -0.116     -0.169    25.1273 0.0000e+00
     -0.117      0.011     8.8711    107.576     28.836  28.899467     3.1525      8.781   164.2029 1.5284e+03     8.2382     -0.116     -0.168    25.1278 0.0000e+00
     -0.115      0.025     8.8782    107.638     28.819  28.875317     3.1820      8.778   164.2601 1.7660e+03     8.3616     -0.114     -0.165    25.1289 0.0000e+00
     -0.109      0.037     8.8818    107.664     28.788  28.838675     3.1897      8.776   164.1447 1.7885e+03     8.4123     -0.111     -0.161    25.1252 0.0000e+00
     -0.095      0.052     8.8841    107.685     28.788  28.837425     3.1899      8.773   163.8393 1.6769e+03     8.3938     -0.094     -0.137    25.1158 0.0000e+00
     -0.077      0.071     8.8836    107.677     28.812  28.860204     3.2218      8.767   163.6656 1.5078e+03     8.5039     -0.075     -0.109    25.1049 0.0000e+00
     -0.060      0.091     8.8793    107.617     28.813  28.860081     3.2812      8.762   163.5932 1.4969e+03     8.7359     -0.058     -0.085    25.0899 0.0000e+00
     -0.041      0.104     8.8727    107.517     28.795  28.835939     3.3202      8.763   163.5666 1.4730e+03     8.8494     -0.043     -0.062    25.0809 0.0000e+00
     -0.010      0.109     8.8657    107.407     28.789  28.822294     3.3261      8.767   163.5159 1.1727e+03     8.8387     -0.018     -0.026    25.0788 0.0000e+00
      0.034      0.105     8.8615    107.342     28.793  28.822096     3.3427      8.770   163.4102 8.0795e+02     8.7277      0.036      0.052    25.0794 0.0000e+00
      0.074      0.095     8.8624    107.348     28.806  28.833538     3.3930      8.773   163.4939 6.6940e+02     8.5456      0.083      0.119    25.0788 0.0000e+00
      0.096      0.078     8.8684    107.418     28.807  28.833633     3.4283      8.775   163.7529 7.0128e+02     8.4378      0.095      0.138    25.0656 0.0000e+00
      0.106      0.056     8.8789    107.543     28.797  28.823251     3.4378      8.776   163.9614 7.2327e+02     8.4004      0.105      0.152    25.0499 0.0000e+00
      0.111      0.034     8.8914    107.699     28.808  28.835006     3.4447      8.776   164.1217 6.8651e+02     8.3993      0.111      0.161    25.0433 0.0000e+00
      0.115      0.019     8.9016    107.831     28.819  28.848764     3.4474      8.776   164.3140 6.4508e+02     8.3637      0.112      0.163    25.0423 0.0000e+00
      0.118      0.011     8.9052    107.884     28.830  28.862600     3.4523      8.776   164.4800 6.3741e+02     8.2745      0.117      0.170    25.0412 0.0000e+00
      0.119      0.006     8.8994    107.818     28.841  28.875300     3.4573      8.776   164.5801 7.0196e+02     8.2364      0.116      0.169    25.0394 0.0000e+00
      0.119      0.003     8.8869    107.671     28.840  28.875319     3.4532      8.776   164.6632 7.7647e+02     8.2389      0.115      0.168    25.0412 0.0000e+00
      0.120      0.002     8.8745    107.526     28.826  28.862830     3.4301      8.775   164.7971 7.4742e+02     8.2741      0.118      0.171    25.0472 0.0000e+00
      0.120      0.001     8.8638    107.404     28.812  28.851294     3.3977      8.775   164.9077 6.9489e+02     8.3566      0.119      0.172    25.0521 0.0000e+00
      0.119      0.002     8.8571    107.328     28.822  28.862839     3.3837      8.776   164.9682 7.2814e+02     8.4127      0.117      0.170    25.0536 0.0000e+00
      0.119      0.006     8.8552    107.305     28.835  28.875424     3.3898      8.776   165.0991 8.1818e+02     8.4340      0.116      0.169    25.0547 0.0000e+00
      0.119      0.011     8.8556    107.309     28.836  28.876466     3.4068      8.775   165.2003 8.7308e+02     8.4306      0.117      0.170    25.0580 0.0000e+00
      0.122      0.016     8.8591    107.349     28.835  28.875434     3.4328      8.773   165.2453 8.8033e+02     8.4025      0.118      0.171    25.0630 0.0000e+00
      0.127      0.019     8.8675    107.446     28.824  28.862943     3.4562      8.773   165.3846 8.2105e+02     8.3995      0.123      0.178    25.0661 0.0000e+00
      0.135      0.019     8.8793    107.586     28.814  28.852430     3.4607      8.773   165.5081 7.0129e+02     8.3938      0.131      0.192    25.0655 0.0000e+00
      0.145      0.019     8.8902    107.719     28.837  28.875321     3.4687      8.772   165.7048 6.2540e+02     8.3642      0.146      0.212    25.0641 0.0000e+00
      0.150      0.019     8.8960    107.794     28.847  28.885721     3.4976      8.770   166.0426 6.2857e+02     8.3773      0.151      0.219    25.0629 0.0000e+00
      0.150      0.015     8.8968    107.804     28.812  28.851180     3.5156      8.767   166.2371 6.9860e+02     8.3992      0.145      0.211    25.0612 0.0000e+00
      0.150      0.003     8.8957    107.792     28.799  28.838689     3.5111      8.763   166.3361 7.5652e+02     8.3857      0.144      0.210    25.0590 0.0000e+00
      0.156     -0.018     8.8927    107.771     28.818  28.861693     3.4988      8.759   166.4651 7.8566e+02     8.3968      0.152      0.221    25.0589 0.0000e+00
      0.162     -0.048     8.8847    107.702     28.823  28.875327     3.4776      8.759   166.5925 8.9462e+02     8.3811      0.163      0.237    25.0631 0.0000e+00
      0.156     -0.081     8.8686    107.536     28.815  28.876556     3.4572      8.760   166.7574 9.8282e+02     8.2876      0.161      0.233    25.0629 0.0000e+00
      0.131     -0.109     8.8459    107.285     28.808  28.876564     3.4539      8.762   166.8249 1.0089e+03     8.2112      0.137      0.197    25.0597 0.0000e+00
      0.084     -0.124     8.8241    107.036     28.803  28.875439     3.4464      8.765   166.7199 9.7178e+02     8.1905      0.088      0.127    25.0680 0.0000e+00
      0.025     -0.121     8.8122    106.896     28.789  28.862949     3.3943      8.765   166.6062 8.6895e+02     8.2208      0.020      0.030    25.0847 0.0000e+00
     -0.023     -0.104     8.8131    106.897     28.781  28.852559     3.3116      8.765   166.5691 8.9130e+02     8.3023     -0.033     -0.047    25.1005 0.0000e+00
     -0.046     -0.081     8.8231    107.004     28.810  28.876804     3.2646      8.768   166.6147 8.5865e+02     8.3831     -0.054     -0.077    25.1133 0.0000e+00
     -0.044     -0.059     8.8402    107.207     28.837  28.902090     3.2574      8.772   166.6418 6.8234e+02     8.4034     -0.048     -0.069    25.1226 0.0000e+00
     -0.034     -0.044     8.8624    107.489     28.836  28.904284     3.2701      8.774   166.5525 7.0449e+02     8.3345     -0.029     -0.042    25.1251 0.0000e+00
     -0.035     -0.034     8.8853    107.788     28.829  28.903337     3.2997      8.775   166.5673 1.0357e+03     8.2210     -0.025     -0.036    25.1181 0.0000e+00
     -0.055     -0.027     8.9031    108.023     28.811  28.890655     3.3207      8.773   166.9068 1.4677e+03     8.1605     -0.051     -0.074    25.1075 0.0000e+00
     -0.081     -0.013     8.9115    108.129     28.796  28.877947     3.3302      8.768   167.2168 1.7442e+03     8.1834     -0.084     -0.124    25.1037 0.0000e+00
     -0.096      0.012     8.9091    108.093     28.797  28.876688     3.3502      8.765   167.3038 1.8344e+03     8.3146     -0.099     -0.144    25.1119 0.0000e+00
     -0.093      0.045     8.8956    107.914     28.800  28.875439     3.3789      8.765   167.4415 1.9823e+03     8.4949     -0.097     -0.141    25.1253 0.0000e+00
     -0.070      0.077     8.8747    107.645     28.792  28.862836     3.3926      8.766   167.5915 1.9613e+03     8.5934     -0.078     -0.113    25.1367 0.0000e+00
     -0.029      0.102     8.8551    107.385     28.787  28.851301     3.3968      8.766   167.7407 1.3962e+03     8.6212     -0.030     -0.043    25.1403 0.0000e+00
      0.017      0.112     8.8406    107.185     28.805  28.862952     3.4022      8.764   167.9549 8.7126e+02     8.5255      0.024      0.035    25.1331 0.0000e+00
      0.050      0.108     8.8338    107.094     28.821  28.876702     3.4019      8.762   168.0311 7.4248e+02     8.3216      0.053      0.077    25.1246 0.0000e+00
      0.071      0.092     8.8376    107.148     28.833  28.890546     3.3931      8.763   167.9732 6.9128e+02     8.2007      0.069      0.100    25.1190 0.0000e+00
      0.089      0.067     8.8504    107.317     28.842  28.903340     3.3876      8.765   168.0294 7.2152e+02     8.1926      0.088      0.127    25.1070 0.0000e+00
      0.106      0.040     8.8676    107.538     28.839  28.904400     3.3914      8.766   168.1942 9.5846e+02     8.1931      0.107      0.154    25.0908 0.0000e+00
      0.116      0.020     8.8840    107.752     28.834  28.903360     3.3658      8.765   168.3308 1.2091e+03     8.1758      0.116      0.169    25.0861 0.0000e+00
      0.118      0.005     8.8962    107.911     28.818  28.890773     3.3079      8.764   168.4758 1.2310e+03     8.1667      0.120      0.175    25.0933 0.0000e+00
      0.109     -0.009     8.9019    107.983     28.806  28.879219     3.2709      8.765   168.5710 1.0847e+03     8.1444      0.109      0.158    25.1005 0.0000e+00
      0.097     -0.019     8.9015    107.979     28.817  28.890659     3.2579      8.767   168.6219 1.0009e+03     8.1506      0.089      0.129    25.1054 0.0000e+00
      0.093     -0.020     8.8976    107.936     28.827  28.902101     3.2517      8.770   168.7472 1.0592e+03     8.1805      0.091      0.133    25.1149 0.0000e+00
      0.091     -0.013     8.8912    107.860     28.815  28.890556     3.2512      8.771   168.7957 1.2219e+03     8.1695      0.095      0.137    25.1230 0.0000e+00
      0.081     -0.003     8.8818    107.739     28.805  28.878073     3.2519      8.771   168.7779 1.4026e+03     8.1702      0.077      0.111    25.1213 0.0000e+00
      0.077      0.004     8.8706    107.597     28.807  28.878178     3.2499      8.767   168.8764 1.3792e+03     8.1895      0.067      0.097    25.1202 0.0000e+00
      0.087      0.007     8.8601    107.469     28.821  28.891814     3.2643      8.762   168.9535 1.1911e+03     8.1888      0.086      0.125    25.1252 0.0000e+00
      0.098      0.006     8.8524    107.379     28.843  28.915944     3.2970      8.761   168.8499 1.0364e+03     8.1929      0.100      0.146    25.1276 0.0000e+00
      0.102      0.003     8.8498    107.354     28.842  28.915944     3.3064      8.765   168.8284 1.0200e+03     8.2080      0.100      0.146    25.1213 0.0000e+00
      0.101     -0.002     8.8533    107.399     28.817  28.891813     3.3038      8.769   168.9519 1.1702e+03     8.2188      0.102      0.148    25.1167 0.0000e+00
      0.096     -0.008     8.8616    107.499     28.803  28.878177     3.3115      8.773   168.8806 1.3199e+03     8.2326      0.095      0.138    25.1175 0.0000e+00
      0.087     -0.009     8.8721    107.625     28.803  28.878073     3.3165      8.777   168.7399 1.3281e+03     8.2530      0.084      0.123    25.1195 0.0000e+00
      0.082     -0.000     8.8812    107.731     28.817  28.890555     3.3187      8.779   168.8003 1.2689e+03     8.2514      0.079      0.114    25.1226 0.0000e+00
      0.080      0.015     8.8860    107.783     28.831  28.902080     3.3195      8.779   169.0086 1.2447e+03     8.2437      0.077      0.113    25.1244 0.0000e+00
      0.083      0.035     8.8842    107.753     28.821  28.890430     3.3444      8.777   169.2792 1.2206e+03     8.4343      0.078      0.114    25.1246 0.0000e+00
      0.094      0.056     8.8761    107.644     28.811  28.876689     3.3998      8.773   169.5762 1.1719e+03     8.7860      0.087      0.126    25.1237 0.0000e+00
      0.115      0.074     8.8672    107.518     28.802  28.862940     3.4380      8.772   169.9326 1.1049e+03     8.9565      0.112      0.162    25.1212 0.0000e+00
      0.142      0.088     8.8615    107.425     28.797  28.851187     3.4467      8.772   170.3195 1.0138e+03     8.9700      0.139      0.202    25.1179 0.0000e+00
      0.170      0.095     8.8571    107.345     28.815  28.861570     3.4498      8.772   170.6410 9.5345e+02     8.9794      0.166      0.241    25.1144 0.0000e+00
      0.197      0.095     8.8523    107.264     28.822  28.861455     3.4848      8.772   170.8940 9.3221e+02     8.9474      0.194      0.280    25.1095 0.0000e+00
      0.222      0.091     8.8483    107.195     28.817  28.849797     3.5487      8.773   171.1417 8.7306e+02     8.8884      0.218      0.315    25.1008 0.0000e+00
      0.245      0.086     8.8461    107.152     28.819  28.847603     3.5794      8.775   171.3986 8.1880e+02     8.8467      0.242      0.352    25.0875 0.0000e+00
      0.264      0.082     8.8488    107.170     28.811  28.834922     3.5801      8.776   171.6771 8.1247e+02     8.8084      0.260      0.378    25.0737 0.0000e+00
      0.281      0.081     8.8551    107.235     28.803  28.823463     3.6214      8.776   172.0146 7.9111e+02     8.7920      0.276      0.400    25.0615 0.0000e+00
      0.299      0.083     8.8589    107.271     28.818  28.836048     3.7018      8.775   172.4672 7.6641e+02     8.8006      0.293      0.425    25.0506 0.0000e+00
      0.319      0.086     8.8603    107.280     28.844  28.860084     3.7529      8.771   172.8480 7.4313e+02     8.7911      0.311      0.450    25.0428 0.0000e+00
      0.343      0.089     8.8619    107.292     28.847  28.860075     3.7790      8.768   172.9185 7.1875e+02     8.7680      0.337      0.488    25.0360 0.0000e+00
      0.370      0.090     8.8640    107.311     28.825  28.835935     3.8810      8.769   172.8898 6.9216e+02     8.6749      0.364      0.528    25.0293 0.0000e+00
      0.396      0.090     8.8685    107.360     28.813  28.822205     4.0577      8.772   173.0172 6.4623e+02     8.5198      0.390      0.565    25.0246 0.0000e+00
      0.420      0.089     8.8737    107.418     28.813  28.821060     4.1596      8.775   173.2537 6.1559e+02     8.4182      0.415      0.601    25.0208 0.0000e+00
      0.439      0.087     8.8765    107.447     28.815  28.822091     4.1945      8.776   173.4268 6.0812e+02     8.3927      0.431      0.626    25.0169 0.0000e+00
      0.457      0.084     8.8784    107.463     28.830  28.834676     4.4887      8.778   173.5622 5.9797e+02     8.4252      0.445      0.646    25.0138 0.0000e+00
      0.479      0.083     8.8776    107.449     28.843  28.846221     5.0232      8.781   173.7715 5.6599e+02     8.4439      0.470      0.681    25.0119 0.0000e+00
      0.504      0.083     8.8744    107.404     28.833  28.834676     5.3083      8.783   173.9783 5.3205e+02     8.4055      0.496      0.720    25.0098 0.0000e+00
      0.524      0.085     8.8736    107.389     28.822  28.822081     5.3452      8.782   174.1701 5.2197e+02     8.3878      0.515      0.747    25.0060 0.0000e+00
      0.544      0.088     8.8770    107.425     28.822  28.820938     5.4592      8.778   174.3700 5.1444e+02     8.4741      0.534      0.773    25.0029 0.0000e+00
      0.565      0.089     8.8816    107.476     28.824  28.820843     5.6577      8.774   174.5022 4.9272e+02     8.5954      0.553      0.802    25.0005 0.0000e+00
      0.588      0.089     8.8867    107.532     28.826  28.820928     5.7689      8.773   174.6497 4.7185e+02     8.6330      0.574      0.833    24.9977 0.0000e+00
      0.614      0.087     8.8948    107.628     28.827  28.821967     5.7842      8.775   174.8623 4.5425e+02     8.6241      0.601      0.870    24.9955 0.0000e+00
      0.641      0.084     8.9023    107.718     28.838  28.833407     5.7887      8.778   174.9227 4.3180e+02     8.6097      0.632      0.915    24.9929 0.0000e+00
      0.664      0.080     8.9041    107.742     28.837  28.832243     5.8321      8.782   174.8636 4.1325e+02     8.5808      0.654      0.948    24.9891 0.0000e+00
      0.680      0.076     8.9010    107.705     28.812  28.807903     5.9230      8.785   175.0079 4.0858e+02     8.5807      0.667      0.967    24.9858 0.0000e+00
      0.694      0.073     8.8952    107.635     28.798  28.793104     5.9784      8.786   175.3774 4.0351e+02     8.6086      0.679      0.985    24.9844 0.0000e+00
      0.710      0.072     8.8911    107.582     28.786  28.780309     5.9870      8.785   175.7173 3.8786e+02     8.6122      0.694      1.008    24.9847 0.0000e+00
      0.730      0.073     8.8895    107.556     28.787  28.780204     6.0263      8.782   175.9333 3.7440e+02     8.6542      0.715      1.038    24.9862 0.0000e+00
      0.750      0.076     8.8880    107.526     28.802  28.791835     6.1045      8.779   176.0969 3.6190e+02     8.7506      0.736      1.068    24.9874 0.0000e+00
      0.771      0.078     8.8871    107.504     28.807  28.793925     6.1514      8.779   176.2329 3.4912e+02     8.8012      0.755      1.096    24.9873 0.0000e+00
      0.791      0.079     8.8877    107.502     28.822  28.805471     6.1703      8.780   176.4591 3.3859e+02     8.8088      0.777      1.127    24.9858 0.0000e+00
      0.811      0.080     8.8890    107.512     28.822  28.804430     6.2230      8.780   176.7667 3.2773e+02     8.8123      0.797      1.156    24.9821 0.0000e+00
      0.830      0.081     8.8894    107.507     28.802  28.781330     6.3015      8.779   176.9404 3.1882e+02     8.8127      0.813      1.179    24.9760 0.0000e+00
      0.849      0.082     8.8865    107.460     28.804  28.780175     6.3482      8.777   177.0962 3.0977e+02     8.8127      0.832      1.206    24.9690 0.0000e+00
      0.871      0.084     8.8830    107.405     28.818  28.790461     6.3649      8.775   177.3598 2.9904e+02     8.8123      0.854      1.239    24.9653 0.0000e+00
      0.895      0.088     8.8834    107.396     28.811  28.778688     6.4202      8.774   177.4608 2.8861e+02     8.8084      0.878      1.274    24.9632 0.0000e+00
      0.916      0.092     8.8847    107.395     28.802  28.764825     6.5017      8.774   177.3710 2.7877e+02     8.8262      0.899      1.304    24.9586 0.0000e+00
      0.938      0.094     8.8840    107.365     28.793  28.749830     6.5330      8.774   177.4780 2.6771e+02     8.8442      0.917      1.330    24.9521 0.0000e+00
      0.964      0.097     8.8840    107.345     28.773  28.724378     6.5412      8.772   177.7235 2.5484e+02     8.8438      0.944      1.370    24.9453 0.0000e+00
      0.991      0.098     8.8845    107.337     28.764  28.711087     6.6092      8.769   177.6720 2.4412e+02     8.8515      0.974      1.414    24.9395 0.0000e+00
      1.016      0.098     8.8809    107.275     28.775  28.716115     6.7207      8.769   177.4571 2.3536e+02     8.8455      0.996      1.445    24.9312 0.0000e+00
      1.041      0.097     8.8712    107.137     28.786  28.721660     6.7781      8.773   177.3622 2.2500e+02     8.8323      1.019      1.478    24.9175 0.0000e+00
      1.069      0.094     8.8588    106.972     28.784  28.714630     6.7799      8.777   177.3845 2.1559e+02     8.8135      1.051      1.524    24.9078 0.0000e+00
      1.094      0.091     8.8463    106.811     28.767  28.694595     6.7881      8.779   177.5545 2.0959e+02     8.8019      1.076      1.560    24.9034 0.0000e+00
      1.113      0.089     8.8357    106.672     28.745  28.669925     6.8134      8.779   177.8693 2.0355e+02     8.8149      1.089      1.579    24.8931 0.0000e+00
      1.133      0.087     8.8317    106.616     28.748  28.670342     6.8464      8.776   178.1788 1.9557e+02     8.8177      1.110      1.609    24.8810 0.0000e+00
      1.157      0.087     8.8356    106.657     28.779  28.699631     6.8658      8.771   178.2858 1.8907e+02     8.8048      1.136      1.648    24.8730 0.0000e+00
      1.178      0.087     8.8445    106.760     28.787  28.706548     6.8642      8.769   178.2167 1.8409e+02     8.8116      1.156      1.676    24.8682 0.0000e+00
      1.199      0.087     8.8572    106.913     28.771  28.690468     6.8732      8.770   178.1167 1.7746e+02     8.8390      1.174      1.703    24.8636 0.0000e+00
      1.223      0.086     8.8695    107.062     28.776  28.695715     6.9005      8.772   178.0237 1.7048e+02     8.8309      1.201      1.741    24.8588 0.0000e+00
      1.247      0.085     8.8768    107.151     28.787  28.706493     6.9189      8.774   178.0391 1.6560e+02     8.8044      1.226      1.777    24.8561 0.0000e+00
      1.268      0.084     8.8803    107.194     28.774  28.693786     6.9294      8.774   178.3036 1.6116e+02     8.8239      1.242      1.801    24.8543 0.0000e+00
      1.288      0.085     8.8798    107.184     28.750  28.669068     6.9362      8.772   178.6398 1.5601e+02     8.8535      1.263      1.831    24.8535 0.0000e+00
      1.309      0.087     8.8724    107.090     28.744  28.661624     6.9362      8.768   178.7484 1.5137e+02     8.8571      1.284      1.863    24.8537 0.0000e+00
      1.329      0.090     8.8614    106.952     28.751  28.667284     6.9299      8.764   178.6699 1.4659e+02     8.8370      1.302      1.888    24.8549 0.0000e+00
      1.352      0.095     8.8508    106.819     28.760  28.674003     6.9244      8.762   178.7242 1.4067e+02     8.7935      1.323      1.920    24.8555 0.0000e+00
      1.379      0.100     8.8408    106.695     28.766  28.679360     6.9711      8.760   179.0603 1.3457e+02     8.7890      1.352      1.961    24.8540 0.0000e+00
      1.407      0.104     8.8281    106.540     28.756  28.668551     7.0622      8.757   179.2914 1.2913e+02     8.8433      1.382      2.004    24.8514 0.0000e+00
      1.433      0.105     8.8123    106.348     28.758  28.670312     7.1071      8.756   179.1954 1.2415e+02     8.8702      1.406      2.039    24.8479 0.0000e+00
      1.460      0.104     8.8030    106.237     28.788  28.700642     7.1099      8.756   179.1908 1.1936e+02     8.8402      1.431      2.075    24.8447 0.0000e+00
      1.489      0.104     8.8066    106.281     28.805  28.717770     7.1601      8.754   179.4943 1.1444e+02     8.7852      1.460      2.117    24.8433 0.0000e+00
      1.516      0.104     8.8184    106.424     28.774  28.686902     7.2540      8.751   179.7671 1.1009e+02     8.6938      1.488      2.159    24.8422 0.0000e+00
      1.540      0.104     8.8322    106.588     28.732  28.644918     7.3089      8.749   179.8216 1.0675e+02     8.6197      1.511      2.191    24.8420 0.0000e+00
      1.563      0.104     8.8440    106.727     28.743  28.654656     7.3174      8.749   179.8952 1.0262e+02     8.6215      1.529      2.219    24.8429 0.0000e+00
      1.591      0.103     8.8525    106.825     28.768  28.677643     7.3114      8.749   179.9689 9.7634e+01     8.6240      1.559      2.262    24.8437 0.0000e+00
      1.622      0.101     8.8587    106.899     28.759  28.668851     7.3466      8.749   179.9382 9.3580e+01     8.6205      1.593      2.311    24.8439 0.0000e+00
      1.649      0.099     8.8619    106.939     28.765  28.675347     7.4397      8.750   180.0405 9.0243e+01     8.6392      1.618      2.345    24.8427 0.0000e+00
      1.673      0.096     8.8605    106.926     28.780  28.692683     7.4992      8.751   180.2597 8.7126e+01     8.6371      1.641      2.380    24.8402 0.0000e+00
      1.695      0.095     8.8565    106.881     28.775  28.687961     7.5062      8.750   180.5227 8.4602e+01     8.6255      1.665      2.413    24.8377 0.0000e+00
      1.716      0.096     8.8515    106.826     28.767  28.681765     7.5420      8.747   180.8123 8.2195e+01     8.6514      1.683      2.440    24.8370 0.0000e+00
      1.738      0.101     8.8441    106.743     28.765  28.681262     7.6294      8.745   180.8356 7.9337e+01     8.7373      1.702      2.469    24.8387 0.0000e+00
      1.763      0.105     8.8341    106.626     28.765  28.681879     7.6898      8.746   180.6329 7.6111e+01     8.8088      1.726      2.505    24.8407 0.0000e+00
      1.793      0.107     8.8256    106.525     28.772  28.689221     7.7016      8.747   180.5979 7.2559e+01     8.8140      1.757      2.549    24.8423 0.0000e+00
      1.827      0.107     8.8244    106.512     28.788  28.706540     7.7447      8.745   180.8428 6.9188e+01     8.7699      1.792      2.601    24.8446 0.0000e+00
      1.857      0.107     8.8313    106.596     28.783  28.700778     7.8254      8.744   181.0123 6.6789e+01     8.6719      1.824      2.646    24.8480 0.0000e+00
      1.881      0.104     8.8412    106.717     28.765  28.683049     7.8691      8.744   181.0133 6.4931e+01     8.6054      1.845      2.676    24.8507 0.0000e+00
      1.904      0.100     8.8521    106.853     28.763  28.682686     7.8684      8.745   181.1987 6.2764e+01     8.6071      1.865      2.705    24.8512 0.0000e+00
      1.929      0.097     8.8623    106.979     28.776  28.696392     7.8264      8.745   181.4462 6.0404e+01     8.6007      1.891      2.742    24.8512 0.0000e+00
      1.954      0.097     8.8670    107.039     28.801  28.721769     7.7468      8.745   181.3400 5.8335e+01     8.5894      1.918      2.782    24.8515 0.0000e+00
      1.977      0.098     8.8653    107.023     28.813  28.735517     7.6959      8.745   181.0325 5.6513e+01     8.5924      1.940      2.814    24.8525 0.0000e+00
      2.001      0.098     8.8613    106.978     28.812  28.735622     7.6896      8.746   180.9974 5.4463e+01     8.6071      1.961      2.844    24.8543 0.0000e+00
      2.029      0.098     8.8601    106.964     28.799  28.723037     7.7164      8.747   181.2599 5.2270e+01     8.6151      1.990      2.886    24.8565 0.0000e+00
      2.056      0.098     8.8648    107.020     28.786  28.710353     7.7714      8.747   181.4530 5.0506e+01     8.5976      2.018      2.927    24.8577 0.0000e+00
      2.079      0.099     8.8721    107.109     28.785  28.709261     7.8029      8.745   181.5253 4.8961e+01     8.6085      2.038      2.956    24.8595 0.0000e+00
      2.103      0.100     8.8773    107.174     28.785  28.709833     7.8040      8.744   181.6184 4.7221e+01     8.6547      2.061      2.990    24.8624 0.0000e+00
      2.128      0.101     8.8793    107.198     28.792  28.717265     7.8120      8.744   181.6315 4.5526e+01     8.6678      2.087      3.027    24.8626 0.0000e+00
      2.154      0.103     8.8755    107.153     28.811  28.735620     7.8350      8.743   181.5975 4.3892e+01     8.6148      2.111      3.062    24.8620 0.0000e+00
      2.181      0.105     8.8667    107.047     28.816  28.741269     7.8622      8.743   181.6380 4.2163e+01     8.5626      2.137      3.100    24.8628 0.0000e+00
      2.209      0.105     8.8572    106.931     28.797  28.722053     7.8737      8.742   181.7774 4.0463e+01     8.5870      2.166      3.142    24.8633 0.0000e+00
      2.237      0.104     8.8508    106.853     28.769  28.693776     7.8826      8.741   181.9061 3.8923e+01     8.6350      2.194      3.182    24.8637 0.0000e+00
      2.264      0.104     8.8491    106.827     28.730  28.653376     7.9971      8.740   181.9893 3.7599e+01     8.6540      2.221      3.221    24.8637 0.0000e+00
      2.289      0.104     8.8488    106.808     28.695  28.614585     8.2012      8.737   182.0956 3.6379e+01     8.6649      2.245      3.256    24.8636 0.0000e+00
      2.314      0.104     8.8460    106.750     28.694  28.605744     8.3003      8.736   182.1593 3.5097e+01     8.6747      2.268      3.289    24.8634 0.0000e+00
      2.340      0.103     8.8397    106.648     28.706  28.609971     8.3043      8.739   182.1563 3.3795e+01     8.6814      2.294      3.328    24.8633 0.0000e+00
      2.367      0.102     8.8297    106.505     28.705  28.602186     8.3333      8.741   182.2319 3.2513e+01     8.6534      2.321      3.367    24.8619 0.0000e+00
      2.395      0.103     8.8155    106.321     28.681  28.575097     8.3741      8.741   182.4706 3.1276e+01     8.5804      2.349      3.407    24.8545 0.0000e+00
      2.421      0.105     8.7979    106.103     28.644  28.536433     8.3848      8.740   182.7200 3.0238e+01     8.5628      2.376      3.446    24.8410 0.0000e+00
      2.445      0.107     8.7815    105.896     28.626  28.515703     8.3891      8.738   183.0102 2.9275e+01     8.6232      2.397      3.476    24.8259 0.0000e+00
      2.470      0.109     8.7720    105.764     28.630  28.514945     8.4911      8.735   183.2261 2.8097e+01     8.6400      2.419      3.509    24.8128 0.0000e+00
      2.500      0.110     8.7673    105.691     28.647  28.527265     8.6702      8.732   183.1790 2.6828e+01     8.6132      2.451      3.556    24.8073 0.0000e+00
      2.531      0.111     8.7624    105.620     28.661  28.537649     8.7635      8.729   183.1294 2.5700e+01     8.6041      2.483      3.601    24.8079 0.0000e+00
      2.561      0.111     8.7552    105.526     28.639  28.513499     8.7733      8.724   183.4008 2.4687e+01     8.6213      2.511      3.642    24.8031 0.0000e+00
      2.590      0.111     8.7438    105.385     28.617  28.489254     8.8263      8.717   183.9662 2.3783e+01     8.6988      2.540      3.685    24.7930 0.0000e+00
      2.616      0.112     8.7302    105.213     28.628  28.498499     8.9256      8.707   184.3724 2.2959e+01     8.7781      2.566      3.721    24.7827 0.0000e+00
      2.641      0.114     8.7193    105.073     28.630  28.498281     8.9813      8.699   184.4407 2.2113e+01     8.7874      2.589      3.756    24.7773 0.0000e+00
      2.669      0.117     8.7125    104.982     28.621  28.486613     8.9852      8.692   184.5334 2.1152e+01     8.7807      2.615      3.792    24.7751 0.0000e+00
      2.701      0.122     8.7095    104.937     28.621  28.484418     8.9812      8.684   184.8052 2.0086e+01     8.7879      2.648      3.839    24.7722 0.0000e+00
      2.736      0.126     8.7097    104.927     28.612  28.471738     8.9977      8.677   184.9732 1.9140e+01     8.7531      2.685      3.895    24.7697 0.0000e+00
      2.768      0.126     8.7117    104.937     28.605  28.460290     9.0378      8.673   184.9302 1.8342e+01     8.6646      2.715      3.938    24.7637 0.0000e+00
      2.800      0.122     8.7135    104.953     28.620  28.472988     9.0614      8.672   184.8015 1.7484e+01     8.6028      2.743      3.979    24.7584 0.0000e+00
      2.835      0.115     8.7124    104.946     28.644  28.498273     9.0446      8.672   184.7077 1.6664e+01     8.5855      2.783      4.035    24.7567 0.0000e+00
      2.866      0.108     8.7069    104.886     28.655  28.512013     8.8433      8.671   184.8285 1.6063e+01     8.5166      2.816      4.083    24.7497 0.0000e+00
      2.889      0.102     8.6972    104.772     28.654  28.512116     8.4844      8.666   185.1437 1.5578e+01     8.4105      2.834      4.111    24.7385 0.0000e+00
      2.910      0.099     8.6882    104.663     28.641  28.499521     8.2897      8.661   185.3348 1.5112e+01     8.3712      2.854      4.139    24.7354 0.0000e+00
      2.933      0.098     8.6846    104.618     28.629  28.486728     8.2627      8.657   185.3324 1.4640e+01     8.3768      2.876      4.172    24.7405 0.0000e+00
      2.957      0.098     8.6836    104.603     28.628  28.484429     8.2307      8.656   185.3733 1.4103e+01     8.4475      2.897      4.203    24.7464 0.0000e+00
      2.983      0.100     8.6824    104.583     28.617  28.471729     8.1795      8.656   185.4847 1.3530e+01     8.5548      2.924      4.241    24.7468 0.0000e+00
      3.013      0.102     8.6849    104.606     28.608  28.460167     8.1488      8.657   185.5610 1.3025e+01     8.5755      2.956      4.286    24.7463 0.0000e+00
      3.040      0.103     8.6935    104.697     28.623  28.471622     8.1441      8.657   185.7797 1.2599e+01     8.5750      2.981      4.325    24.7443 0.0000e+00
      3.065      0.104     8.7082    104.780     28.919  28.737234     8.1496      8.655   186.3224 1.2178e+01     8.6100      3.004      4.358    24.7444 0.0000e+00
      3.090      0.107     8.7436    104.612     29.695  29.322103     8.1699      8.652   186.7880 1.1743e+01     8.6340      3.030      4.395    24.7382 0.0000e+00
      3.114      0.109     8.7840    103.498     30.593  29.700877     8.1866      8.653   186.8486 1.1313e+01     8.6204      3.053      4.428    24.7397 0.0000e+00
      3.141      0.109     8.6780    100.143     31.307  29.696631     8.2048      8.652   186.8836 1.0833e+01     8.5977      3.076      4.461    24.7295 0.0000e+00
      3.174      0.108     8.1853     92.868     31.861  29.650761     8.4001      8.637   187.2107 1.0322e+01     8.5430      3.112      4.513    24.7427 0.0000e+00
      3.208      0.107     7.1691     80.353     32.326  29.653504     8.7738      8.604   187.7065 9.9271e+00     8.4479      3.151      4.569    24.6187 0.0000e+00
      3.234      0.104     5.6849     62.958     32.748  29.602225     8.9836      8.561   188.2313 9.6482e+00     8.4240      3.172      4.601    23.7134 0.0000e+00
      3.255      0.099     3.9644     43.383     33.141  29.538192     8.9974      8.511   188.7387 9.3645e+00     8.4372      3.190      4.627    22.2785 0.0000e+00
      3.277      0.094     2.2962     24.897     33.468  29.513750     8.9860      8.461   189.2813 9.0429e+00     8.4242      3.214      4.661    21.4213 0.0000e+00
      3.301      0.089     0.8614      9.292     33.657  29.496785     8.9104      8.413   190.2320 8.7294e+00     8.3887      3.237      4.696    20.9298 0.0000e+00
      3.325      0.087    -0.2452     -2.618     33.620  29.396347     8.7814      8.366   192.2317 8.4465e+00     8.3137      3.260      4.729    20.1786 0.0000e+00
      3.347      0.088    -0.9849    -10.525     33.457  29.188322     8.7133      8.320   194.7892 8.1990e+00     8.2489      3.284      4.763    19.4967 0.0000e+00
      3.367      0.090    -1.3853    -14.737     33.367  28.950103     8.7116      8.275   196.5472 7.9791e+00     8.2159      3.303      4.791    19.0268 0.0000e+00
      3.387      0.093    -1.4855    -15.712     33.221  28.611436     8.7705      8.233   197.4839 7.7360e+00     8.2512      3.320      4.815    18.7328 0.0000e+00
      3.411      0.097    -1.3612    -14.312     33.066  28.268300     8.8727      8.193   198.0273 7.4786e+00     8.3699      3.344      4.850    18.7098 0.0000e+00
      3.437      0.099    -1.1411    -11.925     33.111  28.103040     8.9186      8.157   198.3851 7.2290e+00     8.4606      3.370      4.888    18.7006 0.0000e+00
      3.466      0.101    -0.9121     -9.478     33.140  27.946532     8.9031      8.126   198.7989 6.9599e+00     8.4327      3.398      4.928    18.4001 0.0000e+00
      3.495      0.101    -0.6924     -7.163     32.953  27.645728     8.7220      8.096   199.0723 6.6968e+00     8.0632      3.428      4.973    18.0370 0.0000e+00
      3.521      0.102    -0.4897     -5.047     32.631  27.259808     8.3832      8.066   199.3674 6.4735e+00     7.4720      3.455      5.011    17.7502 0.0000e+00
      3.544      0.102    -0.3157     -3.243     32.339  26.899613     8.1977      8.037   199.7000 6.2693e+00     7.2055      3.476      5.041    17.4192 0.0000e+00
      3.566      0.102    -0.1727     -1.769     32.275  26.719318     8.1527      8.011   199.5662 6.0346e+00     7.1598      3.495      5.069    17.1368 0.0000e+00
      3.592      0.101    -0.0551     -0.564     32.418  26.730611     7.7919      7.988   199.1263 5.7660e+00     6.6444      3.520      5.105    16.9269 0.0000e+00
      3.622      0.100     0.0358      0.363     32.478  26.718541     7.1262      7.967   198.8543 5.5140e+00     5.7346      3.552      5.152    16.7654 0.0000e+00
      3.651      0.098     0.1003      1.018     32.346  26.573315     6.7660      7.947   198.6013 5.3196e+00     5.2544      3.584      5.198    16.6017 0.0000e+00
      3.676      0.095     0.1478      1.497     32.160  26.371545     6.7364      7.928   198.3044 5.1649e+00     5.2022      3.607      5.231    16.3773 0.0000e+00
      3.698      0.091     0.1850      1.868     32.021  26.183736     6.6851      7.911   198.1899 5.0028e+00     5.1649      3.626      5.259    16.1911 0.0000e+00
      3.718      0.089     0.2110      2.126     31.994  26.080280     6.1829      7.893   197.8199 4.8608e+00     4.8949      3.648      5.291    16.1121 0.0000e+00
      3.738      0.089     0.2269      2.282     32.069  26.072964     5.2683      7.876   196.4974 4.7481e+00     4.4094      3.664      5.315    16.0848 0.0000e+00
      3.759      0.089     0.2387      2.397     32.154  26.095202     4.7711      7.862   194.5021 4.5958e+00     4.1780      3.683      5.342    16.0170 0.0000e+00
      3.786      0.089     0.2484      2.492     32.182  26.095125     4.7293      7.850   192.7104 4.4046e+00     4.1716      3.712      5.384    15.8840 0.0000e+00
      3.814      0.088     0.2557      2.564     32.174  26.072014     4.6250      7.839   191.2682 4.2587e+00     3.9659      3.742      5.428    15.7441 0.0000e+00
      3.836      0.087     0.2619      2.622     32.226  26.069722     4.4195      7.825   189.8844 4.1790e+00     3.5830      3.765      5.461    15.6369 0.0000e+00
      3.854      0.085     0.2651      2.650     32.298  26.067347     4.3038      7.810   188.7985 4.1099e+00     3.3580      3.778      5.480    15.5586 0.0000e+00
      3.873      0.083     0.2659      2.653     32.331  26.043226     4.2924      7.793   188.3778 4.0270e+00     3.3196      3.796      5.506    15.5286 0.0000e+00
      3.894      0.083     0.2672      2.661     32.386  26.031992     4.2821      7.776   188.4110 3.9421e+00     3.4246      3.820      5.540    15.5391 0.0000e+00
      3.915      0.085     0.2670      2.653     32.510  26.058449     4.2523      7.760   188.5985 3.8372e+00     3.6192      3.840      5.569    15.4597 0.0000e+00
      3.937      0.089     0.2662      2.638     32.666  26.109045     4.2256      7.744   188.8374 3.6940e+00     3.7207      3.860      5.597    15.3312 0.0000e+00
      3.961      0.090     0.2664      2.635     32.765  26.135707     4.2077      7.729   188.9768 3.5393e+00     3.7353      3.884      5.633    15.2805 0.0000e+00
      3.986      0.089     0.2644      2.615     32.767  26.126776     4.0634      7.716   188.9921 3.3888e+00     3.6428      3.908      5.669    15.1999 0.0000e+00
      4.011      0.087     0.2608      2.580     32.753  26.128043     3.7950      7.701   189.1087 3.2405e+00     3.4572      3.933      5.704    15.0735 0.0000e+00
      4.033      0.086     0.2569      2.540     32.795  26.151038     3.6463      7.684   189.4400 3.1115e+00     3.3532      3.957      5.738    14.9523 0.0000e+00
      4.053      0.087     0.2510      2.477     32.875  26.150828     3.6252      7.666   189.7281 3.0193e+00     3.3309      3.976      5.766    14.8493 0.0000e+00
      4.070      0.089     0.2449      2.409     32.963  26.125423     3.5035      7.651   189.8391 2.9448e+00     3.2798      3.990      5.787    14.8495 0.0000e+00
      4.090      0.091     0.2399      2.354     33.021  26.097722     3.2685      7.636   189.8369 2.8417e+00     3.1929      4.008      5.812    14.8963 0.0000e+00
      4.117      0.091     0.2350      2.303     33.051  26.069783     3.1370      7.621   189.8730 2.7086e+00     3.1343      4.037      5.855    14.9014 0.0000e+00
      4.147      0.091     0.2321      2.270     33.084  26.041542     3.1261      7.607   190.0180 2.5890e+00     3.1517      4.069      5.902    14.7975 0.0000e+00
      4.173      0.090     0.2313      2.258     33.107  26.010176     3.0633      7.592   190.0403 2.4904e+00     3.2501      4.093      5.936    14.5984 0.0000e+00
      4.194      0.087     0.2306      2.247     33.086  25.944451     2.9380      7.577   189.9712 2.4000e+00     3.3481      4.114      5.966    14.4957 0.0000e+00
      4.212      0.082     0.2302      2.239     33.089  25.881740     2.8704      7.562   189.9575 2.3198e+00     3.3598      4.132      5.993    14.4503 0.0000e+00
      4.229      0.079     0.2300      2.232     33.176  25.886804     2.8703      7.548   189.9597 2.2423e+00     3.3303      4.147      6.014    14.3458 0.0000e+00
      4.248      0.078     0.2280      2.211     33.202  25.878610     2.8819      7.535   189.9987 2.1563e+00     3.3273      4.163      6.039    14.2727 0.0000e+00
      4.271      0.079     0.2240      2.170     33.100  25.782642     2.9095      7.522   190.0838 2.0603e+00     3.2936      4.188      6.074    14.2221 0.0000e+00
      4.293      0.082     0.2190      2.119     33.029  25.678842     2.9568      7.508   190.1288 1.9751e+00     3.1974      4.212      6.109    14.1090 0.0000e+00
      4.312      0.084     0.2132      2.059     33.066  25.639398     2.9843      7.495   189.9404 1.9052e+00     3.1405      4.229      6.133    13.9834 0.0000e+00
      4.332      0.084     0.2087      2.011     33.118  25.623112     2.9751      7.483   189.5264 1.8258e+00     3.1244      4.247      6.159    13.9558 0.0000e+00
      4.354      0.083     0.2070      1.991     33.161  25.608843     2.8366      7.471   189.1669 1.7434e+00     3.0630      4.270      6.194    13.9735 0.0000e+00
      4.378      0.081     0.2056      1.976     33.187  25.593801     2.5778      7.461   188.6916 1.6791e+00     2.9481      4.294      6.228    13.8843 0.0000e+00
      4.399      0.079     0.2048      1.966     33.182  25.568195     2.4287      7.452   187.8232 1.6198e+00     2.8637      4.315      6.257    13.7472 0.0000e+00
      4.419      0.076     0.2034      1.951     33.197  25.553180     2.4036      7.444   186.9276 1.5543e+00     2.8672      4.334      6.286    13.6829 0.0000e+00
      4.438      0.073     0.2004      1.920     33.213  25.539216     2.4024      7.436   186.2944 1.4995e+00     2.8378      4.352      6.313    13.6032 0.0000e+00
      4.455      0.072     0.1968      1.885     33.243  25.526314     2.4139      7.425   185.7601 1.4516e+00     2.7212      4.369      6.337    13.5397 0.0000e+00
      4.470      0.072     0.1936      1.851     33.322  25.524127     2.4140      7.414   185.0273 1.3991e+00     2.6481      4.383      6.358    13.5362 0.0000e+00
      4.486      0.074     0.1915      1.826     33.398  25.512695     2.4037      7.404   183.9727 1.3558e+00     2.6558      4.397      6.377    13.4801 0.0000e+00
      4.506      0.079     0.1893      1.801     33.469  25.514991     2.3912      7.392   182.8180 1.3189e+00     2.6914      4.418      6.408    13.4431 0.0000e+00
      4.528      0.084     0.1880      1.786     33.567  25.551841     2.3727      7.381   181.8203 1.2648e+00     2.6821      4.441      6.442    13.4165 0.0000e+00
      4.550      0.086     0.1887      1.791     33.646  25.577242     2.3549      7.372   181.1159 1.1936e+00     2.6352      4.459      6.468    13.2997 0.0000e+00
      4.575      0.084     0.1897      1.798     33.673  25.568107     2.3407      7.364   180.5819 1.1342e+00     2.6432      4.485      6.505    13.1749 0.0000e+00
      4.601      0.079     0.1902      1.802     33.705  25.568339     2.2931      7.358   180.0097 1.1032e+00     2.6879      4.515      6.550    13.1083 0.0000e+00
      4.622      0.075     0.1893      1.791     33.753  25.580024     2.2113      7.350   179.5326 1.0841e+00     2.7172      4.535      6.578    13.0596 0.0000e+00
      4.636      0.071     0.1863      1.761     33.799  25.582375     2.1697      7.340   179.2006 1.0548e+00     2.7229      4.547      6.595    13.0011 0.0000e+00
      4.648      0.069     0.1823      1.721     33.874  25.596730     2.1672      7.330   178.9211 1.0178e+00     2.7266      4.558      6.610    12.9593 0.0000e+00
      4.663      0.069     0.1781      1.680     33.971  25.626545     2.1625      7.320   178.7344 9.8375e-01     2.7314      4.571      6.630    12.9264 0.0000e+00
      4.682      0.070     0.1751      1.650     34.100  25.688855     2.1595      7.310   178.4923 9.3976e-01     2.6590      4.590      6.657    12.8934 0.0000e+00
      4.704      0.072     0.1734      1.633     34.255  25.778637     2.1579      7.302   177.8873 8.8989e-01     2.5220      4.613      6.690    12.8483 0.0000e+00
      4.726      0.072     0.1723      1.620     34.352  25.823160     2.1521      7.294   176.9249 8.6314e-01     2.4495      4.636      6.724    12.7785 0.0000e+00
      4.745      0.070     0.1711      1.607     34.345  25.782702     2.1451      7.285   176.0628 8.5344e-01     2.4532      4.654      6.750    12.7106 0.0000e+00
      4.761      0.067     0.1703      1.597     34.320  25.733870     2.1283      7.277   175.4653 8.3482e-01     2.4752      4.670      6.773    12.6584 0.0000e+00
      4.776      0.064     0.1694      1.588     34.445  25.804143     2.0861      7.267   174.7759 8.0569e-01     2.4709      4.685      6.794    12.6264 0.0000e+00
      4.791      0.064     0.1660      1.554     34.838  26.060894     2.0395      7.257   173.9226 7.8390e-01     2.4632      4.699      6.815    12.5915 0.0000e+00
      4.806      0.066     0.1627      1.520     35.238  26.298420     2.0150      7.246   173.0646 7.7319e-01     2.5040      4.714      6.837    12.5284 0.0000e+00
      4.822      0.070     0.1613      1.504     35.287  26.263196     2.0107      7.236   172.1442 7.5772e-01     2.5059      4.728      6.857    12.4801 0.0000e+00
      4.840      0.074     0.1598      1.487     35.211  26.142890     2.0152      7.226   171.1399 7.3071e-01     2.4862      4.744      6.881    12.4650 0.0000e+00
      4.861      0.076     0.1596      1.483     35.233  26.113636     2.0233      7.216   170.0426 7.0187e-01     2.5098      4.766      6.912    12.4159 0.0000e+00
      4.884      0.077     0.1621      1.504     35.255  26.099922     2.0261      7.208   168.8572 6.8643e-01     2.4864      4.790      6.947    12.3170 0.0000e+00
      4.905      0.076     0.1647      1.527     35.289  26.104040     2.0119      7.201   167.7348 6.7804e-01     2.4472      4.811      6.977    12.2063 0.0000e+00
      4.924      0.073     0.1668      1.546     35.388  26.163396     1.9895      7.194   166.2794 6.6052e-01     2.4628      4.829      7.005    12.1077 0.0000e+00
      4.941      0.069     0.1670      1.549     35.529  26.246131     1.9770      7.186   164.1660 6.4517e-01     2.4923      4.847      7.031    12.0484 0.0000e+00
      4.956      0.068     0.1640      1.519     35.710  26.342423     1.9706      7.177   161.8849 6.3608e-01     2.4983      4.860      7.049    12.0110 0.0000e+00
      4.971      0.070     0.1614      1.492     35.982  26.502170     1.9575      7.167   159.5206 6.1705e-01     2.4743      4.873      7.068    11.9752 0.0000e+00
      4.988      0.073     0.1602      1.480     36.240  26.653686     1.9190      7.155   157.1749 6.0301e-01     2.4471      4.892      7.095    11.9686 0.0000e+00
      5.007      0.075     0.1594      1.470     36.375  26.713937     1.8645      7.146   155.2919 5.9880e-01     2.4437      4.910      7.121    11.9479 0.0000e+00
      5.028      0.075     0.1592      1.467     36.429  26.722652     1.8404      7.141   153.7887 5.6910e-01     2.4636      4.929      7.149    11.8781 0.0000e+00
      5.053      0.073     0.1577      1.452     36.417  26.695532     1.8304      7.135   152.4219 5.3101e-01     2.4738      4.955      7.188    11.8223 0.0000e+00
      5.074      0.068     0.1552      1.428     36.437  26.703490     1.7891      7.130   150.9842 5.2001e-01     2.4757      4.978      7.220    11.7735 0.0000e+00
      5.089      0.064     0.1541      1.418     36.690  26.882357     1.7365      7.124   149.3969 5.2240e-01     2.4872      4.991      7.239    11.7113 0.0000e+00
      5.101      0.062     0.1539      1.415     37.167  27.207273     1.7095      7.116   147.6845 5.2117e-01     2.4897      5.003      7.255    11.6684 0.0000e+00
      5.112      0.062     0.1524      1.399     37.581  27.457131     1.7020      7.109   145.9392 5.1652e-01     2.4767      5.013      7.270    11.6445 0.0000e+00
      5.125      0.063     0.1497      1.371     37.710  27.490379     1.6820      7.103   144.3839 5.0967e-01     2.4813      5.024      7.286    11.6380 0.0000e+00
      5.144      0.064     0.1485      1.359     37.662  27.418704     1.6514      7.095   142.9898 4.9206e-01     2.5150      5.043      7.314    11.6411 0.0000e+00
      5.165      0.066     0.1496      1.369     37.668  27.415964     1.6348      7.088   141.6453 4.7679e-01     2.5180      5.067      7.349    11.6176 0.0000e+00
      5.184      0.066     0.1490      1.363     37.895  27.584238     1.6288      7.080   140.3452 4.7104e-01     2.4872      5.087      7.378    11.5333 0.0000e+00
      5.199      0.066     0.1450      1.326     38.305  27.865810     1.6244      7.071   138.9716 4.6256e-01     2.4791      5.098      7.395    11.4304 0.0000e+00
      5.213      0.067     0.1430      1.306     38.687  28.089933     1.6274      7.061   137.5133 4.5696e-01     2.4804      5.112      7.414    11.3822 0.0000e+00
      5.228      0.068     0.1435      1.308     38.932  28.198524     1.6372      7.051   136.1345 4.5250e-01     2.4724      5.127      7.436    11.3831 0.0000e+00
      5.245      0.069     0.1435      1.306     39.054  28.226190     1.6337      7.040   134.8628 4.4995e-01     2.4739      5.141      7.457    11.4020 0.0000e+00
      5.265      0.072     0.1432      1.301     39.216  28.297379     1.6118      7.029   133.6668 4.4703e-01     2.4674      5.162      7.488    11.3935 0.0000e+00
      5.286      0.074     0.1430      1.298     39.624  28.551198     1.5929      7.019   132.4283 4.3806e-01     2.4557      5.186      7.523    11.3088 0.0000e+00
      5.305      0.075     0.1460      1.324     40.236  28.945464     1.5805      7.011   130.9872 4.2990e-01     2.4539      5.204      7.547    11.2051 0.0000e+00
      5.323      0.074     0.1514      1.370     40.825  29.317702     1.5720      7.003   129.4931 4.1819e-01     2.4762      5.219      7.569    11.1271 0.0000e+00
      5.343      0.073     0.1538      1.391     41.315  29.622624     1.5731      6.995   128.0431 4.0394e-01     2.4813      5.240      7.599    11.0727 0.0000e+00
      5.362      0.071     0.1557      1.406     41.939  30.028497     1.5296      6.988   126.5332 3.9783e-01     2.3625      5.261      7.629    11.0298 0.0000e+00
      5.380      0.071     0.1578      1.422     42.630  30.478130     1.4406      6.983   124.9180 3.9370e-01     2.1998      5.277      7.652    10.9714 0.0000e+00
      5.397      0.071     0.1581      1.423     43.069  30.740545     1.3973      6.979   123.2263 3.8414e-01     2.1315      5.292      7.675    10.9012 0.0000e+00
      5.415      0.073     0.1563      1.406     43.385  30.914984     1.3925      6.974   121.5654 3.7333e-01     2.1174      5.310      7.702    10.8425 0.0000e+00
      5.432      0.077     0.1538      1.381     43.756  31.126479     1.4109      6.968   119.9798 3.6769e-01     2.0895      5.328      7.727    10.8025 0.0000e+00
      5.450      0.081     0.1538      1.379     44.029  31.265333     1.4625      6.961   118.5089 3.8086e-01     2.0687      5.344      7.751    10.7474 0.0000e+00
      5.471      0.083     0.1550      1.388     44.094  31.260077     1.5023      6.956   117.2903 3.8894e-01     2.1105      5.364      7.779    10.6833 0.0000e+00
      5.497      0.084     0.1555      1.391     44.057  31.189887     1.5150      6.954   116.2585 3.7641e-01     2.1365      5.391      7.817    10.6268 0.0000e+00
      5.522      0.087     0.1538      1.374     44.102  31.178761     1.4865      6.950   115.1533 3.6334e-01     2.0475      5.418      7.858    10.5689 0.0000e+00
      5.543      0.091     0.1500      1.339     44.274  31.252527     1.4253      6.941   113.9077 3.4224e-01     1.9502      5.436      7.885    10.5007 0.0000e+00
      5.562      0.095     0.1505      1.341     44.441  31.319612     1.3911      6.930   112.6409 3.2159e-01     1.9374      5.451      7.906    10.4386 0.0000e+00
      5.584      0.097     0.1547      1.376     44.561  31.354716     1.3853      6.920   111.3666 3.1543e-01     1.9531      5.474      7.938    10.3962 0.0000e+00
      5.611      0.100     0.1559      1.385     44.718  31.422870     1.3827      6.910   109.8570 3.1574e-01     1.8956      5.500      7.978    10.3491 0.0000e+00
      5.641      0.104     0.1522      1.351     44.983  31.572009     1.3782      6.900   108.0680 3.1135e-01     1.7612      5.532      8.025    10.2924 0.0000e+00
      5.670      0.106     0.1473      1.307     45.301  31.760643     1.3757      6.889   106.3422 3.0490e-01     1.7013      5.563      8.068    10.2338 0.0000e+00
      5.696      0.106     0.1453      1.288     45.582  31.925239     1.3802      6.881   104.8219 3.0414e-01     1.7206      5.585      8.100    10.1770 0.0000e+00
      5.722      0.102     0.1442      1.277     45.785  32.037786     1.3504      6.876   103.3660 3.0338e-01     1.6593      5.611      8.136    10.1294 0.0000e+00
      5.750      0.097     0.1426      1.262     45.920  32.105201     1.2827      6.872   101.9899 2.9672e-01     1.5405      5.639      8.180    10.0909 0.0000e+00
      5.775      0.093     0.1412      1.249     46.047  32.168706     1.2415      6.868   100.6587 2.8344e-01     1.4749      5.663      8.214    10.0526 0.0000e+00
      5.798      0.089     0.1396      1.234     46.162  32.233963     1.2371      6.865    99.2301 2.7609e-01     1.4762      5.686      8.247    10.0152 0.0000e+00
      5.819      0.084     0.1380      1.220     46.288  32.322563     1.2392      6.862    97.7944 2.7323e-01     1.4944      5.708      8.279     9.9840 0.0000e+00
      5.838      0.080     0.1360      1.203     46.417  32.414284     1.2395      6.859    96.4639 2.6789e-01     1.4510      5.725      8.304     9.9552 0.0000e+00
      5.856      0.079     0.1326      1.173     46.493  32.453756     1.2494      6.858    95.1886 2.6807e-01     1.4087      5.742      8.328     9.9263 0.0000e+00
      5.876      0.080     0.1280      1.131     46.563  32.482229     1.2583      6.856    93.9902 2.6798e-01     1.4410      5.763      8.359     9.9023 0.0000e+00
      5.896      0.080     0.1260      1.112     46.622  32.504465     1.2543      6.853    92.9869 2.5944e-01     1.4756      5.783      8.387     9.9087 0.0000e+00
      5.916      0.077     0.1266      1.117     46.592  32.468528     1.2386      6.851    92.0058 2.4509e-01     1.4907      5.799      8.411     9.9255 0.0000e+00
      5.939      0.072     0.1245      1.100     46.537  32.428788     1.2070      6.848    90.7315 2.3279e-01     1.5017      5.823      8.445     9.8998 0.0000e+00
      5.964      0.064     0.1212      1.070     46.504  32.405060     1.1845      6.846    89.3675 2.2716e-01     1.4867      5.852      8.488     9.8750 0.0000e+00
      5.980      0.055     0.1190      1.049     46.473  32.372189     1.1773      6.846    88.1612 2.2225e-01     1.4618      5.869      8.512     9.8603 0.0000e+00
      5.988      0.046     0.1171      1.033     46.445  32.348902     1.1757      6.845    86.8154 2.1823e-01     1.4153      5.872      8.518     9.8317 0.0000e+00
      5.994      0.039     0.1157      1.022     46.383  32.314035     1.1742      6.844    85.2265 2.2074e-01     1.3205      5.877      8.524     9.8379 0.0000e+00
      6.000      0.036     0.1158      1.023     46.415  32.331716     1.1676      6.843    83.7490 2.2351e-01     1.2615      5.884      8.533     9.8492 0.0000e+00
      6.008      0.038     0.1175      1.037     46.700  32.499164     1.1701      6.842    82.5465 2.1771e-01     1.2816      5.892      8.546     9.8214 0.0000e+00
      6.018      0.044     0.1194      1.052     47.125  32.750721     1.1761      6.841    81.3553 2.0527e-01     1.3504      5.901      8.560     9.8124 0.0000e+00
      6.030      0.049     0.1202      1.058     47.480  32.959643     1.1767      6.840    80.1004 1.9935e-01     1.4221      5.912      8.575     9.8398 0.0000e+00
      6.045      0.053     0.1208      1.062     47.744  33.119703     1.1776      6.839    78.8177 2.0076e-01     1.4467      5.927      8.596     9.8386 0.0000e+00
      6.061      0.054     0.1226      1.077     47.919  33.225090     1.1774      6.836    77.5485 2.0304e-01     1.4644      5.945      8.622     9.7985 0.0000e+00
      6.076      0.054     0.1233      1.083     47.938  33.217582     1.1925      6.834    76.5412 2.0350e-01     1.4827      5.959      8.643     9.7450 0.0000e+00
      6.090      0.051     0.1206      1.059     47.879  33.155932     1.2313      6.833    75.6725 1.9421e-01     1.4548      5.972      8.662     9.6977 0.0000e+00
      6.104      0.047     0.1187      1.042     47.839  33.114839     1.2518      6.831    74.7892 1.8458e-01     1.4327      5.987      8.683     9.6803 0.0000e+00
      6.115      0.045     0.1194      1.048     47.831  33.101816     1.2465      6.830    73.9489 1.9041e-01     1.4595      5.998      8.700     9.6695 0.0000e+00
      6.124      0.045     0.1190      1.044     47.872  33.125498     1.2315      6.829    73.0830 2.0360e-01     1.5040      6.005      8.710     9.6445 0.0000e+00
      6.133      0.046     0.1166      1.023     47.914  33.147104     1.1997      6.825    72.1495 2.0247e-01     1.5433      6.013      8.721     9.6191 0.0000e+00
      6.144      0.048     0.1157      1.015     47.876  33.108984     1.1755      6.821    71.1808 1.8532e-01     1.5379      6.024      8.737     9.6050 0.0000e+00
      6.158      0.051     0.1164      1.020     47.802  33.045678     1.1679      6.818    70.3179 1.7898e-01     1.5003      6.038      8.758     9.6003 0.0000e+00
      6.173      0.053     0.1163      1.019     47.776  33.016826     1.1715      6.814    69.6324 1.8861e-01     1.4858      6.054      8.780     9.5969 0.0000e+00
      6.188      0.055     0.1156      1.013     47.790  33.014206     1.1923      6.811    68.9146 1.8968e-01     1.4540      6.070      8.803     9.5894 0.0000e+00
      6.203      0.055     0.1146      1.003     47.811  33.013979     1.2173      6.807    68.0921 1.8092e-01     1.3908      6.084      8.824     9.5758 0.0000e+00
      6.216      0.055     0.1128      0.987     47.831  33.014062     1.2342      6.804    67.1741 1.6751e-01     1.3313      6.096      8.842     9.5619 0.0000e+00
      6.229      0.055     0.1113      0.974     47.847  33.015196     1.2403      6.801    66.2462 1.5565e-01     1.2843      6.108      8.859     9.5524 0.0000e+00
      6.242      0.055     0.1112      0.974     47.880  33.027682     1.2457      6.799    65.3905 1.6804e-01     1.2794      6.120      8.878     9.5402 0.0000e+00
      6.256      0.056     0.1125      0.985     47.909  33.037981     1.2534      6.797    64.4858 1.8745e-01     1.3029      6.134      8.898     9.5213 0.0000e+00
      6.272      0.056     0.1139      0.997     47.880  33.012679     1.2509      6.796    63.5672 1.8698e-01     1.2935      6.151      8.921     9.5073 0.0000e+00
      6.288      0.056     0.1137      0.995     47.829  32.975819     1.2432      6.795    62.7149 1.8519e-01     1.2582      6.168      8.945     9.4991 0.0000e+00
      6.302      0.055     0.1131      0.989     47.829  32.973406     1.2424      6.793    61.8393 1.8785e-01     1.2418      6.180      8.964     9.4874 0.0000e+00
      6.316      0.051     0.1127      0.987     47.849  32.983497     1.2506      6.791    60.8955 1.8935e-01     1.2472      6.194      8.984     9.4754 0.0000e+00
      6.330      0.045     0.1122      0.982     47.842  32.970795     1.2592      6.790    60.0797 1.8788e-01     1.2630      6.209      9.005     9.4701 0.0000e+00
      6.341      0.038     0.1110      0.971     47.823  32.946859     1.2547      6.790    59.2023 1.8243e-01     1.2497      6.219      9.020     9.4705 0.0000e+00
      6.350      0.031     0.1086      0.949     47.839  32.948138     1.2242      6.789    57.9452 1.7962e-01     1.2387      6.228      9.033     9.4685 0.0000e+00
      6.358      0.026     0.1065      0.931     47.898  32.986250     1.1835      6.789    56.7528 1.7408e-01     1.2822      6.237      9.046     9.4643 0.0000e+00
      6.362      0.024     0.1059      0.926     47.945  33.026555     1.1670      6.788    55.9703 1.6606e-01     1.3184      6.240      9.051     9.4574 0.0000e+00
      6.364      0.027     0.1044      0.913     47.961  33.054378     1.1719      6.787    55.2808 1.6196e-01     1.3107      6.240      9.050     9.4446 0.0000e+00
      6.367      0.035     0.1020      0.893     47.959  33.068600     1.1786      6.784    54.5250 1.5231e-01     1.2803      6.243      9.054     9.4313 0.0000e+00
      6.374      0.045     0.1032      0.903     47.953  33.071497     1.2023      6.779    53.8873 1.3991e-01     1.2556      6.250      9.064     9.4266 0.0000e+00
      6.386      0.058     0.1062      0.930     47.982  33.089415     1.2386      6.774    53.3360 1.4580e-01     1.2564      6.259      9.078     9.4367 0.0000e+00
      6.406      0.069     0.1069      0.935     48.099  33.158206     1.2489      6.768    52.6776 1.5660e-01     1.2604      6.281      9.110     9.4579 0.0000e+00
      6.431      0.077     0.1067      0.933     48.289  33.268057     1.2446      6.761    51.9491 1.5218e-01     1.2423      6.308      9.148     9.4785 0.0000e+00
      6.454      0.082     0.1077      0.941     48.428  33.337804     1.2421      6.754    51.0668 1.5092e-01     1.2813      6.330      9.180     9.4831 0.0000e+00
      6.475      0.082     0.1093      0.954     48.513  33.366309     1.2457      6.749    50.2694 1.5124e-01     1.3965      6.350      9.210     9.4815 0.0000e+00
      6.495      0.079     0.1115      0.973     48.643  33.422126     1.2521      6.746    49.7930 1.4444e-01     1.4758      6.369      9.238     9.4728 0.0000e+00
      6.515      0.074     0.1146      0.999     48.796  33.504503     1.2458      6.745    49.1779 1.4522e-01     1.5076      6.390      9.268     9.4433 0.0000e+00
      6.535      0.070     0.1153      1.006     48.951  33.600080     1.2423      6.743    48.3388 1.5275e-01     1.5056      6.409      9.296     9.4198 0.0000e+00
      6.551      0.068     0.1137      0.991     49.272  33.815516     1.2461      6.742    47.4777 1.5689e-01     1.4821      6.424      9.317     9.3900 0.0000e+00
      6.567      0.067     0.1112      0.969     49.939  34.267259     1.2458      6.742    46.6812 1.5030e-01     1.4977      6.440      9.340     9.3465 0.0000e+00
      6.582      0.068     0.1094      0.953     50.655  34.742669     1.2478      6.742    46.0229 1.5020e-01     1.5121      6.454      9.362     9.3237 0.0000e+00
      6.598      0.070     0.1078      0.938     50.970  34.926606     1.2799      6.742    45.3684 1.5715e-01     1.4730      6.469      9.383     9.3171 0.0000e+00
      6.617      0.072     0.1037      0.902     51.081  34.966667     1.3308      6.742    44.6192 1.4576e-01     1.4520      6.487      9.410     9.3129 0.0000e+00
      6.638      0.074     0.1005      0.874     51.497  35.227011     1.3580      6.741    43.8468 1.3091e-01     1.4717      6.510      9.442     9.3101 0.0000e+00
      6.658      0.075     0.1012      0.880     52.340  35.787518     1.3692      6.740    43.0843 1.3489e-01     1.4980      6.531      9.471     9.3000 0.0000e+00
      6.676      0.075     0.1042      0.905     53.363  36.471136     1.3563      6.737    42.4556 1.4210e-01     1.5562      6.547      9.495     9.2609 0.0000e+00
      6.694      0.074     0.1080      0.937     54.190  37.012862     1.3213      6.735    41.9241 1.3503e-01     1.6264      6.564      9.521     9.2186 0.0000e+00
      6.713      0.072     0.1120      0.972     54.684  37.318737     1.3050      6.734    41.2174 1.3156e-01     1.6758      6.584      9.550     9.1983 0.0000e+00
      6.731      0.070     0.1150      0.997     54.994  37.501177     1.3064      6.733    40.4498 1.3963e-01     1.6958      6.602      9.574     9.1851 0.0000e+00
      6.749      0.069     0.1165      1.010     55.211  37.630436     1.3108      6.731    39.7844 1.4478e-01     1.6539      6.618      9.598     9.1749 0.0000e+00
      6.768      0.067     0.1177      1.020     55.380  37.738012     1.3116      6.729    39.1944 1.4108e-01     1.5655      6.638      9.629     9.1527 0.0000e+00
      6.784      0.063     0.1184      1.025     55.551  37.848893     1.3073      6.727    38.7376 1.3290e-01     1.4818      6.654      9.652     9.1190 0.0000e+00
      6.799      0.057     0.1172      1.015     55.718  37.954577     1.3043      6.727    38.3055 1.3177e-01     1.4653      6.666      9.668     9.0893 0.0000e+00
      6.816      0.050     0.1151      0.996     55.889  38.062846     1.3029      6.727    37.7549 1.3353e-01     1.4884      6.685      9.696     9.0721 0.0000e+00
      6.831      0.041     0.1115      0.965     56.109  38.204961     1.2899      6.727    37.1559 1.2956e-01     1.4262      6.702      9.721     9.0701 0.0000e+00
      6.839      0.035     0.1070      0.927     56.411  38.402214     1.2677      6.725    36.6562 1.2787e-01     1.3229      6.708      9.729     9.0668 0.0000e+00
      6.843      0.031     0.1059      0.916     56.814  38.668868     1.2546      6.720    36.3596 1.2945e-01     1.2778      6.711      9.734     9.0570 0.0000e+00
      6.848      0.028     0.1059      0.916     57.147  38.887672     1.2507      6.713    36.0645 1.3107e-01     1.2770      6.714      9.738     9.0501 0.0000e+00
      6.853      0.027     0.1047      0.906     57.161  38.887566     1.2477      6.705    35.4970 1.3326e-01     1.2838      6.719      9.745     9.0441 0.0000e+00
      6.861      0.029     0.1039      0.899     57.127  38.858183     1.2459      6.700    34.8323 1.3126e-01     1.2687      6.727      9.756     9.0353 0.0000e+00
      6.871      0.033     0.1015      0.878     57.397  39.040681     1.2475      6.697    34.2227 1.2950e-01     1.2457      6.739      9.774     9.0285 0.0000e+00
      6.880      0.038     0.0986      0.853     57.805  39.315130     1.2492      6.695    33.5474 1.3135e-01     1.2197      6.749      9.789     9.0234 0.0000e+00
      6.887      0.042     0.0998      0.863     58.100  39.508014     1.2667      6.693    32.9481 1.4046e-01     1.1991      6.754      9.796     9.0123 0.0000e+00
      6.897      0.046     0.1022      0.883     58.241  39.593788     1.3024      6.693    32.6551 1.4947e-01     1.2092      6.761      9.807     9.0054 0.0000e+00
      6.911      0.049     0.1021      0.882     58.342  39.653297     1.3229      6.693    32.5862 1.3988e-01     1.2504      6.776      9.828     9.0078 0.0000e+00
      6.926      0.053     0.0996      0.861     58.452  39.719213     1.3213      6.692    32.4602 1.2775e-01     1.2709      6.793      9.851     9.0071 0.0000e+00
      6.940      0.054     0.0970      0.839     58.514  39.755386     1.3109      6.689    32.1634 1.2569e-01     1.2424      6.805      9.870     8.9982 0.0000e+00
      6.955      0.054     0.0959      0.829     58.639  39.836507     1.3072      6.686    31.9220 1.2542e-01     1.2419      6.820      9.893     8.9889 0.0000e+00
      6.970      0.052     0.0966      0.835     58.888  40.001117     1.3136      6.685    31.7794 1.2542e-01     1.2948      6.836      9.915     8.9810 0.0000e+00
      6.983      0.047     0.0976      0.844     59.033  40.093664     1.3143      6.685    31.3858 1.2546e-01     1.3333      6.848      9.932     8.9727 0.0000e+00
      6.994      0.042     0.0988      0.854     59.001  40.065942     1.3060      6.686    30.6034 1.2542e-01     1.3107      6.859      9.947     8.9680 0.0000e+00
      7.005      0.038     0.1013      0.875     59.070  40.110687     1.2967      6.688    29.7190 1.2544e-01     1.2657      6.869      9.964     8.9651 0.0000e+00
      7.014      0.035     0.1024      0.885     59.375  40.316981     1.3022      6.690    28.9530 1.2554e-01     1.2472      6.880      9.979     8.9626 0.0000e+00
      7.020      0.033     0.1023      0.884     59.691  40.526958     1.3177      6.690    28.2246 1.2557e-01     1.2396      6.884      9.984     8.9570 0.0000e+00
      7.025      0.033     0.1024      0.884     59.836  40.616216     1.3182      6.691    27.4516 1.2548e-01     1.2341      6.887      9.988     8.9497 0.0000e+00
      7.033      0.032     0.1024      0.885     59.777  40.570163     1.3267      6.693    26.7469 1.2540e-01     1.2422      6.896     10.002     8.9483 0.0000e+00
      7.044      0.031     0.1000      0.865     59.542  40.414904     1.3569      6.695    26.1573 1.2540e-01     1.2458      6.908     10.019     8.9510 0.0000e+00
      7.055      0.029     0.0974      0.843     59.301  40.263967     1.3713      6.696    25.4858 1.2545e-01     1.2472      6.920     10.036     8.9476 0.0000e+00
      7.063      0.026     0.0979      0.847     59.186  40.206634     1.3721      6.699    24.7368 1.2552e-01     1.2591      6.930     10.050     8.9358 0.0000e+00
      7.067      0.021     0.0992      0.858     59.190  40.230032     1.3932      6.701    24.1562 1.2554e-01     1.2974      6.932     10.053     8.9296 0.0000e+00
      7.070      0.016     0.1001      0.866     59.260  40.292725     1.4249      6.701    23.7138 1.2548e-01     1.3755      6.933     10.055     8.9336 0.0000e+00
      7.073      0.012     0.1001      0.866     59.300  40.329275     1.4334      6.703    23.2602 1.2548e-01     1.4405      6.936     10.060     8.9441 0.0000e+00
      7.076      0.011     0.0984      0.851     59.232  40.290718     1.4324      6.705    22.8017 1.2550e-01     1.4724      6.939     10.065     8.9642 0.0000e+00
      7.079      0.012     0.0959      0.830     59.281  40.334858     1.4395      6.706    22.3853 1.2547e-01     1.4869      6.942     10.069     8.9848 0.0000e+00
      7.081      0.013     0.0959      0.830     59.570  40.545282     1.4465      6.708    22.0972 1.2543e-01     1.4937      6.944     10.071     8.9959 0.0000e+00
      7.084      0.013     0.0971      0.841     59.749  40.674583     1.4427      6.710    21.8141 1.2547e-01     1.4933      6.946     10.075     9.0023 0.0000e+00
      7.087      0.012     0.0954      0.826     59.683  40.627434     1.4303      6.710    21.3716 1.2551e-01     1.4819      6.950     10.079     9.0080 0.0000e+00
      7.092      0.011     0.0929      0.805     59.572  40.547064     1.4618      6.710    20.8761 1.2550e-01     1.5392      6.955     10.086     9.0158 0.0000e+00
      7.096      0.009     0.0939      0.813     59.549  40.528865     1.5295      6.711    20.3832 1.2550e-01     1.6679      6.960     10.095     9.0313 0.0000e+00
      7.098      0.006     0.0947      0.820     59.657  40.598001     1.5599      6.713    19.9719 1.2546e-01     1.7251      6.962     10.098     9.0393 0.0000e+00
      7.098      0.001     0.0924      0.800     59.893  40.747574     1.5540      6.715    19.6038 1.2542e-01     1.6821      6.961     10.096     9.0331 0.0000e+00
      7.098     -0.003     0.0914      0.791     60.204  40.939430     1.4945      6.717    19.1155 1.2546e-01     1.5441      6.960     10.095     9.0284 0.0000e+00
      7.097     -0.007     0.0934      0.808     60.438  41.074997     1.3925      6.718    18.5419 1.2546e-01     1.3686      6.959     10.094     9.0280 0.0000e+00
      7.094     -0.009     0.0948      0.820     60.529  41.115849     1.3312      6.720    18.0028 1.2541e-01     1.2996      6.957     10.090     9.0273 0.0000e+00
      7.091     -0.009     0.0949      0.820     60.549  41.115634     1.3057      6.722    17.5877 1.2542e-01     1.2901      6.954     10.085     9.0180 0.0000e+00
      7.088     -0.009     0.0953      0.823     60.494  41.072380     1.2947      6.724    17.3089 1.2550e-01     1.2535      6.951     10.082     8.9996 0.0000e+00
      7.085     -0.009     0.0957      0.827     60.439  41.037659     1.3176      6.724    17.1265 1.2551e-01     1.2230      6.948     10.077     8.9783 0.0000e+00
      7.083     -0.008     0.0974      0.842     60.575  41.140618     1.3535      6.725    16.8452 1.2546e-01     1.2272      6.946     10.074     8.9590 0.0000e+00
      7.082     -0.007     0.1001      0.866     60.802  41.300580     1.3699      6.726    16.4036 1.2546e-01     1.2442      6.945     10.072     8.9481 0.0000e+00
      7.080     -0.006     0.0995      0.860     60.932  41.383196     1.3771      6.728    15.9162 1.2549e-01     1.2449      6.943     10.070     8.9432 0.0000e+00
      7.079     -0.005     0.0975      0.843     61.034  41.440549     1.3855      6.729    15.4262 1.2551e-01     1.2351      6.943     10.069     8.9444 0.0000e+00
      7.078     -0.005     0.0973      0.841     61.109  41.485670     1.3892      6.731    15.0392 1.2546e-01     1.2477      6.942     10.067     8.9576 0.0000e+00
      7.076     -0.005     0.0973      0.840     61.008  41.420391     1.3853      6.731    14.8502 1.2537e-01     1.2748      6.940     10.065     8.9660 0.0000e+00
      7.075     -0.006     0.0966      0.835     60.711  41.223161     1.3757      6.731    14.7767 1.2534e-01     1.2878      6.938     10.063     8.9580 0.0000e+00
      7.074     -0.006     0.0952      0.823     60.389  41.007259     1.3822      6.732    14.7523 1.2541e-01     1.3451      6.938     10.062     8.9450 0.0000e+00
      7.072     -0.005     0.0931      0.805     60.223  40.906834     1.4093      6.733    14.8133 1.2548e-01     1.4490      6.936     10.059     8.9379 0.0000e+00
      7.070     -0.004     0.0902      0.780     60.181  40.898534     1.4279      6.735    14.7388 1.2552e-01     1.5058      6.933     10.056     8.9455 0.0000e+00
      7.069     -0.004     0.0880      0.762     60.078  40.843384     1.4329      6.736    14.3679 1.2556e-01     1.5129      6.932     10.054     8.9502 0.0000e+00
      7.068     -0.003     0.0884      0.765     59.933  40.748364     1.4319      6.736    13.9433 1.2552e-01     1.5040      6.932     10.053     8.9467 0.0000e+00
      7.068     -0.002     0.0904      0.783     59.864  40.702780     1.4250      6.737    13.6493 1.2545e-01     1.4905      6.932     10.053     8.9563 0.0000e+00
      7.068     -0.001     0.0916      0.793     59.814  40.673490     1.4231      6.737    13.4803 1.2546e-01     1.4720      6.932     10.053     8.9797 0.0000e+00
      7.067     -0.001     0.0919      0.795     59.768  40.648387     1.4286      6.738    13.3619 1.2550e-01     1.4632      6.931     10.052     8.9940 0.0000e+00
      7.067     -0.001     0.0929      0.804     59.867  40.716968     1.4354      6.739    13.1643 1.2552e-01     1.4751      6.931     10.052     8.9931 0.0000e+00
      7.067     -0.001     0.0938      0.812     60.098  40.867295     1.4413      6.741    12.8980 1.2549e-01     1.4637      6.930     10.051     8.9919 0.0000e+00
      7.067     -0.000     0.0944      0.817     60.315  41.004519     1.4448      6.742    12.6375 1.2542e-01     1.4479      6.931     10.052     8.9970 0.0000e+00
      7.067 -1.844e-08     0.0939      0.813     60.475  41.105286     1.4495      6.743    12.3372 1.2539e-01     1.4673      6.931     10.052     9.0044 0.0000e+00
      7.067 -2.029e-07     0.0913      0.790     60.613  41.196061     1.4346      6.743    11.8489 1.2543e-01     1.4838      6.930     10.051     9.0069 0.0000e+00
      7.067 -1.826e-07     0.0889      0.769     60.734  41.276031     1.4019      6.743    11.1211 1.2546e-01     1.4947      6.930     10.051     9.0003 0.0000e+00
      7.067 4.0839e-08     0.0904      0.783     60.798  41.309680     1.3854      6.744    10.5069 1.2541e-01     1.5082      6.930     10.051     8.9882 0.0000e+00
      7.067 4.4923e-07     0.0934      0.808     60.603  41.158090     1.3818      6.745    10.1864 1.2539e-01     1.5240      6.930     10.051     8.9811 0.0000e+00
      7.067      0.000     0.0934      0.807     59.982  40.713999     1.3865      6.745     9.9144 1.2541e-01     1.5334      6.929     10.050     8.9813 0.0000e+00
      7.067      0.000     0.0939      0.812     59.422  40.324531     1.3866      6.746     9.7133 1.2546e-01     1.4997      6.930     10.051     8.9807 0.0000e+00
      7.067      0.001     0.0964      0.833     59.684  40.515667     1.3742      6.747     9.6476 1.2551e-01     1.4834      6.930     10.050     8.9736 0.0000e+00
      7.067      0.002     0.0970      0.838     60.549  41.118772     1.3651      6.747     9.4636 1.2556e-01     1.4885      6.930     10.051     8.9578 0.0000e+00
      7.067      0.003     0.0956      0.826     61.140  41.516683     1.3688      6.747     9.0373 1.2555e-01     1.4701      6.929     10.050     8.9319 0.0000e+00
      7.067      0.004     0.0943      0.815     61.258  41.577794     1.4093      6.747     8.6224 1.2551e-01     1.5048      6.930     10.050     8.9189 0.0000e+00
      7.069      0.004     0.0936      0.808     61.135  41.476374     1.4691      6.746     8.4064 1.2545e-01     1.6028      6.933     10.055     8.9382 0.0000e+00
      7.071      0.004     0.0930      0.803     60.899  41.307106     1.4944      6.746     8.2320 1.2536e-01     1.6778      6.935     10.058     8.9609 0.0000e+00
      7.072      0.003     0.0921      0.795     60.525  41.056216     1.4949      6.745     7.8901 1.2531e-01     1.7107      6.936     10.059     8.9553 0.0000e+00
      7.072      0.002     0.0908      0.785     60.019  40.730396     1.5022      6.745     7.4560 1.2533e-01     1.7253      6.936     10.060     8.9331 0.0000e+00
      7.072      0.001     0.0910      0.787     59.712  40.544746     1.5083      6.745     7.1138 1.2538e-01     1.7323      6.936     10.059     8.9165 0.0000e+00
      7.072      0.000     0.0913      0.789     59.576  40.463633     1.5051      6.746     6.9362 1.2541e-01     1.7346      6.935     10.059     8.9101 0.0000e+00
      7.072 2.0535e-08     0.0905      0.782     59.175  40.194454     1.5001      6.746     6.8564 1.2544e-01     1.7225      6.935     10.058     8.9090 0.0000e+00
      7.072 2.2588e-07     0.0904      0.782     58.535  39.768168     1.4842      6.746     6.5790 1.2543e-01     1.7082      6.935     10.059     8.9256 0.0000e+00
      7.072 2.3092e-07     0.0904      0.783     57.931  39.375931     1.4598      6.746     6.0781 1.2542e-01     1.7139      6.936     10.060     8.9545 0.0000e+00
      7.072 8.1452e-08     0.0904      0.783     57.452  39.073602     1.4446      6.746     5.7043 1.2545e-01     1.7305      6.936     10.059     8.9606 0.0000e+00
      7.072 6.7246e-07     0.0899      0.778     57.184  38.908358     1.4384      6.747     5.5008 1.2545e-01     1.7265      6.935     10.059     8.9584 0.0000e+00
      7.073      0.000     0.0878      0.760     57.163  38.902849     1.4397      6.748     5.2528 1.2549e-01     1.6345      6.936     10.060     8.9641 0.0000e+00
      7.073      0.000     0.0865      0.749     57.312  39.007013     1.4421      6.747     4.9419 1.2551e-01     1.5028      6.936     10.061     8.9808 0.0000e+00
      7.073      0.001     0.0871      0.754     58.089  39.532443     1.4403      6.747     4.8403 1.2545e-01     1.4769      6.936     10.059     9.0075 0.0000e+00
      7.072      0.005     0.0877      0.759     59.511  40.490409     1.4458      6.745     4.8845 1.2541e-01     1.5051      6.937     10.060     9.0206 0.0000e+00
      7.072      0.008     0.0879      0.760     60.263  40.995305     1.4523      6.744     4.8740 1.2546e-01     1.5074      6.934     10.056     9.0279 0.0000e+00
      7.072 -9.990e-29 -9.990e-29 -9.990e-29 -9.990e-29 -9.990e-29 -9.990e-29 -9.990e-29 -9.990e-29 1.2552e-01 -9.990e-29      6.936     10.059     9.0292 0.0000e+00
      7.076 -9.990e-29 -9.990e-29 -9.990e-29 -9.990e-29 -9.990e-29 -9.990e-29 -9.990e-29 -9.990e-29 1.2551e-01 -9.990e-29      6.934     10.058     9.0281 0.0000e+00
      7.090 -9.990e-29 -9.990e-29 -9.990e-29 -9.990e-29 -9.990e-29 -9.990e-29 -9.990e-29 -9.990e-29 1.2551e-01 -9.990e-29      6.951     10.082     9.0179 0.0000e+00
      7.100 -9.990e-29 -9.990e-29 -9.990e-29 -9.990e-29 -9.990e-29 -9.990e-29 -9.990e-29 -9.990e-29 1.2555e-01 -9.990e-29      6.978     10.120     9.0035 0.0000e+00
