* Sea-Bird SBE19plus  Data File:
* FileName = C:\R\Reservoirs\Data\DataNotYetUploadedToEDI\Raw_CTD\RawDownloads\072825_fcr50_S7809_0002.hex
* Software version 2.8.0.119
* Temperature SN = 7809
* Conductivity SN = 7809
* System UpLoad Time = Jul 28 2025 17:37:04
* <ApplicationData>
* <Seaterm232>
* <SoftwareVersion>2.8.0.119</SoftwareVersion>
* <BuildDate>07-Nov-2018</BuildDate>
* </Seaterm232>
* </ApplicationData>
* <InstrumentState>
* <HardwareData DeviceType='SBE19plus' SerialNumber='01907809'>
*
*    <Manufacturer>Sea-Bird Electronics, Inc.</Manufacturer>
*
*    <FirmwareVersion>3.1.8</FirmwareVersion>
*
*    <FirmwareDate>Mar  9 2016 16:22:29</FirmwareDate>
*
*    <CommandSetVersion>1.4</CommandSetVersion>
*
*    <PCBAssembly PCBSerialNum='120721' AssemblyNum='41054J'/>
*
*    <PCBAssembly PCBSerialNum='120715' AssemblyNum='41967A'/>
*
*    <PCBAssembly PCBSerialNum='116699' AssemblyNum='41606'/>
*
*    <PCBAssembly PCBSerialNum='120719' AssemblyNum='41059D'/>
*
*    <MfgDate>28-Apr-2017</MfgDate>
*
*    <InternalSensors>
*
*       <Sensor id='Main Temperature'>
*
*          <type>temperature0</type>
*
*          <SerialNumber>01907809</SerialNumber>
*
*       </Sensor>
*
*       <Sensor id='Main Conductivity'>
*
*          <type>conductivity-0</type>
*
*          <SerialNumber>01907809</SerialNumber>
*
*       </Sensor>
*
*       <Sensor id='Main Pressure'>
*
*          <type>strain-0</type>
*
*          <SerialNumber>10586018</SerialNumber>
*
*       </Sensor>
*
*    </InternalSensors>
*
*    <ExternalSensors>
*
*       <Sensor id='volt 0'>
*
*          <type>pH</type>
*
*          <SerialNumber>27-0363</SerialNumber>
*
*       </Sensor>
*
*       <Sensor id='volt 1'>
*
*          <type>ORP</type>
*
*          <SerialNumber>27-0363</SerialNumber>
*
*       </Sensor>
*
*       <Sensor id='volt 2'>
*
*          <type>OXY</type>
*
*          <SerialNumber>43-0434</SerialNumber>
*
*       </Sensor>
*
*       <Sensor id='volt 3'>
*
*          <type>PAR</type>
*
*          <SerialNumber>1122</SerialNumber>
*
*       </Sensor>
*
*       <Sensor id='volt 4'>
*
*          <type>ECO AFL/FL</type>
*
*          <SerialNumber>FLNTURT-2496</SerialNumber>
*
*       </Sensor>
*
*       <Sensor id='volt 5'>
*
*          <type>ECO-NTU</type>
*
*          <SerialNumber>FLNTURT-2496</SerialNumber>
*
*       </Sensor>
*
*       <Sensor id='serial'>
*
*          <type>not assigned</type>
*
*          <SerialNumber>not assigned</SerialNumber>
*
*       </Sensor>
*
*    </ExternalSensors>
*
* </HardwareData>
* <StatusData DeviceType='SBE19plus' SerialNumber='01907809'>
*
*    <DateTime>2025-07-28T17:35:02</DateTime>
*
*    <LoggingState>not logging</LoggingState>
*
*    <EventSummary numEvents='0'/>
*
*    <Power>
*
*       <vMain>12.2</vMain>
*
*       <vLith>8.3</vLith>
*
*       <iMain>63.0</iMain>
*
*       <iPump>115.4</iPump>
*
*       <iExt01>21.2</iExt01>
*
*       <iExt2345>40.6</iExt2345>
*
*    </Power>
*
*    <MemorySummary>
*
*       <Bytes>231886</Bytes>
*
*       <Samples>10082</Samples>
*
*       <SamplesFree>2850706</SamplesFree>
*
*       <SampleLength>23</SampleLength>
*
*       <Profiles>5</Profiles>
*
*    </MemorySummary>
*
* </StatusData>
* <ConfigurationData DeviceType='SBE19plus' SerialNumber='01907809'>
*
*    <ProfileMode>
*
*       <ScansToAverage>1</ScansToAverage>
*
*       <MinimumCondFreq>0</MinimumCondFreq>
*
*       <PumpDelay>45</PumpDelay>
*
*       <AutoRun>no</AutoRun>
*
*       <IgnoreSwitch>no</IgnoreSwitch>
*
*    </ProfileMode>
*
*    <Battery>
*
*       <Type>alkaline</Type>
*
*       <CutOff>7.5</CutOff>
*
*    </Battery>
*
*    <DataChannels>
*
*       <ExtVolt0>yes</ExtVolt0>
*
*       <ExtVolt1>yes</ExtVolt1>
*
*       <ExtVolt2>yes</ExtVolt2>
*
*       <ExtVolt3>yes</ExtVolt3>
*
*       <ExtVolt4>yes</ExtVolt4>
*
*       <ExtVolt5>yes</ExtVolt5>
*
*       <SBE38>no</SBE38>
*
*       <WETLABS>no</WETLABS>
*
*       <OPTODE>no</OPTODE>
*
*       <SBE63>no</SBE63>
*
*       <SeaFET>no</SeaFET>
*
*       <GTD>no</GTD>
*
*    </DataChannels>
*
*    <EchoCharacters>yes</EchoCharacters>
*
*    <OutputExecutedTag>yes</OutputExecutedTag>
*
*    <OutputFormat>raw HEX</OutputFormat>
*
* </ConfigurationData>
* <CalibrationCoefficients DeviceType='SBE19plus' SerialNumber='01907809'>
*
*    <Calibration format='TEMP1' id='Main Temperature'>
*
*       <SerialNum>01907809</SerialNum>
*
*       <CalDate>31-Jan-23</CalDate>
*
*       <TA0>1.218232e-03</TA0>
*
*       <TA1>2.815090e-04</TA1>
*
*       <TA2>-1.578887e-06</TA2>
*
*       <TA3>1.972343e-07</TA3>
*
*       <TOFFSET>0.000000e+00</TOFFSET>
*
*    </Calibration>
*
*    <Calibration format='WBCOND0' id='Main Conductivity'>
*
*       <SerialNum>01907809</SerialNum>
*
*       <CalDate>31-Jan-23</CalDate>
*
*       <G>-1.005652e+00</G>
*
*       <H>1.267963e-01</H>
*
*       <I>-1.561708e-04</I>
*
*       <J>2.645944e-05</J>
*
*       <CPCOR>-9.570000e-08</CPCOR>
*
*       <CTCOR>3.250000e-06</CTCOR>
*
*       <CSLOPE>1.000000e+00</CSLOPE>
*
*    </Calibration>
*
*    <Calibration format='STRAIN0' id='Main Pressure'>
*
*       <SerialNum>10586018</SerialNum>
*
*       <CalDate>20-Jan-23</CalDate>
*
*       <PA0>4.416439e-02</PA0>
*
*       <PA1>4.850502e-04</PA1>
*
*       <PA2>-3.090426e-12</PA2>
*
*       <PTCA0>5.254757e+05</PTCA0>
*
*       <PTCA1>1.050255e+01</PTCA1>
*
*       <PTCA2>-2.922435e-01</PTCA2>
*
*       <PTCB0>2.516687e+01</PTCB0>
*
*       <PTCB1>3.750000e-04</PTCB1>
*
*       <PTCB2>0.000000e+00</PTCB2>
*
*       <PTEMPA0>-5.470820e+01</PTEMPA0>
*
*       <PTEMPA1>5.485421e+01</PTEMPA1>
*
*       <PTEMPA2>-3.446578e-01</PTEMPA2>
*
*       <POFFSET>8.500000e-01</POFFSET>
*
*       <PRANGE>1.600000e+02</PRANGE>
*
*    </Calibration>
*
*    <Calibration format='VOLT0' id='Volt 0'>
*
*       <OFFSET>-4.920000e-02</OFFSET>
*
*       <SLOPE>1.248122e+00</SLOPE>
*
*    </Calibration>
*
*    <Calibration format='VOLT0' id='Volt 1'>
*
*       <OFFSET>-4.784000e-02</OFFSET>
*
*       <SLOPE>1.248871e+00</SLOPE>
*
*    </Calibration>
*
*    <Calibration format='VOLT0' id='Volt 2'>
*
*       <OFFSET>-4.864632e-02</OFFSET>
*
*       <SLOPE>1.248714e+00</SLOPE>
*
*    </Calibration>
*
*    <Calibration format='VOLT0' id='Volt 3'>
*
*       <OFFSET>-4.743790e-02</OFFSET>
*
*       <SLOPE>1.248571e+00</SLOPE>
*
*    </Calibration>
*
*    <Calibration format='VOLT0' id='Volt 4'>
*
*       <OFFSET>-4.671263e-02</OFFSET>
*
*       <SLOPE>1.248951e+00</SLOPE>
*
*    </Calibration>
*
*    <Calibration format='VOLT0' id='Volt 5'>
*
*       <OFFSET>-4.871053e-02</OFFSET>
*
*       <SLOPE>1.249136e+00</SLOPE>
*
*    </Calibration>
*
*    <Calibration format='FREQ0' id='external frequency channel'>
*
*       <EXTFREQSF>1.000014e+00</EXTFREQSF>
*
*    </Calibration>
*
* </CalibrationCoefficients>
* <EventCounters DeviceType='SBE19plus' SerialNumber='01907809'>
*
*    <EventSummary numEvents='0'/>
*
* </EventCounters></InstrumentState>
* <Headers>
*
* cast   2 28 Jul 2025 12:57:19 samples 2981 to 3733, avg = 1, stop = mag switch
*
# nquan = 15
# nvalues = 753                         
# units = specified
# name 0 = depFM: Depth [fresh water, m]
# name 1 = dz/dtM: Descent Rate [m/s]
# name 2 = sbeox0Mg/L: Oxygen, SBE 43 [mg/l]
# name 3 = sbeox0PS: Oxygen, SBE 43 [% saturation]
# name 4 = specc: Specific Conductance [uS/cm]
# name 5 = c0uS/cm: Conductivity [uS/cm]
# name 6 = flECO-AFL: Fluorescence, WET Labs ECO-AFL/FL [mg/m^3]
# name 7 = ph: pH
# name 8 = orp: Oxidation Reduction Potential [mV]
# name 9 = par/sat/log: PAR/Logarithmic, Satlantic
# name 10 = turbWETntu0: Turbidity, WET Labs ECO [NTU]
# name 11 = prdM: Pressure, Strain Gauge [db]
# name 12 = prdE: Pressure, Strain Gauge [psi]
# name 13 = tv290C: Temperature [ITS-90, deg C]
# name 14 = flag:  0.000e+00
# span 0 =     -0.618,      2.640       
# span 1 =     -0.418,      0.307       
# span 2 =     4.9875,     8.9098       
# span 3 =     61.792,    108.853       
# span 4 =      1.061,     53.173       
# span 5 =   1.237876,  56.599427       
# span 6 =    -0.5930,    58.4878       
# span 7 =     -1.841,      9.042       
# span 8 = -1240.7455,   182.5412       
# span 9 = 1.9939e+01, 3.0729e+03       
# span 10 =    -0.2415,   131.8581      
# span 11 =     -0.607,      2.589      
# span 12 =     -0.881,      3.754      
# span 13 =    25.4628,    33.3212      
# span 14 = 0.0000e+00, 0.0000e+00      
# interval = seconds: 0.25
# start_time = Jul 28 2025 12:57:19 [Instrument's time stamp, header]
# bad_flag = -9.990e-29
# <Sensors count="9" >
#   <sensor Channel="1" >
#     <!-- Count, Temperature -->
#     <TemperatureSensor SensorID="58" >
#       <SerialNumber>7809</SerialNumber>
#       <CalibrationDate>31-Jan-23</CalibrationDate>
#       <A0>1.21823180e-003</A0>
#       <A1>2.81508993e-004</A1>
#       <A2>-1.57888696e-006</A2>
#       <A3>1.97234302e-007</A3>
#       <Slope>1.00000000</Slope>
#       <Offset>0.0000</Offset>
#     </TemperatureSensor>
#   </sensor>
#   <sensor Channel="2" >
#     <!-- Frequency 0, Conductivity -->
#     <ConductivitySensor SensorID="3" >
#       <SerialNumber>7809</SerialNumber>
#       <CalibrationDate>31-Jan-23</CalibrationDate>
#       <UseG_J>1</UseG_J>
#       <!-- Cell const and series R are applicable only for wide range sensors. -->
#       <SeriesR>0.0000</SeriesR>
#       <CellConst>2000.0000</CellConst>
#       <ConductivityType>0</ConductivityType>
#       <Coefficients equation="0" >
#         <A>0.00000000e+000</A>
#         <B>0.00000000e+000</B>
#         <C>0.00000000e+000</C>
#         <D>0.00000000e+000</D>
#         <M>0.0</M>
#         <CPcor>-9.57000000e-008</CPcor>
#       </Coefficients>
#       <Coefficients equation="1" >
#         <G>-1.00565232e+000</G>
#         <H>1.26796307e-001</H>
#         <I>-1.56170788e-004</I>
#         <J>2.64594368e-005</J>
#         <CPcor>-9.57000000e-008</CPcor>
#         <CTcor>3.2500e-006</CTcor>
#         <!-- WBOTC not applicable unless ConductivityType = 1. -->
#         <WBOTC>0.00000000e+000</WBOTC>
#       </Coefficients>
#       <Slope>1.00000000</Slope>
#       <Offset>0.00000</Offset>
#     </ConductivitySensor>
#   </sensor>
#   <sensor Channel="3" >
#     <!-- Count, Pressure, Strain Gauge -->
#     <PressureSensor SensorID="46" >
#       <SerialNumber>7809</SerialNumber>
#       <CalibrationDate>20-Jan-23</CalibrationDate>
#       <PA0>4.41643944e-002</PA0>
#       <PA1>4.85050239e-004</PA1>
#       <PA2>-3.09042623e-012</PA2>
#       <PTEMPA0>-5.47081996e+001</PTEMPA0>
#       <PTEMPA1>5.48542136e+001</PTEMPA1>
#       <PTEMPA2>-3.44657813e-001</PTEMPA2>
#       <PTCA0>5.25475731e+005</PTCA0>
#       <PTCA1>1.05025484e+001</PTCA1>
#       <PTCA2>-2.92243463e-001</PTCA2>
#       <PTCB0>2.51668750e+001</PTCB0>
#       <PTCB1>3.75000000e-004</PTCB1>
#       <PTCB2>0.00000000e+000</PTCB2>
#       <Offset>0.000000</Offset>
#     </PressureSensor>
#   </sensor>
#   <sensor Channel="4" >
#     <!-- A/D voltage 0, Oxygen, SBE 43 -->
#     <OxygenSensor SensorID="38" >
#       <SerialNumber>0434</SerialNumber>
#       <CalibrationDate>18-Feb-23</CalibrationDate>
#       <Use2007Equation>1</Use2007Equation>
#       <CalibrationCoefficients equation="0" >
#         <!-- Coefficients for Owens-Millard equation. -->
#         <Boc>0.0000</Boc>
#         <Soc>0.0000e+000</Soc>
#         <offset>0.0000</offset>
#         <Pcor>0.00e+000</Pcor>
#         <Tcor>0.0000</Tcor>
#         <Tau>0.0</Tau>
#       </CalibrationCoefficients>
#       <CalibrationCoefficients equation="1" >
#         <!-- Coefficients for Sea-Bird equation - SBE calibration in 2007 and later. -->
#         <Soc>5.1878e-001</Soc>
#         <offset>-0.5046</offset>
#         <A>-4.2788e-003</A>
#         <B> 1.5372e-004</B>
#         <C>-2.1853e-006</C>
#         <D0> 2.5826e+000</D0>
#         <D1> 1.92634e-004</D1>
#         <D2>-4.64803e-002</D2>
#         <E> 3.6000e-002</E>
#         <Tau20> 0.9900</Tau20>
#         <H1>-3.3000e-002</H1>
#         <H2> 5.0000e+003</H2>
#         <H3> 1.4500e+003</H3>
#       </CalibrationCoefficients>
#     </OxygenSensor>
#   </sensor>
#   <sensor Channel="5" >
#     <!-- A/D voltage 1, PAR/Logarithmic, Satlantic -->
#     <PARLog_SatlanticSensor SensorID="76" >
#       <SerialNumber>1122</SerialNumber>
#       <CalibrationDate>08-Sep-2021</CalibrationDate>
#       <a0>9.6751e-001</a0>
#       <a1>8.0992e-001</a1>
#       <Im>1.3589e+000</Im>
#       <Multiplier>1.0000e+000</Multiplier>
#     </PARLog_SatlanticSensor>
#   </sensor>
#   <sensor Channel="6" >
#     <!-- A/D voltage 2, pH -->
#     <pH_Sensor SensorID="43" >
#       <SerialNumber>0363</SerialNumber>
#       <CalibrationDate>28-Feb-23</CalibrationDate>
#       <Slope>4.7364</Slope>
#       <Offset>2.5433</Offset>
#     </pH_Sensor>
#   </sensor>
#   <sensor Channel="7" >
#     <!-- A/D voltage 3, Oxidation Reduction Potential -->
#     <OxidationReductionPotentialSensor SensorID="41" >
#       <SerialNumber>0363</SerialNumber>
#       <CalibrationDate>28-Feb-23</CalibrationDate>
#       <B>2.499480</B>
#       <M>-0.496195</M>
#       <Offset>0.0</Offset>
#     </OxidationReductionPotentialSensor>
#   </sensor>
#   <sensor Channel="8" >
#     <!-- A/D voltage 4, Fluorometer, WET Labs ECO-AFL/FL -->
#     <FluoroWetlabECO_AFL_FL_Sensor SensorID="20" >
#       <SerialNumber>FLNTURT-2496</SerialNumber>
#       <CalibrationDate>02-Sep-2021</CalibrationDate>
#       <ScaleFactor>4.80000000e+001</ScaleFactor>
#       <!-- Dark output -->
#       <Vblank>0.0550</Vblank>
#     </FluoroWetlabECO_AFL_FL_Sensor>
#   </sensor>
#   <sensor Channel="9" >
#     <!-- A/D voltage 5, Turbidity Meter, WET Labs, ECO-NTU -->
#     <TurbidityMeter SensorID="67" >
#       <SerialNumber>FLNTURT--2496</SerialNumber>
#       <CalibrationDate>02-Sep-2021</CalibrationDate>
#       <ScaleFactor>197.000000</ScaleFactor>
#       <!-- Dark output -->
#       <DarkVoltage>0.070000</DarkVoltage>
#     </TurbidityMeter>
#   </sensor>
# </Sensors>
# datcnv_date = Jul 28 2025 18:05:21, 7.26.7.129 [datcnv_vars = 14]
# datcnv_in = C:\R\Reservoirs\Data\DataNotYetUploadedToEDI\Raw_CTD\RawDownloads\072825_fcr10_S7809002.hex C:\R\Reservoirs\Data\DataNotYetUploadedToEDI\Raw_CTD\RawDownloads\SBE19plusV2_7809_start20230701.xmlcon
# datcnv_skipover = 0
# datcnv_ox_hysteresis_correction = yes
# datcnv_ox_tau_correction = yes
# filter_date = Jul 28 2025 18:05:43, 7.26.7.129
# filter_in = C:\R\Reservoirs\Data\DataNotYetUploadedToEDI\Raw_CTD\RawDownloads\072825_fcr10_S7809002.cnv
# filter_low_pass_tc_A = 0.030
# filter_low_pass_tc_B = 0.150
# filter_low_pass_A_vars = sbeox0Mg/L prdM prdE tv290C
# filter_low_pass_B_vars = depFM dz/dtM sbeox0PS specc c0uS/cm flECO-AFL ph orp par/sat/log turbWETntu0
# alignctd_date = Jul 28 2025 18:06:06, 7.26.7.129
# alignctd_in = C:\R\Reservoirs\Data\DataNotYetUploadedToEDI\Raw_CTD\RawDownloads\072825_fcr10_S7809002.cnv
# alignctd_adv = dz/dtM 1.000, sbeox0PS 1.000, specc 1.000, c0uS/cm 1.000, flECO-AFL 1.000, ph 1.000, orp 1.000, turbWETntu0 1.000                                                                                                   
# file_type = ascii
*END*
     -0.616 -7.956e-17     6.5295     92.455      1.178   1.373536     0.0187     -1.831 -1240.7455 2.3160e+03     8.2465     -0.604     -0.877    33.2817 0.0000e+00
     -0.616 -8.761e-16     6.5519     92.740      1.187   1.384325     0.0215     -1.831 -1240.7455 2.1308e+03     8.1435     -0.605     -0.877    33.2821 0.0000e+00
     -0.616 -9.637e-15     6.5732     92.971      1.181   1.376837     0.0241     -1.831 -1240.7455 1.8795e+03     8.1499     -0.604     -0.876    33.2826 0.0000e+00
     -0.616 -1.060e-13     6.5881     93.125      1.154   1.346332     0.0757     -1.831 -1240.7455 1.7701e+03     8.2898     -0.604     -0.876    33.2831 0.0000e+00
     -0.617 -1.166e-12     6.6098     93.232      1.142   1.332182     0.0875     -1.831 -1240.7455 1.8841e+03     8.2977     -0.605     -0.877    33.2836 0.0000e+00
     -0.617 -1.283e-11     6.6314     93.333      1.142   1.332440     0.0423     -1.831 -1240.7455 2.1177e+03     8.1432     -0.605     -0.877    33.2842 0.0000e+00
     -0.617 -1.411e-10     6.6490     93.430      1.157   1.349450     0.0452     -1.831 -1240.7455 2.3864e+03     8.1297     -0.605     -0.877    33.2845 0.0000e+00
     -0.617 -1.552e-09     6.6589     93.499      1.156   1.347832     0.0720     -1.831 -1240.7455 2.6572e+03     8.2027     -0.605     -0.877    33.2846 0.0000e+00
     -0.617 -1.707e-08     6.6648     93.519      1.126   1.312868     0.0510     -1.831 -1240.7455 2.8652e+03     8.1377     -0.606     -0.878    33.2854 0.0000e+00
     -0.617 -1.878e-07     6.6724     93.522      1.121   1.306742     0.0237     -1.831 -1240.7455 2.9612e+03     8.0951     -0.605     -0.877    33.2862 0.0000e+00
     -0.617 -1.878e-07     6.6796     93.557      1.147   1.337103     0.0247     -1.831 -1240.7455 2.9621e+03     8.1661     -0.605     -0.878    33.2866 0.0000e+00
     -0.617 -1.707e-08     6.6857     93.601      1.170   1.363263     0.0462     -1.831 -1240.7455 2.9248e+03     8.2449     -0.605     -0.878    33.2871 0.0000e+00
     -0.617 -1.552e-09     6.6862     93.626      1.175   1.369685     0.0587     -1.831 -1240.7455 2.9029e+03     8.1599     -0.605     -0.878    33.2879 0.0000e+00
     -0.617 -1.411e-10     6.6837     93.666      1.159   1.351410     0.0427     -1.831 -1240.7455 2.9069e+03     7.9579     -0.605     -0.877    33.2884 0.0000e+00
     -0.617 -1.283e-11     6.6876     93.715      1.142   1.332320     0.0451     -1.831 -1240.7455 2.8974e+03     7.9202     -0.605     -0.878    33.2891 0.0000e+00
     -0.617 -1.166e-12     6.6924     93.765      1.139   1.328887     0.0622     -1.831 -1240.7455 2.7871e+03     7.9782     -0.605     -0.877    33.2899 0.0000e+00
     -0.617 -1.060e-13     6.6913     93.820      1.123   1.309900     0.0500     -1.831 -1240.7455 2.5297e+03     7.9408     -0.605     -0.877    33.2905 0.0000e+00
     -0.617 -9.640e-15     6.6955     93.864      1.108   1.292769     0.0479     -1.831 -1240.7455 2.2672e+03     7.9466     -0.606     -0.878    33.2915 0.0000e+00
     -0.617 -8.760e-16     6.6993     93.906      1.125   1.311769     0.0701     -1.831 -1240.7455 2.1810e+03     8.0484     -0.605     -0.878    33.2920 0.0000e+00
     -0.617 -7.965e-17     6.7013     93.945      1.157   1.349613     0.0515     -1.831 -1240.7455 2.2157e+03     8.0439     -0.605     -0.878    33.2929 0.0000e+00
     -0.617 -7.240e-18     6.7074     93.965      1.175   1.370313    -0.0016     -1.831 -1240.7455 2.2109e+03     7.9611     -0.606     -0.878    33.2937 0.0000e+00
     -0.617 -6.585e-19     6.7088     93.982      1.177   1.372035    -0.0063     -1.831 -1240.7455 2.1554e+03     8.0035     -0.605     -0.877    33.2943 0.0000e+00
     -0.617 -5.985e-20     6.7122     94.016      1.175   1.370427     0.0366     -1.831 -1240.7455 2.1204e+03     8.0789     -0.605     -0.877    33.2949 0.0000e+00
     -0.617 -5.440e-21     6.7160     94.054      1.158   1.350870     0.0431     -1.831 -1240.7455 2.1295e+03     7.9843     -0.605     -0.878    33.2956 0.0000e+00
     -0.617 -4.946e-22     6.7161     94.075      1.136   1.325588     0.0126     -1.831 -1240.7455 2.1704e+03     7.8498     -0.605     -0.878    33.2965 0.0000e+00
     -0.617 -4.496e-23     6.7168     94.089      1.130   1.318102     0.0100     -1.831 -1240.7455 2.2246e+03     7.8882     -0.605     -0.878    33.2971 0.0000e+00
     -0.617 -4.088e-24     6.7196     94.110      1.135   1.323702     0.0445     -1.831 -1240.7455 2.2740e+03     8.0385     -0.606     -0.878    33.2976 0.0000e+00
     -0.618 -3.716e-25     6.7233     94.129      1.141   1.329955     0.0717     -1.831 -1240.7455 2.3191e+03     8.0614     -0.606     -0.878    33.2981 0.0000e+00
     -0.618 -3.378e-26     6.7242     94.132      1.141   1.330368     0.0565     -1.831 -1240.7455 2.3702e+03     7.9261     -0.606     -0.879    33.2983 0.0000e+00
     -0.617 -3.071e-27     6.7245     94.148      1.139   1.328692     0.0433     -1.831 -1240.7455 2.4270e+03     7.9058     -0.606     -0.878    33.2988 0.0000e+00
     -0.617 -2.792e-28     6.7261     94.195      1.123   1.309695     0.0620     -1.831 -1240.7455 2.5056e+03     7.9865     -0.605     -0.878    33.2996 0.0000e+00
     -0.617 -2.538e-29     6.7285     94.238      1.106   1.290694     0.0584     -1.831 -1240.7455 2.6252e+03     7.9792     -0.605     -0.878    33.3000 0.0000e+00
     -0.617 -2.305e-30     6.7275     94.258      1.105   1.288968     0.0486     -1.831 -1240.7455 2.7275e+03     8.0566     -0.606     -0.878    33.3005 0.0000e+00
     -0.617 -1.916e-31     6.7273     94.262      1.105   1.288825     0.0767     -1.831 -1240.7455 2.7010e+03     8.2735     -0.605     -0.878    33.3009 0.0000e+00
     -0.617 1.8086e-31     6.7325     94.245      1.105   1.288968     0.0827     -1.831 -1240.7455 2.5308e+03     8.3127     -0.606     -0.879    33.3015 0.0000e+00
     -0.617 2.1975e-30     6.7362     94.227      1.107   1.290689     0.0462     -1.831 -1240.7455 2.3933e+03     8.1554     -0.605     -0.878    33.3020 0.0000e+00
     -0.617 2.4191e-29     6.7365     94.203      1.123   1.309637     0.0429     -1.831 -1240.7455 2.4312e+03     8.1134     -0.605     -0.878    33.3025 0.0000e+00
     -0.617 2.6610e-28     6.7377     94.144      1.139   1.328055     0.0764     -1.831 -1240.7455 2.5174e+03     8.1805     -0.606     -0.879    33.3031 0.0000e+00
     -0.617 2.9271e-27     6.7357     94.087      1.135   1.323358     0.0929     -1.831 -1240.7455 2.4858e+03     8.2154     -0.606     -0.878    33.3032 0.0000e+00
     -0.617 3.2198e-26     6.7330     93.982      1.129   1.316185     0.0841     -1.831 -1240.7455 2.3340e+03     8.2270     -0.606     -0.878    33.3036 0.0000e+00
     -0.618 3.5418e-25     6.7355     93.819      1.119   1.304669     0.0711     -1.831 -1240.7455 2.1514e+03     8.1853     -0.606     -0.879    33.3043 0.0000e+00
     -0.618 3.8960e-24     6.7260     93.727      1.124   1.310795     0.0770     -1.831 -1240.7455 2.0403e+03     8.1551     -0.606     -0.879    33.3048 0.0000e+00
     -0.617 4.2856e-23     6.7255     93.784      1.138   1.326914     0.0714     -1.831 -1240.7455 2.0377e+03     8.1011     -0.606     -0.878    33.3052 0.0000e+00
     -0.617 4.7142e-22     6.7203     94.021      1.123   1.309551     0.0450     -1.831 -1240.7455 2.1177e+03     7.9421     -0.605     -0.878    33.3054 0.0000e+00
     -0.617 5.1856e-21     6.7008     94.333      1.107   1.290868     0.0494     -1.831 -1240.7455 2.2569e+03     7.9064     -0.606     -0.878    33.3060 0.0000e+00
     -0.618 5.7042e-20     6.6959     94.583      1.107   1.291038     0.0740     -1.831 -1240.7455 2.4394e+03     7.9778     -0.606     -0.879    33.3063 0.0000e+00
     -0.618 6.2746e-19     6.6957     94.744      1.125   1.311610     0.0685     -1.831 -1240.7455 2.6424e+03     7.9168     -0.606     -0.879    33.3066 0.0000e+00
     -0.618 6.9020e-18     6.7173     94.838      1.157   1.349583     0.0490     -1.831 -1240.7455 2.8326e+03     7.8851     -0.606     -0.879    33.3068 0.0000e+00
     -0.618 7.5922e-17     6.7441     94.899      1.175   1.370141     0.0546     -1.831 -1240.7455 2.9722e+03     8.0056     -0.605     -0.878    33.3072 0.0000e+00
     -0.618 8.3515e-16     6.7613     94.930      1.175   1.370155     0.0614     -1.831 -1240.7455 3.0480e+03     8.0411     -0.606     -0.879    33.3078 0.0000e+00
     -0.618 1.5311e-15     6.7728     94.915      1.157   1.349754     0.0399     -1.831 -1240.7455 3.0729e+03     7.9385     -0.606     -0.879    33.3078 0.0000e+00
     -0.618 8.3515e-16     6.7777     94.858      1.126   1.313479     0.0358     -1.831 -1240.7455 3.0645e+03     7.9266     -0.606     -0.879    33.3082 0.0000e+00
     -0.618 7.5925e-17     6.7824     94.816      1.125   1.311597     0.0698     -1.831 -1240.7455 3.0430e+03     7.9993     -0.605     -0.878    33.3087 0.0000e+00
     -0.618 6.9020e-18     6.7850     94.826      1.138   1.327001     0.0942     -1.831 -1240.7455 3.0242e+03     7.9644     -0.606     -0.879    33.3091 0.0000e+00
     -0.618 6.2745e-19     6.7843     94.854      1.123   1.309711     0.0883     -1.830 -1240.7455 3.0102e+03     7.8803     -0.605     -0.878    33.3096 0.0000e+00
     -0.618 5.7045e-20     6.7782     94.864      1.108   1.292566     0.0648     -1.830 -1240.7455 2.9942e+03     7.9047     -0.606     -0.879    33.3102 0.0000e+00
     -0.618 5.1855e-21     6.7734     94.866      1.123   1.309710     0.0598     -1.830 -1240.7455 2.9660e+03     8.0205     -0.606     -0.879    33.3106 0.0000e+00
     -0.618 4.7143e-22     6.7758     94.881      1.138   1.326984     0.0458     -1.830 -1240.7455 2.9172e+03     8.0497     -0.606     -0.879    33.3114 0.0000e+00
     -0.618 4.2857e-23     6.7791     94.899      1.124   1.311409    -0.0052     -1.830 -1240.7455 2.8417e+03     7.9502     -0.605     -0.878    33.3122 0.0000e+00
     -0.618 3.8961e-24     6.7788     94.899      1.124   1.311408    -0.0167     -1.830 -1240.7455 2.7250e+03     7.9450     -0.606     -0.879    33.3125 0.0000e+00
     -0.618 3.5419e-25     6.7786     94.911      1.138   1.326969     0.0155     -1.830 -1240.7455 2.5371e+03     8.0894     -0.606     -0.879    33.3128 0.0000e+00
     -0.618 3.2199e-26     6.7792     94.924      1.123   1.309539     0.0186     -1.830 -1240.7455 2.2638e+03     8.1246     -0.606     -0.879    33.3132 0.0000e+00
     -0.618 2.9272e-27     6.7827     94.914      1.106   1.290681     0.0201     -1.830 -1240.7455 1.9926e+03     8.0627     -0.606     -0.879    33.3138 0.0000e+00
     -0.618 2.6611e-28     6.7800     94.924      1.105   1.288981     0.0680     -1.830 -1240.7455 1.8237e+03     8.1275     -0.606     -0.879    33.3142 0.0000e+00
     -0.618 2.4192e-29     6.7814     94.954      1.105   1.288982     0.0894     -1.830 -1240.7455 1.7310e+03     8.1227     -0.606     -0.879    33.3148 0.0000e+00
     -0.617 2.1992e-30     6.7846     94.964      1.107   1.290690     0.0539     -1.830 -1240.7455 1.6795e+03     7.9699     -0.605     -0.878    33.3156 0.0000e+00
     -0.617 1.9993e-31     6.7804     94.953      1.123   1.309637     0.0471     -1.830 -1240.7455 1.7074e+03     7.9543     -0.605     -0.878    33.3160 0.0000e+00
     -0.617 1.8176e-32     6.7819     94.957      1.138   1.328054     0.0818     -1.830 -1240.7455 1.8251e+03     8.0023     -0.606     -0.879    33.3163 0.0000e+00
     -0.617 1.6526e-33     6.7856     94.978      1.134   1.323344     0.0983     -1.830 -1240.7455 1.9656e+03     8.0029     -0.605     -0.878    33.3166 0.0000e+00
     -0.617 1.5305e-34     6.7862     94.997      1.128   1.316029     0.0809     -1.830 -1240.7455 2.0799e+03     8.0297     -0.605     -0.878    33.3171 0.0000e+00
     -0.617 4.4913e-35     6.7837     95.002      1.117   1.302955     0.0705     -1.830 -1240.7455 2.1693e+03     8.0195     -0.605     -0.878    33.3178 0.0000e+00
     -0.617 3.4507e-34     6.7841     94.996      1.107   1.291939     0.0890     -1.830 -1240.7455 2.2333e+03     8.0162     -0.605     -0.878    33.3186 0.0000e+00
     -0.618 3.7822e-33     6.7866     94.999      1.122   1.309513     0.0812     -1.830 -1240.7455 2.3015e+03     7.9892     -0.606     -0.879    33.3190 0.0000e+00
     -0.618 4.1603e-32     6.7874     94.999      1.136   1.325428     0.0428     -1.830 -1240.7455 2.4116e+03     7.8646     -0.606     -0.879    33.3193 0.0000e+00
     -0.618 4.5763e-31     6.7887     94.985      1.109   1.294350     0.0322     -1.830 -1240.7455 2.5446e+03     7.5344     -0.605     -0.878    33.3197 0.0000e+00
     -0.618 5.0340e-30     6.7866     94.999      1.072   1.250439     0.0446     -1.830 -1240.7455 2.6506e+03     6.9682     -0.606     -0.879    33.3203 0.0000e+00
     -0.617 5.5374e-29     6.7872     95.032      1.061   1.237876     0.0349     -1.830 -1240.7455 2.7050e+03     6.5874     -0.605     -0.878    33.3208 0.0000e+00
     -0.617 6.0911e-28     6.7888     95.048      1.088   1.269128    -0.0028     -1.830 -1240.7455 2.7000e+03     6.5506     -0.605     -0.878    33.3210 0.0000e+00
     -0.618 6.7002e-27     6.7848     95.057      1.124   1.311609    -0.0284     -1.830 -1240.7455 2.5443e+03     6.5237     -0.606     -0.879    33.3212 0.0000e+00
     -0.618 7.3703e-26     6.7867     95.077      1.121   1.308143    -0.0330     -1.830 -1240.7455 2.0681e+03     6.1934     -0.606     -0.879    33.3210 0.0000e+00
     -0.618 8.1073e-25     6.7909     95.110      1.106   1.290562    -0.0336     -1.830 -1240.7455 1.7345e+03     5.7341     -0.606     -0.879    33.3207 0.0000e+00
     -0.618 8.9180e-24     6.7908     95.156      1.105   1.289057    -0.0106     -1.830 -1240.7455 2.0047e+03     5.5813     -0.606     -0.879    33.3208 0.0000e+00
     -0.618 9.8098e-23     6.7914     95.187      1.106   1.289940     0.0288     -1.831 -1240.7455 2.2834e+03     5.6788     -0.606     -0.879    33.3200 0.0000e+00
     -0.617 1.0791e-21     6.7933     95.192      1.116   1.301244     0.0434     -1.831 -1240.7455 2.2446e+03     5.8196     -0.605     -0.878    33.3188 0.0000e+00
     -0.617 1.1870e-20     6.7948     95.187      1.114   1.299054     0.0249     -1.831 -1240.7455 2.1595e+03     5.9516     -0.605     -0.878    33.3177 0.0000e+00
     -0.618 1.3057e-19     6.7999     95.177      1.083   1.263459    -0.0044     -1.831 -1240.7455 2.1803e+03     6.0114     -0.606     -0.879    33.3153 0.0000e+00
     -0.618 1.4363e-18     6.8031     95.178      1.073   1.250896    -0.0027     -1.831 -1240.7455 2.2984e+03     6.0989     -0.606     -0.879    33.3110 0.0000e+00
     -0.618 1.5799e-17     6.8029     95.178      1.093   1.273832     0.0125     -1.831 -1240.7455 2.3618e+03     6.1551     -0.606     -0.879    33.3046 0.0000e+00
     -0.618 1.7379e-16     6.8043     95.168      1.105   1.287424    -0.0035     -1.832 -1240.7455 2.3256e+03     6.0416     -0.606     -0.879    33.2973 0.0000e+00
     -0.618 1.9117e-15     6.8027     95.170      1.106   1.288557    -0.0052     -1.832 -1240.7455 2.2718e+03     5.9911     -0.606     -0.880    33.2906 0.0000e+00
     -0.617 2.1028e-14     6.8043     95.182      1.105   1.287527     0.0248     -1.832 -1240.7455 2.2333e+03     6.1241     -0.605     -0.879    33.2853 0.0000e+00
     -0.617 2.3131e-13     6.8056     95.201      1.094   1.274975     0.0273     -1.832 -1240.7455 2.2290e+03     6.0104     -0.605     -0.878    33.2802 0.0000e+00
     -0.618 2.5444e-12     6.8038     95.221      1.084   1.263461     0.0239     -1.832 -1240.7455 2.2930e+03     5.6409     -0.606     -0.879    33.2749 0.0000e+00
     -0.618 2.7989e-11     6.8056     95.227      1.094   1.274991     0.0505     -1.833 -1240.7455 2.3334e+03     5.5500     -0.606     -0.879    33.2689 0.0000e+00
     -0.618 3.0787e-10     6.8072     95.229      1.105   1.287710     0.0581     -1.833 -1240.7455 2.0207e+03     5.5273     -0.606     -0.880    33.2618 0.0000e+00
     -0.618 3.3866e-09     6.8091     95.217      1.108   1.290567     0.0325     -1.833 -1240.7455 1.6926e+03     5.2303     -0.605     -0.879    33.2544 0.0000e+00
     -0.618 3.7253e-08     6.8128     95.214      1.125   1.309529     0.0232     -1.833 -1240.7455 1.8234e+03     3.9388     -0.606     -0.878    33.2469 0.0000e+00
     -0.618 4.0978e-07     6.8123     95.227      1.140   1.326970     0.0463     -1.834 -1240.7455 1.7984e+03     1.7657     -0.606     -0.879    33.2391 0.0000e+00
     -0.618      0.000     6.8150     95.203      1.127   1.311424     0.0627     -1.834 -1240.7455 1.4340e+03     0.5780     -0.606     -0.879    33.2303 0.0000e+00
     -0.618      0.000     6.8147     95.168      1.127   1.311581     0.0464     -1.834 -1240.7455 1.0698e+03     0.4075     -0.606     -0.879    33.2199 0.0000e+00
     -0.617      0.001     6.8134     95.162      1.142   1.328870     0.0154     -1.834 -1240.7455 7.8380e+02     0.2515     -0.605     -0.878    33.2099 0.0000e+00
     -0.617      0.001     6.8200     95.187      1.143   1.330441     0.0122     -1.834 -1240.7455 6.3853e+02     0.1260     -0.605     -0.877    33.2019 0.0000e+00
     -0.617      0.001     6.8159     95.222      1.144   1.330586     0.0331     -1.835 -1240.7455 5.9283e+02     0.0171     -0.605     -0.878    33.1968 0.0000e+00
     -0.617      0.001     6.8130     95.242      1.145   1.330611     0.0257     -1.836 -1240.7455 6.2013e+02    -0.0744     -0.605     -0.878    33.1940 0.0000e+00
     -0.617      0.000     6.8128     95.249      1.146   1.330754     0.0057     -1.838 -1240.7455 7.2943e+02     0.2498     -0.605     -0.877    33.1943 0.0000e+00
     -0.617 1.8626e-08     6.8146     95.250      1.148   1.332312     0.0169     -1.839 -1240.7455 8.9835e+02     0.8961     -0.604     -0.877    33.1939 0.0000e+00
     -0.617 2.0489e-07     6.8221     95.268      1.163   1.349445     0.0202     -1.839 -1240.7455 1.0399e+03     1.1471     -0.605     -0.877    33.1670 0.0000e+00
     -0.616 2.0489e-07     6.8281     95.291      1.162   1.347889    -0.0051     -1.840 -1240.7455 1.0890e+03     1.0651     -0.604     -0.877    33.1119 0.0000e+00
     -0.616 1.8626e-08     6.8355     95.304      1.133   1.313496    -0.0060     -1.840 -1240.7455 1.0888e+03     1.1680     -0.604     -0.877    33.0630 0.0000e+00
     -0.617 1.6933e-09     6.8372     95.321      1.133   1.313638     0.0009     -1.841 -1240.7455 1.1104e+03     1.3670     -0.605     -0.877    33.0298 0.0000e+00
     -0.617 1.5394e-10     6.8427     95.331      1.164   1.349599    -0.0206     -1.841 -1240.7455 1.1664e+03     1.3872     -0.605     -0.878    33.0037 0.0000e+00
     -0.617 1.3996e-11     6.8475     95.316      1.180   1.368274    -0.0086     -1.841 -1240.7455 1.2076e+03     1.4118     -0.605     -0.877    32.9840 0.0000e+00
     -0.617 1.2848e-12     6.8486     95.294      1.164   1.349414     0.0377     -1.841 -1240.7455 1.1718e+03     1.5613     -0.605     -0.877    32.9695 0.0000e+00
     -0.617 2.5477e-13     6.8518     95.297      1.132   1.311581     0.0482     -1.841 -1240.7455 1.0728e+03     1.6240     -0.605     -0.878    32.9600 0.0000e+00
     -0.617 1.5407e-12     6.8537     95.307      1.114   1.290869     0.0187     -1.841 -1240.7455 9.7316e+02     1.5210     -0.605     -0.877    32.9546 0.0000e+00
     -0.617 1.6833e-11     6.8526     95.307      1.112   1.289000    -0.0185     -1.841 -1240.7455 9.1076e+02     1.3752     -0.605     -0.878    32.9522 0.0000e+00
     -0.617 1.8516e-10     6.8494     95.297      1.112   1.288987    -0.0355     -1.841 -1240.7455 9.0081e+02     1.3303     -0.605     -0.878    32.9507 0.0000e+00
     -0.617 2.0367e-09     6.8509     95.282      1.114   1.290711    -0.0383     -1.841 -1240.7455 9.3484e+02     1.3189     -0.605     -0.878    32.9490 0.0000e+00
     -0.617 2.2404e-08     6.8526     95.287      1.130   1.309842    -0.0355     -1.841 -1240.7453 9.7902e+02     1.2715     -0.605     -0.878    32.9476 0.0000e+00
     -0.617 2.4644e-07     6.8520     95.327      1.148   1.330283    -0.0090     -1.841 -1240.7434 1.0076e+03     1.3389     -0.606     -0.879    32.9462 0.0000e+00
     -0.617      0.000     6.8520     95.361      1.163   1.347845     0.0310     -1.841 -1240.7219 1.0206e+03     1.5185     -0.605     -0.878    32.9465 0.0000e+00
     -0.617      0.000     6.8498     95.362      1.204   1.395503     0.0329     -1.840 -1240.4858 1.0233e+03     1.5299     -0.605     -0.878    32.9480 0.0000e+00
     -0.617      0.000     6.8485     95.352      1.372   1.589813    -0.0032     -1.832 -1237.8887 1.0272e+03     1.4087     -0.605     -0.878    32.9510 0.0000e+00
     -0.617      0.004     6.8533     95.343      3.136   3.633903    -0.0052     -1.740 -1209.3211 1.0312e+03     1.4195     -0.605     -0.879    32.9530 0.0000e+00
     -0.617      0.020     6.8561     95.340     11.671  13.504214     0.0496     -0.734  -895.0766 1.0255e+03     1.5244     -0.605     -0.877    32.9575 0.0000e+00
     -0.617      0.057     6.8546     95.400     23.451  27.052314     0.3012      1.628  -302.1166 1.0176e+03     2.5394     -0.606     -0.878    32.9582 0.0000e+00
     -0.616      0.107     6.8531     95.642     29.505  33.807682     0.7232      3.994    49.6414 1.0081e+03     4.5039     -0.604     -0.876    32.9648 0.0000e+00
     -0.604      0.157     6.8531     96.102     32.614  37.045524     0.9576      5.449   101.0698 9.9353e+02     5.7033     -0.607     -0.881    32.9627 0.0000e+00
     -0.552      0.194     6.8501     96.555     34.792  39.235443     1.0136      6.292    95.3083 9.5052e+02     5.9729     -0.566     -0.821    32.9754 0.0000e+00
     -0.456      0.214     6.8673     96.839     35.123  39.348814     1.1418      6.797    84.4309 9.1551e+02     5.7826     -0.443     -0.641    32.8317 0.0000e+00
     -0.362      0.216     6.9383     97.074     35.224  39.240814     1.3341      7.107    81.2305 9.5761e+02     5.2811     -0.339     -0.491    32.3342 0.0000e+00
     -0.303      0.201     7.0453     97.357     35.349  39.198425     1.4324      7.302    67.0245 9.9941e+02     5.0333     -0.289     -0.419    31.7902 0.0000e+00
     -0.273      0.173     7.1365     97.679     35.609  39.343668     1.4486      7.430    55.2339 9.9777e+02     5.1088     -0.263     -0.382    31.3682 0.0000e+00
     -0.254      0.141     7.1952     98.004     35.835  39.473687     1.5131      7.526    55.9427 9.9353e+02     5.2387     -0.250     -0.362    30.9906 0.0000e+00
     -0.233      0.117     7.2504     98.271     35.891  39.437638     1.5957      7.603    57.9571 9.8326e+02     5.2029     -0.234     -0.339    30.6732 0.0000e+00
     -0.200      0.103     7.3045     98.459     35.880  39.351860     1.6150      7.663    59.2842 9.5686e+02     5.0509     -0.201     -0.291    30.4177 0.0000e+00
     -0.160      0.093     7.3528     98.582     35.908  39.324873     1.6054      7.713    59.5125 9.0902e+02     5.0072     -0.150     -0.218    30.2273 0.0000e+00
     -0.130      0.080     7.4011     98.634     36.051  39.428534     1.6054      7.755    59.9440 8.1616e+02     5.0498     -0.120     -0.175    30.0623 0.0000e+00
     -0.115      0.065     7.4401     98.628     36.302  39.653239     1.6057      7.791    61.2312 7.0266e+02     5.0874     -0.110     -0.160    29.9165 0.0000e+00
     -0.108      0.047     7.4655     98.629     36.499  39.820588     1.6002      7.824    63.0302 6.5868e+02     5.0867     -0.106     -0.154    29.8238 0.0000e+00
     -0.103      0.032     7.4846     98.663     36.570  39.865356     1.5723      7.855    64.9180 7.1182e+02     5.0065     -0.102     -0.148    29.7509 0.0000e+00
     -0.099      0.023     7.4994     98.702     36.589  39.877165     1.5437      7.886    66.6765 8.0030e+02     4.9723     -0.097     -0.141    29.6732 0.0000e+00
     -0.094      0.020     7.5038     98.733     36.604  39.899891     1.5707      7.915    68.2033 8.4785e+02     5.0827     -0.092     -0.134    29.6094 0.0000e+00
     -0.088      0.019     7.5125     98.747     36.639  39.949773     1.6403      7.941    69.2683 8.4183e+02     5.2138     -0.086     -0.125    29.5382 0.0000e+00
     -0.083      0.018     7.5247     98.768     36.705  40.036074     1.6616      7.965    70.0885 7.7748e+02     5.1920     -0.080     -0.116    29.4826 0.0000e+00
     -0.078      0.017     7.5267     98.798     36.768  40.118366     1.6281      7.986    71.1513 6.8423e+02     5.0920     -0.076     -0.110    29.4793 0.0000e+00
     -0.074      0.016     7.5291     98.814     36.813  40.183252     1.6092      8.004    72.3957 6.4033e+02     5.0640     -0.073     -0.106    29.4940 0.0000e+00
     -0.071      0.014     7.5260     98.831     36.859  40.249476     1.6257      8.022    73.3472 6.2543e+02     5.1269     -0.070     -0.102    29.5107 0.0000e+00
     -0.068      0.012     7.5249     98.849     36.879  40.284479     1.6612      8.040    73.8807 5.9518e+02     5.2373     -0.067     -0.097    29.5301 0.0000e+00
     -0.065      0.010     7.5268     98.859     36.872  40.289186     1.6634      8.055    74.3721 5.6098e+02     5.2037     -0.064     -0.092    29.5490 0.0000e+00
     -0.061      0.008     7.5232     98.860     36.876  40.306408     1.6350      8.068    74.9856 5.3146e+02     5.0618     -0.059     -0.086    29.5707 0.0000e+00
     -0.059      0.006     7.5223     98.865     36.921  40.365805     1.6262      8.081    75.6205 5.1034e+02     4.9904     -0.057     -0.083    29.5929 0.0000e+00
     -0.059      0.005     7.5216     98.887     36.977  40.436203     1.6321      8.093    76.1982 5.1023e+02     4.9564     -0.058     -0.084    29.6109 0.0000e+00
     -0.059      0.003     7.5202     98.920     36.992  40.459513     1.6484      8.104    76.8072 5.3352e+02     4.9574     -0.059     -0.085    29.6266 0.0000e+00
     -0.058      0.002     7.5179     98.925     36.984  40.457264     1.6477      8.114    77.6501 5.5885e+02     5.0019     -0.058     -0.084    29.6438 0.0000e+00
     -0.057      0.002     7.5156     98.907     36.991  40.472494     1.6326      8.124    78.5599 5.7446e+02     5.0852     -0.056     -0.081    29.6594 0.0000e+00
     -0.056      0.002     7.5153     98.903     37.024  40.516740     1.6325      8.134    79.3757 5.9546e+02     5.1446     -0.055     -0.079    29.6720 0.0000e+00
     -0.056      0.001     7.5190     98.907     37.047  40.548006     1.6380      8.141    79.9417 6.1620e+02     5.1727     -0.055     -0.079    29.6794 0.0000e+00
     -0.056      0.000     7.5184     98.905     37.029  40.533231     1.6403      8.146    79.9833 6.2540e+02     5.1863     -0.055     -0.080    29.6871 0.0000e+00
     -0.056     -0.001     7.5129     98.895     37.020  40.528486     1.6197      8.151    79.9651 6.3628e+02     5.0357     -0.055     -0.080    29.6987 0.0000e+00
     -0.056     -0.001     7.5126     98.884     37.038  40.554107     1.6137      8.156    80.4091 6.4758e+02     4.8888     -0.055     -0.080    29.7111 0.0000e+00
     -0.057      0.000     7.5118     98.885     37.064  40.589175     1.6336      8.163    81.2226 6.6053e+02     4.9478     -0.056     -0.081    29.7191 0.0000e+00
     -0.057      0.003     7.5112     98.911     37.100  40.635180     1.6432      8.171    82.0571 6.7403e+02     5.0317     -0.056     -0.082    29.7231 0.0000e+00
     -0.057      0.006     7.5096     98.965     37.125  40.666125     1.6300      8.180    82.6706 6.6543e+02     5.0151     -0.057     -0.083    29.7302 0.0000e+00
     -0.057      0.009     7.5066     99.024     37.105  40.646022     1.5822      8.190    83.3046 6.4225e+02     4.9186     -0.057     -0.083    29.7389 0.0000e+00
     -0.053      0.010     7.5059     99.083     37.045  40.582499     1.5567      8.200    84.0448 6.3585e+02     4.8888     -0.053     -0.077    29.7473 0.0000e+00
     -0.047      0.010     7.5055     99.137     36.996  40.532711     1.5801      8.210    84.7375 6.5178e+02     4.9968     -0.046     -0.066    29.7574 0.0000e+00
     -0.042      0.009     7.5105     99.174     37.008  40.551747     1.6064      8.219    85.0545 6.7732e+02     5.0629     -0.041     -0.058    29.7647 0.0000e+00
     -0.040      0.007     7.5144     99.204     37.069  40.622282     1.6008      8.228    84.8665 6.9919e+02     4.9706     -0.039     -0.056    29.7649 0.0000e+00
     -0.041      0.004     7.5188     99.213     37.129  40.687458     1.5700      8.235    84.8729 7.1104e+02     4.8370     -0.040     -0.058    29.7654 0.0000e+00
     -0.043      0.002     7.5232     99.201     37.147  40.705151     1.5665      8.243    85.3038 7.0931e+02     4.8481     -0.042     -0.061    29.7727 0.0000e+00
     -0.043      0.001     7.5230     99.204     37.151  40.709281     1.6085      8.250    85.7750 6.9809e+02     5.0028     -0.043     -0.062    29.7818 0.0000e+00
     -0.042      0.001     7.5264     99.216     37.172  40.737395     1.6536      8.256    86.1815 6.8914e+02     5.1707     -0.041     -0.058    29.7865 0.0000e+00
     -0.040      0.001     7.5270     99.211     37.158  40.727756     1.6538      8.263    86.4338 6.7624e+02     5.2034     -0.039     -0.056    29.7848 0.0000e+00
     -0.039      0.002     7.5253     99.200     37.145  40.719684     1.6198      8.271    86.5883 6.5481e+02     5.0908     -0.038     -0.055    29.7803 0.0000e+00
     -0.039      0.002     7.5250     99.169     37.126  40.703271     1.6089      8.279    86.8456 6.3982e+02     5.0729     -0.038     -0.055    29.7812 0.0000e+00
     -0.041      0.002     7.5277     98.599     36.734  40.275453     1.6389      8.289    86.9632 6.4289e+02     5.1919     -0.040     -0.059    29.7887 0.0000e+00
     -0.041      0.002     7.5239     96.819     36.020  39.481566     1.6659      8.294    86.8918 6.5301e+02     5.2663     -0.042     -0.060    29.7969 0.0000e+00
     -0.038      0.000     7.5233     95.654     35.659  39.037031     1.6528      8.289    87.1011 6.6514e+02     5.2207     -0.038     -0.055    29.8053 0.0000e+00
     -0.036     -0.005     7.5213     97.708     35.737  39.025476     1.6214      8.273    87.4289 6.9635e+02     5.1188     -0.034     -0.049    29.8120 0.0000e+00
     -0.036     -0.014     7.5310    101.250     35.902  39.087864     1.6283      8.257    87.5859 7.2867e+02     5.0939     -0.035     -0.050    29.8143 0.0000e+00
     -0.038     -0.025     7.3499    103.301     36.065  39.156588     1.6691      8.248    87.7076 7.0600e+02     5.0908     -0.037     -0.053    29.8183 0.0000e+00
     -0.045     -0.037     7.1151    103.360     36.199  39.221639     1.6899      8.250    87.8682 6.0014e+02     5.0467     -0.039     -0.057    29.7596 0.0000e+00
     -0.060     -0.047     7.3925    101.495     36.257  39.239684     1.6722      8.265    88.2367 5.3206e+02     4.9700     -0.058     -0.084    29.6007 0.0000e+00
     -0.077     -0.054     7.8057     98.492     36.283  39.247776     1.6217      8.286    88.8079 5.8142e+02     4.8811     -0.080     -0.116    29.4232 0.0000e+00
     -0.092     -0.055     7.9463     96.037     36.358  39.319446     1.5869      8.310    89.2680 6.4171e+02     4.9285     -0.087     -0.128    29.2659 0.0000e+00
     -0.109     -0.051     7.9876     94.634     36.451  39.408177     1.6002      8.331    89.4120 6.8169e+02     5.0641     -0.106     -0.153    29.1487 0.0000e+00
     -0.125     -0.041     7.8362     93.518     36.482  39.432163     1.6001      8.345    89.2590 6.9691e+02     5.0517     -0.128     -0.185    29.0936 0.0000e+00
     -0.135     -0.029     7.5346     92.133     36.470  39.419070     1.5685      8.355    89.0522 6.7826e+02     4.9501     -0.133     -0.193    29.0756 0.0000e+00
     -0.140     -0.018     7.3381     90.498     36.483  39.440250     1.5511      8.365    89.1487 6.5436e+02     4.9963     -0.137     -0.200    29.0684 0.0000e+00
     -0.141     -0.009     7.2687     88.844     36.532  39.497884     1.5645      8.376    89.4796 6.1489e+02     5.1658     -0.140     -0.204    29.0503 0.0000e+00
     -0.138     -0.004     7.1998     87.392     36.578  39.544781     1.5980      8.388    89.8689 5.7992e+02     5.2581     -0.135     -0.196    29.0292 0.0000e+00
     -0.134     -0.001     7.0878     86.059     36.599  39.563059     1.5970      8.399    90.4142 6.0922e+02     5.1221     -0.131     -0.191    29.0322 0.0000e+00
     -0.134      0.001     6.9552     84.618     36.623  39.591947     1.5620      8.410    90.9965 6.9357e+02     4.8878     -0.129     -0.188    29.0484 0.0000e+00
     -0.138      0.002     6.8174     83.181     36.659  39.640233     1.5493      8.421    91.4035 7.6822e+02     4.8507     -0.135     -0.196    29.0575 0.0000e+00
     -0.141      0.002     6.7086     81.956     36.648  39.639223     1.5679      8.432    91.6352 8.2062e+02     4.9800     -0.141     -0.206    29.0499 0.0000e+00
     -0.139      0.002     6.6222     80.963     36.583  39.579747     1.5949      8.440    91.7327 8.6562e+02     4.9825     -0.137     -0.198    29.0375 0.0000e+00
     -0.134      0.003     6.5022     80.153     36.551  39.555736     1.6013      8.446    91.6363 9.0112e+02     4.8461     -0.130     -0.189    29.0424 0.0000e+00
     -0.132      0.004     6.3819     79.363     36.586  39.602757     1.5961      8.452    91.5028 9.1758e+02     4.8006     -0.127     -0.186    29.0588 0.0000e+00
     -0.132      0.004     6.2897     78.522     36.616  39.640614     1.5980      8.458    91.6663 8.9209e+02     4.9102     -0.130     -0.188    29.0736 0.0000e+00
     -0.134      0.003     6.2094     77.761     36.607  39.632708     1.6170      8.465    92.0647 8.6793e+02     5.1129     -0.132     -0.193    29.0887 0.0000e+00
     -0.135      0.003     6.1528     77.129     36.606  39.634078     1.6338      8.471    92.3621 9.4198e+02     5.2022     -0.133     -0.194    29.1062 0.0000e+00
     -0.133      0.004     6.0949     76.561     36.621  39.657183     1.6180      8.477    92.5948 1.0863e+03     5.0671     -0.132     -0.190    29.1192 0.0000e+00
     -0.130      0.006     6.0213     76.016     36.613  39.658243     1.6001      8.483    92.9854 1.2214e+03     4.9482     -0.128     -0.185    29.1248 0.0000e+00
     -0.127      0.006     5.9629     75.496     36.593  39.646914     1.6011      8.490    93.3854 1.3369e+03     4.9611     -0.125     -0.180    29.1245 0.0000e+00
     -0.125      0.005     5.9170     75.015     36.583  39.647142     1.6214      8.495    93.5589 1.4265e+03     4.9837     -0.123     -0.178    29.1270 0.0000e+00
     -0.125      0.003     5.8734     74.550     36.587  39.661014     1.6378      8.501    93.3627 1.4682e+03     4.9476     -0.122     -0.178    29.1367 0.0000e+00
     -0.125      0.001     5.8300     74.047     36.604  39.687742     1.6247      8.508    92.9923 1.4558e+03     4.8660     -0.123     -0.178    29.1502 0.0000e+00
     -0.125     -0.001     5.7877     73.497     36.623  39.716481     1.6291      8.513    92.8658 1.4164e+03     4.8511     -0.123     -0.179    29.1652 0.0000e+00
     -0.125     -0.001     5.7501     72.962     36.650  39.754660     1.6574      8.518    93.0376 1.3957e+03     4.9380     -0.123     -0.178    29.1800 0.0000e+00
     -0.126     -0.001     5.7147     72.446     36.655  39.768620     1.6673      8.522    93.4350 1.4264e+03     4.9947     -0.125     -0.179    29.1934 0.0000e+00
     -0.127      0.000     5.6768     71.919     36.640  39.758359     1.6496      8.526    93.9711 1.5196e+03     4.9556     -0.126     -0.183    29.2048 0.0000e+00
     -0.127      0.001     5.6294     71.474     36.633  39.757520     1.6182      8.531    94.3570 1.6606e+03     4.8755     -0.125     -0.182    29.2163 0.0000e+00
     -0.126      0.002     5.5873     71.213     36.628  39.758482     1.6199      8.535    94.3152 1.7564e+03     4.9489     -0.124     -0.179    29.2302 0.0000e+00
     -0.126      0.003     5.5496     71.069     36.631  39.770010     1.6543      8.538    93.9824 1.4733e+03     5.1601     -0.123     -0.179    29.2425 0.0000e+00
     -0.125      0.003     5.5048     70.955     36.623  39.770000     1.6760      8.542    93.6883 8.6491e+02     5.2423     -0.124     -0.179    29.2489 0.0000e+00
     -0.124      0.002     5.4654     70.911     36.606  39.758365     1.6653      8.547    93.6843 5.2603e+02     5.1571     -0.122     -0.176    29.2551 0.0000e+00
     -0.123     -0.000     5.4476     70.936     36.599  39.756265     1.6422      8.552    93.9343 4.9147e+02     5.0176     -0.120     -0.174    29.2661 0.0000e+00
     -0.123     -0.003     5.4403     70.980     36.588  39.744622     1.6628      8.557    94.2156 4.9197e+02     4.9569     -0.121     -0.175    29.2780 0.0000e+00
     -0.124     -0.006     5.4263     71.073     36.590  39.744509     1.7144      8.563    94.5050 5.4636e+02     5.0039     -0.122     -0.177    29.2888 0.0000e+00
     -0.126     -0.007     5.4222     71.223     36.599  39.754891     1.7332      8.570    94.7651 1.0644e+03     5.0736     -0.122     -0.178    29.2993 0.0000e+00
     -0.130     -0.007     5.4268     71.339     36.584  39.743235     1.6907      8.578    94.8654 2.0038e+03     5.0820     -0.126     -0.183    29.3090 0.0000e+00
     -0.134     -0.005     5.4278     71.344     36.568  39.730503     1.6249      8.585    94.8574 2.5393e+03     5.1051     -0.132     -0.193    29.3086 0.0000e+00
     -0.136     -0.002     5.4342     71.212     36.560  39.727881     1.6208      8.592    95.0128 2.6201e+03     5.2171     -0.134     -0.195    29.3001 0.0000e+00
     -0.136      0.002     5.4499     70.961     36.539  39.711536     1.6655      8.600    95.2825 2.6372e+03     5.2741     -0.135     -0.194    29.3022 0.0000e+00
     -0.134      0.004     5.4600     70.794     36.484  39.659812     1.6659      8.607    95.3642 2.6215e+03     5.1791     -0.132     -0.192    29.3095 0.0000e+00
     -0.129      0.006     5.4594     70.973     36.430  39.610185     1.6259      8.613    95.3117 2.5778e+03     4.9914     -0.126     -0.183    29.3164 0.0000e+00
     -0.126      0.007     5.4505     71.437     36.432  39.619205     1.6063      8.619    95.3363 2.5202e+03     4.9172     -0.122     -0.177    29.3253 0.0000e+00
     -0.126      0.006     5.4243     71.812     36.451  39.641957     1.6200      8.623    95.4900 2.4728e+03     4.9997     -0.123     -0.179    29.3341 0.0000e+00
     -0.126      0.005     5.3994     71.847     36.445  39.631440     1.6416      8.626    95.7080 2.4571e+03     4.9984     -0.125     -0.181    29.3447 0.0000e+00
     -0.125      0.003     5.4140     71.652     36.436  39.618956     1.6346      8.629    95.9060 2.4748e+03     4.9012     -0.122     -0.178    29.3568 0.0000e+00
     -0.123      0.003     5.4617     71.456     36.431  39.617934     1.6096      8.633    96.1635 2.5081e+03     4.9180     -0.120     -0.175    29.3704 0.0000e+00
     -0.123      0.004     5.4992     71.308     36.421  39.619088     1.5986      8.640    96.4981 2.5341e+03     5.0640     -0.120     -0.175    29.3741 0.0000e+00
     -0.122      0.004     5.4970     71.115     36.419  39.632920     1.6179      8.646    96.6829 2.5382e+03     5.1979     -0.120     -0.174    29.3636 0.0000e+00
     -0.121      0.003     5.4740     70.832     36.428  39.658290     1.6513      8.651    96.7631 2.5222e+03     5.1019     -0.119     -0.173    29.3575 0.0000e+00
     -0.120      0.003     5.4582     70.521     36.428  39.672017     1.6614      8.655    97.0379 2.4947e+03     4.8268     -0.117     -0.170    29.3638 0.0000e+00
     -0.119      0.003     5.4491     70.212     36.418  39.672007     1.6567      8.660    97.3387 2.4698e+03     4.7065     -0.116     -0.169    29.3801 0.0000e+00
     -0.119      0.004     5.4342     69.856     36.395  39.658180     1.6696      8.665    97.3886 2.4604e+03     4.8087     -0.118     -0.171    29.4045 0.0000e+00
     -0.118      0.004     5.4068     69.456     36.361  39.631775     1.7002      8.669    97.4685 2.4651e+03     5.0032     -0.116     -0.169    29.4294 0.0000e+00
     -0.117      0.003     5.3802     69.110     36.332  39.606600     1.7028      8.673    97.7028 2.4744e+03     5.1121     -0.114     -0.166    29.4463 0.0000e+00
     -0.115      0.003     5.3582     68.877     36.328  39.607638     1.6756      8.676    97.8123 2.4793e+03     5.0658     -0.113     -0.164    29.4602 0.0000e+00
     -0.115      0.003     5.3298     68.720     36.358  39.644331     1.6626      8.678    97.7601 2.4723e+03     4.9901     -0.112     -0.163    29.4767 0.0000e+00
     -0.114      0.003     5.2937     68.553     36.378  39.669503     1.6788      8.681    97.7597 2.4562e+03     5.0166     -0.112     -0.162    29.4915 0.0000e+00
     -0.114      0.002     5.2648     68.326     36.364  39.658163     1.7134      8.685    97.9801 2.4458e+03     5.1126     -0.112     -0.162    29.5014 0.0000e+00
     -0.113      0.002     5.2479     68.046     36.339  39.634141     1.7147      8.688    98.2736 2.4468e+03     5.0925     -0.112     -0.162    29.5072 0.0000e+00
     -0.112      0.002     5.2382     67.745     36.335  39.632902     1.6778      8.690    98.3823 2.4522e+03     5.0121     -0.110     -0.160    29.5125 0.0000e+00
     -0.112      0.002     5.2269     67.494     36.342  39.643182     1.6585      8.693    98.3480 2.4562e+03     4.9947     -0.110     -0.159    29.5181 0.0000e+00
     -0.112      0.002     5.2079     67.328     36.329  39.631518     1.6728      8.695    98.2899 2.4587e+03     5.0526     -0.110     -0.159    29.5235 0.0000e+00
     -0.112      0.003     5.1862     67.157     36.317  39.618806     1.7085      8.697    98.3683 2.4623e+03     5.1317     -0.110     -0.159    29.5282 0.0000e+00
     -0.111      0.003     5.1604     66.890     36.316  39.616402     1.7156      8.699    98.5208 2.4710e+03     5.0962     -0.109     -0.158    29.5315 0.0000e+00
     -0.110      0.004     5.1385     66.577     36.306  39.602454     1.6759      8.701    98.5002 2.4861e+03     5.0332     -0.108     -0.156    29.5353 0.0000e+00
     -0.109      0.004     5.1295     66.354     36.282  39.577070     1.6360      8.704    98.5483 2.5049e+03     5.0882     -0.107     -0.155    29.5393 0.0000e+00
     -0.108      0.004     5.1201     66.323     36.267  39.563327     1.6254      8.708    98.7587 2.5189e+03     5.2146     -0.106     -0.153    29.5408 0.0000e+00
     -0.107      0.004     5.0978     66.428     36.263  39.563209     1.6472      8.712    98.8072 2.5139e+03     5.2292     -0.104     -0.152    29.5374 0.0000e+00
     -0.105      0.004     5.0702     66.519     36.271  39.575660     1.6496      8.716    98.7037 2.4845e+03     5.0938     -0.102     -0.149    29.5316 0.0000e+00
     -0.103      0.004     5.0495     66.509     36.278  39.586955     1.6293      8.719    98.7977 2.4453e+03     5.0124     -0.101     -0.146    29.5318 0.0000e+00
     -0.103      0.003     5.0482     66.371     36.263  39.572862     1.6273      8.719    99.0842 2.4158e+03     5.0305     -0.101     -0.146    29.5371 0.0000e+00
     -0.103     -0.001     5.0620     66.118     36.228  39.532185     1.6336      8.719    99.2421 2.4074e+03     5.0386     -0.102     -0.147    29.5429 0.0000e+00
     -0.102     -0.008     5.0698     65.813     36.181  39.475892     1.6554      8.720    99.4161 2.4229e+03     4.9746     -0.101     -0.146    29.5488 0.0000e+00
     -0.102     -0.018     5.0691     65.612     36.114  39.399887     1.6576      8.723    99.8119 2.4492e+03     4.8719     -0.100     -0.145    29.5536 0.0000e+00
     -0.105     -0.026     5.0584     65.902     36.033  39.311272     1.6353      8.726   101.1017 2.4718e+03     4.8895     -0.100     -0.146    29.5577 0.0000e+00
     -0.113     -0.029     5.0370     67.047     36.016  39.292887     1.6358      8.729   114.2375 2.4803e+03     5.0166     -0.108     -0.157    29.5560 0.0000e+00
     -0.129     -0.026     5.0125     68.933     36.094  39.367974     1.6469      8.734   137.5786 2.4752e+03     5.0761     -0.126     -0.182    29.5439 0.0000e+00
     -0.146     -0.018     4.9875     71.377     36.126  39.394151     1.6363      8.740   140.2557 2.4787e+03     4.9953     -0.147     -0.214    29.5395 0.0000e+00
     -0.153     -0.008     4.9914     74.285     36.021  39.292073     1.5911      8.743   132.1518 2.4953e+03     4.8585     -0.156     -0.226    29.5415 0.0000e+00
     -0.147      0.006     5.0879     77.156     35.922  39.212586     1.5739      8.739   142.4118 2.5047e+03     4.8571     -0.146     -0.211    29.5488 0.0000e+00
     -0.136      0.019     5.2414     79.411     35.942  39.258096     1.5869      8.734   152.4573 2.4994e+03     4.9786     -0.131     -0.190    29.5341 0.0000e+00
     -0.128      0.027     5.4225     80.846     36.002  39.334704     1.5816      8.732   145.8033 2.4953e+03     5.0296     -0.125     -0.181    29.4964 0.0000e+00
     -0.120      0.028     5.6626     81.588     35.975  39.313891     1.5679      8.733   129.0701 2.5097e+03     4.9601     -0.119     -0.171    29.5247 0.0000e+00
     -0.111      0.025     5.8930     81.857     35.854  39.196834     1.5466      8.733   115.2475 2.5416e+03     4.8564     -0.109     -0.158    29.5808 0.0000e+00
     -0.105      0.020     6.0660     81.734     35.773  39.125123     1.5571      8.733   110.2294 2.5738e+03     4.8699     -0.101     -0.148    29.6114 0.0000e+00
     -0.101      0.016     6.1691     81.259     35.783  39.144921     1.6034      8.734   108.6629 2.5882e+03     4.9859     -0.098     -0.142    29.6251 0.0000e+00
     -0.099      0.012     6.2173     80.720     35.815  39.182383     1.6394      8.734   107.5772 2.5800e+03     5.0299     -0.097     -0.141    29.6244 0.0000e+00
     -0.097      0.008     6.2336     80.544     35.831  39.197328     1.6438      8.737   106.6525 2.5595e+03     4.9568     -0.096     -0.139    29.6525 0.0000e+00
     -0.096      0.006     6.2223     80.708     35.836  39.198697     1.6147      8.741   106.0864 2.5424e+03     4.8538     -0.094     -0.136    29.6840 0.0000e+00
     -0.094      0.006     6.1788     80.807     35.839  39.198925     1.6122      8.745   105.6366 2.5362e+03     4.8779     -0.093     -0.134    29.6923 0.0000e+00
     -0.092      0.006     6.1181     80.537     35.841  39.200080     1.6465      8.749   105.0857 2.5406e+03     5.0092     -0.091     -0.131    29.6960 0.0000e+00
     -0.091      0.006     6.1079     79.861     35.853  39.212657     1.6631      8.754   104.7610 2.5503e+03     5.1082     -0.089     -0.129    29.6918 0.0000e+00
     -0.090      0.006     6.1369     78.951     35.863  39.224080     1.6552      8.757   104.7220 2.5607e+03     5.1189     -0.088     -0.126    29.6828 0.0000e+00
     -0.088      0.006     6.1525     77.992     35.853  39.211275     1.6338      8.760   104.6990 2.5718e+03     5.0362     -0.085     -0.124    29.6785 0.0000e+00
     -0.087      0.006     6.1332     77.012     35.831  39.184749     1.6378      8.764   104.4835 2.5836e+03     4.9967     -0.086     -0.124    29.6780 0.0000e+00
     -0.086      0.006     6.0760     75.971     35.807  39.157180     1.6703      8.768   104.0950 2.5906e+03     4.9832     -0.085     -0.123    29.6782 0.0000e+00
     -0.084      0.005     5.9997     74.930     35.783  39.131777     1.6774      8.773   103.7878 2.5875e+03     4.9412     -0.082     -0.119    29.6781 0.0000e+00
     -0.082      0.005     5.9279     74.016     35.781  39.131432     1.6488      8.779   103.6957 2.5738e+03     4.9332     -0.080     -0.115    29.6764 0.0000e+00
     -0.081      0.005     5.8562     73.286     35.801  39.153021     1.6163      8.785   103.7548 2.5547e+03     4.9204     -0.080     -0.115    29.6720 0.0000e+00
     -0.080      0.004     5.7754     72.682     35.792  39.138966     1.6253      8.792   103.8998 2.5390e+03     4.9574     -0.079     -0.114    29.6689 0.0000e+00
     -0.080      0.003     5.6913     72.096     35.752  39.088408     1.6575      8.798   104.0728 2.5414e+03     4.9695     -0.079     -0.114    29.6704 0.0000e+00
     -0.079      0.001     5.6201     71.519     35.720  39.049389     1.6479      8.803   104.1259 2.5605e+03     4.8620     -0.077     -0.112    29.6749 0.0000e+00
     -0.078      0.001     5.5660     71.073     35.719  39.047931     1.6009      8.807   104.0259 2.5695e+03     4.8185     -0.075     -0.109    29.6772 0.0000e+00
     -0.078      0.000     5.5247     70.760     35.737  39.070777     1.5635      8.811   103.8090 2.5642e+03     4.9566     -0.076     -0.111    29.6691 0.0000e+00
     -0.079     -0.001     5.4834     70.482     35.732  39.071796     1.5704      8.814   103.5680 2.5485e+03     5.1652     -0.078     -0.113    29.6567 0.0000e+00
     -0.079     -0.002     5.4324     70.217     35.716  39.060256     1.6004      8.819   103.3492 2.4828e+03     5.2222     -0.078     -0.113    29.6507 0.0000e+00
     -0.079     -0.005     5.3998     69.977     35.709  39.058173     1.5934      8.824   103.1437 2.3096e+03     5.1000     -0.078     -0.112    29.6509 0.0000e+00
     -0.079     -0.007     5.3803     69.798     35.695  39.046623     1.5606      8.829   103.1474 2.1488e+03     4.9520     -0.077     -0.111    29.6558 0.0000e+00
     -0.080     -0.007     5.3573     69.727     35.695  39.047529     1.5456      8.833   103.3934 2.1886e+03     4.9018     -0.077     -0.112    29.6658 0.0000e+00
     -0.084     -0.006     5.3360     69.682     35.715  39.069128     1.5608      8.836   103.6236 2.3307e+03     4.9703     -0.081     -0.118    29.6757 0.0000e+00
     -0.089     -0.004     5.3170     69.524     35.705  39.053940     1.5948      8.840   103.6936 2.4173e+03     4.9947     -0.089     -0.128    29.6825 0.0000e+00
     -0.092     -0.001     5.2995     69.287     35.652  38.990803     1.5826      8.841   103.6381 2.4523e+03     4.9232     -0.092     -0.133    29.6876 0.0000e+00
     -0.090      0.003     5.2967     69.195     35.608  38.940313     1.5217      8.843   103.5547 2.4493e+03     4.8576     -0.088     -0.128    29.6903 0.0000e+00
     -0.085      0.004     5.2993     69.414     35.619  38.951140     1.4906      8.844   103.3735 2.3342e+03     4.8848     -0.083     -0.121    29.6902 0.0000e+00
     -0.081      0.002     5.2872     69.810     35.660  38.994794     1.5067      8.844   103.1682 2.1344e+03     4.9790     -0.078     -0.114    29.6826 0.0000e+00
     -0.079     -0.008     5.2621     70.203     35.627  38.960464     1.5251      8.846   103.1367 2.0193e+03     4.9371     -0.077     -0.112    29.6750 0.0000e+00
     -0.079     -0.023     5.2485     70.928     35.522  38.853344     1.5128      8.848   103.1645 1.9957e+03     4.8227     -0.078     -0.112    29.6706 0.0000e+00
     -0.083     -0.036     5.2703     72.677     35.507  38.841874     1.5082      8.850   103.3321 2.0141e+03     4.8937     -0.077     -0.112    29.6716 0.0000e+00
     -0.096     -0.044     5.3107     75.577     35.609  38.948703     1.5269      8.853   103.6148 2.1016e+03     5.0447     -0.089     -0.129    29.6678 0.0000e+00
     -0.120     -0.045     5.3333     79.278     35.652  39.002757     1.5149      8.857   103.7438 2.2419e+03     5.0762     -0.119     -0.174    29.6652 0.0000e+00
     -0.141     -0.041     5.3560     83.480     35.552  38.924332     1.4540      8.860   103.7738 2.3614e+03     4.9681     -0.145     -0.210    29.6850 0.0000e+00
     -0.151     -0.031     5.4869     87.538     35.431  38.825471     1.3905      8.863   103.8058 2.4249e+03     4.7966     -0.151     -0.220    29.6989 0.0000e+00
     -0.152     -0.018     5.7270     90.611     35.412  38.822816     1.3799      8.865   103.7861 2.4577e+03     4.8124     -0.150     -0.217    29.6774 0.0000e+00
     -0.149     -0.005     6.0090     92.821     35.473  38.892257     1.4092      8.868   103.7067 2.4702e+03     4.9887     -0.146     -0.212    29.6726 0.0000e+00
     -0.147      0.004     6.3370     94.926     35.488  38.903585     1.4280      8.871   103.7072 2.4688e+03     5.0492     -0.144     -0.209    29.7367 0.0000e+00
     -0.146      0.008     6.6750     96.731     35.429  38.832858     1.4151      8.873   103.7919 2.4701e+03     4.9630     -0.143     -0.207    29.7957 0.0000e+00
     -0.143      0.009     6.9014     97.332     35.403  38.798590     1.3861      8.874   103.8702 2.4788e+03     4.8004     -0.140     -0.203    29.8152 0.0000e+00
     -0.140      0.009     7.0277     96.375     35.413  38.806530     1.3775      8.877   103.9652 2.4839e+03     4.7231     -0.137     -0.199    29.8180 0.0000e+00
     -0.138      0.009     7.2004     94.174     35.412  38.801938     1.3946      8.880   103.9942 2.4774e+03     4.8489     -0.136     -0.197    29.8053 0.0000e+00
     -0.137      0.008     7.3757     91.295     35.418  38.806528     1.4183      8.884   104.0487 2.4646e+03     5.0231     -0.134     -0.194    29.7948 0.0000e+00
     -0.134      0.007     7.4279     88.205     35.413  38.798563     1.4144      8.887   104.1938 2.4559e+03     5.0184     -0.131     -0.190    29.7892 0.0000e+00
     -0.132      0.005     7.3452     85.100     35.387  38.769085     1.3809      8.890   104.2007 2.4544e+03     4.8954     -0.129     -0.187    29.7832 0.0000e+00
     -0.130      0.004     7.1619     82.160     35.387  38.767392     1.3796      8.892   104.1314 2.4585e+03     4.9021     -0.127     -0.184    29.7796 0.0000e+00
     -0.130      0.004     6.9291     79.728     35.398  38.778095     1.4061      8.894   104.2159 2.4650e+03     4.9626     -0.127     -0.184    29.7767 0.0000e+00
     -0.131      0.004     6.6931     78.015     35.395  38.771580     1.4188      8.896   104.3627 2.4679e+03     4.9432     -0.128     -0.186    29.7730 0.0000e+00
     -0.131      0.005     6.4553     76.864     35.379  38.752070     1.4161      8.898   104.2717 2.4655e+03     4.9064     -0.129     -0.187    29.7711 0.0000e+00
     -0.130      0.007     6.2198     75.974     35.364  38.732574     1.4241      8.900   104.1485 2.4585e+03     4.8935     -0.126     -0.184    29.7701 0.0000e+00
     -0.127      0.009     6.0278     75.191     35.360  38.726219     1.4659      8.901   104.3348 2.4474e+03     4.9590     -0.124     -0.180    29.7682 0.0000e+00
     -0.123      0.010     5.9047     74.468     35.374  38.738681     1.4887      8.903   104.5458 2.4328e+03     4.9805     -0.120     -0.175    29.7629 0.0000e+00
     -0.119      0.010     5.8286     73.726     35.394  38.756338     1.4828      8.904   104.6340 2.4193e+03     4.9146     -0.116     -0.169    29.7585 0.0000e+00
     -0.115      0.009     5.7643     72.929     35.391  38.749324     1.4699      8.905   104.7132 2.4138e+03     4.8796     -0.112     -0.162    29.7554 0.0000e+00
     -0.113      0.007     5.7045     72.121     35.364  38.717336     1.4577      8.906   104.8161 2.4170e+03     4.8981     -0.110     -0.160    29.7525 0.0000e+00
     -0.113      0.005     5.6538     71.350     35.339  38.686846     1.4763      8.908   105.0175 2.4254e+03     4.9675     -0.111     -0.161    29.7492 0.0000e+00
     -0.113      0.003     5.5993     70.674     35.350  38.697956     1.4788      8.910   105.1695 2.4317e+03     4.9330     -0.111     -0.160    29.7424 0.0000e+00
     -0.113      0.002     5.5366     70.114     35.378  38.724757     1.4462      8.912   105.1912 2.4310e+03     4.8232     -0.111     -0.160    29.7364 0.0000e+00
     -0.112      0.002     5.4757     69.654     35.355  38.693601     1.4309      8.915   105.1933 2.4277e+03     4.8009     -0.110     -0.160    29.7334 0.0000e+00
     -0.111      0.001     5.4147     69.264     35.311  38.638526     1.4522      8.916   105.1943 2.4237e+03     4.8684     -0.110     -0.159    29.7302 0.0000e+00
     -0.110      0.001     5.3632     68.926     35.307  38.629947     1.4794      8.916   105.2043 2.4193e+03     4.9899     -0.108     -0.157    29.7284 0.0000e+00
     -0.110      0.001     5.3218     68.629     35.330  38.653333     1.4687      8.916   105.2275 2.4225e+03     4.9720     -0.107     -0.156    29.7260 0.0000e+00
     -0.111      0.001     5.2882     68.319     35.345  38.667451     1.4388      8.917   105.3026 2.4326e+03     4.8232     -0.109     -0.158    29.7150 0.0000e+00
     -0.111      0.002     5.2613     67.968     35.353  38.673728     1.4261      8.919   105.5097 2.4401e+03     4.7624     -0.110     -0.159    29.7028 0.0000e+00
     -0.111      0.002     5.2341     67.589     35.346  38.665765     1.4403      8.921   105.7541 2.4411e+03     4.8166     -0.109     -0.158    29.6984 0.0000e+00
     -0.110      0.003     5.2156     67.244     35.318  38.634629     1.4770      8.921   105.8483 2.4353e+03     4.9324     -0.109     -0.158    29.6961 0.0000e+00
     -0.108      0.003     5.1920     67.004     35.299  38.614542     1.4865      8.922   105.7876 2.4272e+03     4.9330     -0.106     -0.154    29.6923 0.0000e+00
     -0.106      0.003     5.1655     66.825     35.297  38.613274     1.4560      8.923   105.7082 2.4227e+03     4.8244     -0.104     -0.151    29.6889 0.0000e+00
     -0.106      0.002     5.1359     66.640     35.302  38.619295     1.4320      8.923   105.7493 2.4222e+03     4.8140     -0.104     -0.150    29.6878 0.0000e+00
     -0.106      0.001     5.1050     66.494     35.307  38.623895     1.4381      8.924   105.8544 2.4261e+03     4.8758     -0.104     -0.151    29.6887 0.0000e+00
     -0.107      0.000     5.0899     66.460     35.291  38.605434     1.4544      8.924   105.9463 2.4331e+03     4.9224     -0.105     -0.152    29.6896 0.0000e+00
     -0.108      0.000     5.0786     66.482     35.273  38.586448     1.4297      8.925   106.0867 2.4397e+03     4.8656     -0.106     -0.153    29.6905 0.0000e+00
     -0.108      0.001     5.0634     66.472     35.272  38.584712     1.3812      8.925   106.1751 2.4427e+03     4.7352     -0.106     -0.154    29.6904 0.0000e+00
     -0.107      0.002     5.0476     66.422     35.272  38.584442     1.3667      8.926   106.1546 2.4398e+03     4.6787     -0.105     -0.153    29.6894 0.0000e+00
     -0.106      0.003     5.0486     66.379     35.271  38.583170     1.3883      8.927   106.1824 2.4334e+03     4.7622     -0.104     -0.151    29.6898 0.0000e+00
     -0.104      0.003     5.0532     66.362     35.258  38.569333     1.4179      8.928   106.1672 2.4278e+03     4.8909     -0.102     -0.148    29.6901 0.0000e+00
     -0.103      0.003     5.0522     66.375     35.235  38.544055     1.4169      8.929   106.0574 2.4248e+03     4.8686     -0.101     -0.146    29.6889 0.0000e+00
     -0.102      0.002     5.0470     66.462     35.224  38.531363     1.3926      8.930   106.0595 2.4262e+03     4.8009     -0.100     -0.145    29.6879 0.0000e+00
     -0.102      0.001     5.0426     66.576     35.235  38.542785     1.3990      8.932   106.2784 2.4305e+03     4.8234     -0.100     -0.144    29.6876 0.0000e+00
     -0.103      0.001     5.0434     66.634     35.248  38.555247     1.4272      8.934   107.5859 2.4344e+03     4.8332     -0.101     -0.146    29.6878 0.0000e+00
     -0.103      0.002     5.0402     66.683     35.250  38.555122     1.4332      8.936   120.4055 2.4363e+03     4.7149     -0.101     -0.147    29.6875 0.0000e+00
     -0.103      0.003     5.0494     66.846     35.239  38.541276     1.4136      8.943   143.8353 2.4336e+03     4.5543     -0.101     -0.147    29.6871 0.0000e+00
     -0.102      0.004     5.0617     67.099     35.216  38.514748     1.3983      8.953   156.8467 2.4243e+03     4.6329     -0.100     -0.145    29.6868 0.0000e+00
     -0.099      0.004     5.0650     67.253     35.196  38.488203     1.4156      8.964   158.3888 2.4152e+03     4.8793     -0.097     -0.141    29.6842 0.0000e+00
     -0.097      0.004     5.0634     67.251     35.187  38.474134     1.4392      8.971   158.7815 2.4127e+03     5.0063     -0.096     -0.139    29.6806 0.0000e+00
     -0.096      0.004     5.0760     67.221     35.188  38.471542     1.4419      8.975   158.3253 2.4126e+03     4.9723     -0.095     -0.137    29.6788 0.0000e+00
     -0.096      0.003     5.1037     67.208     35.178  38.456852     1.4228      8.978   149.0865 2.4113e+03     4.8445     -0.094     -0.136    29.6774 0.0000e+00
     -0.096      0.003     5.1179     67.116     35.152  38.423435     1.4165      8.980   130.8782 2.4108e+03     4.8276     -0.094     -0.137    29.6712 0.0000e+00
     -0.095      0.003     5.1121     66.959     35.120  38.384780     1.4410      8.978   119.2828 2.4133e+03     4.9731     -0.094     -0.136    29.6623 0.0000e+00
     -0.095      0.004     5.1087     66.938     35.110  38.370202     1.4520      8.974   116.2645 2.4142e+03     5.0651     -0.094     -0.136    29.6570 0.0000e+00
     -0.094      0.006     5.1129     67.110     35.115  38.374073     1.4419      8.972   114.6039 2.4072e+03     5.0184     -0.092     -0.135    29.6539 0.0000e+00
     -0.093      0.007     5.1076     67.280     35.113  38.368133     1.4194      8.971   113.4013 2.3933e+03     4.8866     -0.091     -0.132    29.6476 0.0000e+00
     -0.090      0.007     5.0875     67.338     35.112  38.361829     1.4048      8.971   112.9946 2.3763e+03     4.8384     -0.089     -0.127    29.6393 0.0000e+00
     -0.087      0.007     5.0825     67.336     35.114  38.361298     1.4233      8.974   114.3329 2.3631e+03     4.9140     -0.084     -0.124    29.6356 0.0000e+00
     -0.085      0.007     5.1066     67.357     35.116  38.361713     1.4263      8.978   123.9034 2.3627e+03     4.9121     -0.082     -0.120    29.6338 0.0000e+00
     -0.084      0.007     5.1214     67.367     35.123  38.366847     1.3911      8.982   131.8309 2.3743e+03     4.8158     -0.081     -0.118    29.6274 0.0000e+00
     -0.084      0.012     5.1250     67.269     35.118  38.359914     1.3730      8.987   122.5099 2.3902e+03     4.7748     -0.081     -0.118    29.6205 0.0000e+00
     -0.084      0.021     5.1215     67.089     35.102  38.341335     1.3975      8.991   112.0409 2.4000e+03     4.8254     -0.083     -0.120    29.6167 0.0000e+00
     -0.081      0.031     5.1237     66.899     35.096  38.332579     1.4384      8.994   109.7899 2.3898e+03     4.9159     -0.081     -0.118    29.6141 0.0000e+00
     -0.072      0.041     5.1309     66.795     35.085  38.317496     1.4677      8.998   108.5428 2.2251e+03     4.9126     -0.073     -0.107    29.6113 0.0000e+00
     -0.057      0.050     5.1204     66.885     35.061  38.285875     1.4852      9.003   107.2008 1.7396e+03     4.8194     -0.056     -0.082    29.6088 0.0000e+00
     -0.038      0.061     5.1051     67.222     35.056  38.267516     1.4919      9.009   105.1801 1.2964e+03     4.7793     -0.036     -0.052    29.6066 0.0000e+00
     -0.020      0.084     5.0900     68.175     35.097  38.285866     1.5076      9.017   103.2113 1.2959e+03     4.8382     -0.019     -0.028    29.6047 0.0000e+00
     -0.004      0.130     5.0754     70.566     35.180  38.317338     1.5827      9.023   102.6683 1.3656e+03     4.9851     -0.002     -0.003    29.6017 0.0000e+00
      0.010      0.191     5.0876     75.213     35.285  38.330661     1.6684      9.028   103.3474 1.2763e+03     5.1202      0.007      0.011    29.5933 0.0000e+00
      0.038      0.250     5.1053     81.892     35.375  38.319871     1.6861      9.032   104.1948 1.0093e+03     5.2416      0.017      0.025    29.5774 0.0000e+00
      0.117      0.290     5.1556     88.963     35.431  38.313614     1.6801      9.035   104.8254 5.3701e+02     5.3261      0.091      0.131    29.5514 0.0000e+00
      0.249      0.307     5.3164     94.925     35.467  38.318350     1.6793      9.037   105.2074 2.5722e+02     5.2540      0.246      0.356    29.4806 0.0000e+00
      0.379      0.299     5.6825     99.393     35.501  38.313635     1.6933      9.040   105.4593 2.1724e+02     5.1213      0.394      0.571    29.3152 0.0000e+00
      0.462      0.268     6.2783    102.608     35.558  38.319990     1.7412      9.042   105.7200 1.9531e+02     5.0195      0.470      0.681    29.1264 0.0000e+00
      0.501      0.215     6.8756    104.632     35.611  38.331640     1.7840      9.042   105.9498 1.8452e+02     5.0477      0.496      0.720    29.0392 0.0000e+00
      0.522      0.155     7.3407    105.232     35.632  38.327502     1.7948      9.041   106.2592 1.7922e+02     5.1543      0.510      0.740    29.0245 0.0000e+00
      0.546      0.105     7.6796    104.466     35.652  38.333374     1.7883      9.039   106.6217 1.7709e+02     5.1817      0.530      0.770    28.9667 0.0000e+00
      0.575      0.075     7.9361    102.658     35.669  38.339149     1.7722      9.038   106.8915 1.7549e+02     5.1399      0.566      0.821    28.8670 0.0000e+00
      0.598      0.056     8.1172    100.106     35.676  38.333854     1.7415      9.036   107.1123 1.7553e+02     5.0250      0.592      0.858    28.8020 0.0000e+00
      0.608      0.041     8.1628     97.093     35.687  38.332798     1.7251      9.034   107.3124 1.7909e+02     5.0217      0.598      0.868    28.7717 0.0000e+00
      0.610      0.029     8.0958     94.066     35.690  38.326368     1.7323      9.030   107.5040 1.8283e+02     5.1683      0.600      0.871    28.7508 0.0000e+00
      0.610      0.024     7.9511     91.618     35.691  38.319548     1.7368      9.026   107.7076 1.8612e+02     5.2263      0.598      0.867    28.7353 0.0000e+00
      0.608      0.029     7.7497     89.936     35.693  38.313772     1.7291      9.022   107.9671 1.8848e+02     5.1426      0.596      0.864    28.7180 0.0000e+00
      0.610      0.044     7.5093     88.719     35.703  38.319975     1.7066      9.019   108.2324 1.8701e+02     5.0444      0.594      0.861    28.6982 0.0000e+00
      0.622      0.066     7.2552     87.997     35.711  38.331087     1.6969      9.015   108.4199 1.8040e+02     5.0631      0.604      0.876    28.6854 0.0000e+00
      0.647      0.095     7.0583     88.017     35.702  38.321213     1.7202      9.010   108.5141 1.7115e+02     5.1636      0.635      0.919    28.6788 0.0000e+00
      0.676      0.125     6.9501     88.406     35.716  38.327493     1.7393      9.004   108.6833 1.6387e+02     5.2356      0.663      0.961    28.6616 0.0000e+00
      0.708      0.152     6.8553     88.579     35.740  38.343553     1.7190      8.998   109.0031 1.5854e+02     5.2164      0.689      0.999    28.6524 0.0000e+00
      0.750      0.171     6.7788     88.412     35.727  38.325005     1.6992      8.993   109.2826 1.5282e+02     5.2384      0.730      1.060    28.6634 0.0000e+00
      0.804      0.180     6.7970     87.974     35.701  38.293592     1.7336      8.989   109.4819 1.4695e+02     5.4679      0.787      1.143    28.6661 0.0000e+00
      0.862      0.183     6.8523     87.294     35.696  38.281016     1.7857      8.984   109.6914 1.4075e+02     5.7025      0.847      1.229    28.6502 0.0000e+00
      0.913      0.178     6.8649     86.407     35.725  38.299846     1.8038      8.979   109.9234 1.3314e+02     5.7517      0.901      1.305    28.6313 0.0000e+00
      0.956      0.167     6.8504     85.572     35.769  38.330881     1.7776      8.974   110.0498 1.2507e+02     5.6533      0.939      1.361    28.6278 0.0000e+00
      0.993      0.151     6.8161     85.446     35.798  38.338951     1.7187      8.969   110.1878 1.1816e+02     5.5375      0.974      1.413    28.6258 0.0000e+00
      1.028      0.131     6.7650     86.701     35.817  38.333923     1.6922      8.964   110.4733 1.1266e+02     5.6146      1.010      1.465    28.6160 0.0000e+00
      1.062      0.110     6.6945     89.218     35.836  38.333502     1.7149      8.960   110.7483 1.0843e+02     5.7666      1.041      1.510    28.5970 0.0000e+00
      1.094      0.088     6.6118     91.960     35.852  38.333827     1.7100      8.957   110.9316 1.0560e+02     5.7016      1.075      1.559    28.5771 0.0000e+00
      1.117      0.067     6.5806     94.073     35.872  38.337832     1.6745      8.953   111.0547 1.0443e+02     5.4771      1.101      1.597    28.5465 0.0000e+00
      1.127      0.049     6.6833     95.640     35.864  38.318439     1.6603      8.949   111.2041 1.0450e+02     5.3407      1.108      1.607    28.4994 0.0000e+00
      1.128      0.038     6.9197     96.981     35.840  38.289695     1.6790      8.946   111.4486 1.0496e+02     5.3849      1.106      1.605    28.4774 0.0000e+00
      1.128      0.032     7.1666     98.111     35.854  38.307568     1.7177      8.943   111.6875 1.0508e+02     5.4644      1.104      1.600    28.4583 0.0000e+00
      1.133      0.036     7.3231     98.991     35.881  38.344183     1.7457      8.939   111.7694 1.0433e+02     5.4492      1.107      1.604    28.4236 0.0000e+00
      1.146      0.056     7.4325     99.606     35.888  38.351673     1.7588      8.935   111.7499 1.0296e+02     5.4053      1.123      1.628    28.4116 0.0000e+00
      1.160      0.087     7.5435    100.115     35.886  38.334671     1.7679      8.928   111.7094 1.0185e+02     5.4467      1.140      1.655    28.4095 0.0000e+00
      1.173      0.121     7.6288    100.698     35.891  38.328949     1.7819      8.921   111.7969 1.0032e+02     5.6074      1.145      1.661    28.4082 0.0000e+00
      1.200      0.151     7.6983    101.178     35.906  38.345932     1.7693      8.913   112.1198 9.6389e+01     6.0508      1.162      1.686    28.4299 0.0000e+00
      1.256      0.175     7.7404    101.498     35.920  38.349645     1.7069      8.905   112.4301 9.0470e+01     6.7078      1.227      1.780    28.4379 0.0000e+00
      1.322      0.188     7.7728    101.970     35.967  38.373824     1.6602      8.897   112.6227 8.5095e+01     7.0620      1.304      1.892    28.4015 0.0000e+00
      1.380      0.187     7.8330    102.367     36.055  38.447861     1.6461      8.890   112.8141 8.0576e+01     7.0876      1.355      1.965    28.3753 0.0000e+00
      1.431      0.170     7.8737    101.954     36.104  38.483316     1.5782      8.884   113.0233 7.6522e+01     6.7786      1.404      2.038    28.4025 0.0000e+00
      1.476      0.143     7.8794    100.689     36.129  38.485190     1.4378      8.879   113.1735 7.3917e+01     6.0585      1.455      2.110    28.3905 0.0000e+00
      1.505      0.114     7.9287     99.093     36.254  38.597400     1.3384      8.874   113.1685 7.2470e+01     5.5548      1.480      2.147    28.3286 0.0000e+00
      1.521      0.093     7.9999     97.627     36.420  38.761229     1.3338      8.867   113.1343 7.1191e+01     5.5384      1.491      2.163    28.3106 0.0000e+00
      1.536      0.082     7.9648     96.724     36.434  38.752669     1.4076      8.858   113.1034 6.9981e+01     5.6896      1.505      2.183    28.2953 0.0000e+00
      1.551      0.082     7.8511     96.554     36.406  38.684243     1.5144      8.848   113.0539 6.8856e+01     5.7773      1.522      2.208    28.2506 0.0000e+00
      1.567      0.091     7.7250     97.115     36.506  38.758769     1.5522      8.837   113.2235 6.7512e+01     5.7106      1.533      2.225    28.2182 0.0000e+00
      1.589      0.102     7.5938     98.557     36.589  38.828756     1.5149      8.826   113.5199 6.5653e+01     5.5669      1.551      2.251    28.2129 0.0000e+00
      1.623      0.107     7.5227    100.636     36.611  38.832389     1.5124      8.815   113.7123 6.3688e+01     5.5761      1.590      2.306    28.1881 0.0000e+00
      1.662      0.103     7.5263    102.379     36.725  38.929584     1.6551      8.804   113.8281 6.2104e+01     5.7541      1.634      2.369    28.1168 0.0000e+00
      1.697      0.093     7.5643    102.889     36.856  39.052016     1.8680      8.790   113.8876 6.0926e+01     5.8401      1.667      2.418    28.0682 0.0000e+00
      1.721      0.081     7.6807    102.071     36.921  39.106973     1.9546      8.775   113.9159 6.0251e+01     5.7283      1.691      2.454    28.0605 0.0000e+00
      1.732      0.076     7.8821    100.338     36.917  39.086380     1.9781      8.759   113.9117 5.9925e+01     5.5632      1.701      2.468    28.0292 0.0000e+00
      1.735      0.081     8.0557     98.133     36.847  38.993366     2.5442      8.744   113.9231 5.9595e+01     5.7224      1.702      2.469    27.9891 0.0000e+00
      1.740      0.091     8.0958     96.009     36.925  39.061116     3.6140      8.728   113.9675 5.8729e+01     6.1847      1.700      2.466    27.9733 0.0000e+00
      1.762      0.102     8.0177     94.549     37.069  39.207466     4.1930      8.710   113.8455 5.6650e+01     6.4388      1.716      2.489    27.9548 0.0000e+00
      1.810      0.107     7.8769     94.039     37.048  39.176388     4.2513      8.693   113.6531 5.4120e+01     6.4029      1.775      2.575    27.9350 0.0000e+00
      1.860      0.104     7.6918     94.399     37.076  39.193020     4.5352      8.677   113.6207 5.2499e+01     6.5028      1.833      2.659    27.9058 0.0000e+00
      1.892      0.091     7.5101     95.214     37.229  39.345080     5.1110      8.661   113.7987 5.1649e+01     6.9292      1.860      2.698    27.8753 0.0000e+00
      1.907      0.069     7.3872     95.834     37.259  39.364976     5.4530      8.646   114.2552 5.1205e+01     7.2551      1.873      2.716    27.8807 0.0000e+00
      1.912      0.046     7.3523     95.925     37.223  39.306642     5.4825      8.631   114.9246 5.1133e+01     7.3003      1.877      2.722    27.8703 0.0000e+00
      1.912      0.035     7.3929     95.587     37.331  39.401248     5.4604      8.618   115.6115 5.1036e+01     7.2021      1.875      2.719    27.8419 0.0000e+00
      1.912      0.039     7.4821     94.855     37.432  39.493466     5.4357      8.608   116.0217 5.0736e+01     7.0237      1.874      2.717    27.8365 0.0000e+00
      1.917      0.056     7.5435     93.811     37.367  39.406276     5.4418      8.601   116.1847 5.0203e+01     6.9889      1.877      2.723    27.8252 0.0000e+00
      1.931      0.076     7.5434     92.808     37.347  39.362366     5.4259      8.592   116.4628 4.9193e+01     7.0540      1.889      2.741    27.7937 0.0000e+00
      1.957      0.092     7.5244     92.157     37.523  39.533648     4.8856      8.581   116.9750 4.7620e+01     6.7530      1.915      2.777    27.7605 0.0000e+00
      1.993      0.098     7.4687     91.876     37.628  39.636873     3.8529      8.569   117.5598 4.5767e+01     6.0480      1.952      2.832    27.7492 0.0000e+00
      2.032      0.092     7.3763     92.013     37.543  39.531608     3.2680      8.557   118.0279 4.4188e+01     5.5660      1.997      2.896    27.7258 0.0000e+00
      2.063      0.077     7.2918     92.813     37.563  39.530079     3.2161      8.546   118.3334 4.3315e+01     5.5369      2.029      2.944    27.6830 0.0000e+00
      2.078      0.056     7.2450     94.035     37.667  39.618353     3.2334      8.536   118.4999 4.2988e+01     5.6614      2.042      2.961    27.6672 0.0000e+00
      2.082      0.034     7.2267     95.016     37.656  39.583531     3.1362      8.527   118.7507 4.2859e+01     5.6033      2.043      2.963    27.6678 0.0000e+00
      2.081      0.020     7.2237     95.691     37.715  39.616699     2.9060      8.518   119.1284 4.2873e+01     5.2785      2.042      2.962    27.6470 0.0000e+00
      2.078      0.020     7.2965     96.456     37.820  39.702024     2.7558      8.511   119.3664 4.2879e+01     5.0135      2.038      2.954    27.6061 0.0000e+00
      2.076      0.033     7.4300     97.609     37.801  39.663245     2.7439      8.505   119.5629 4.2683e+01     5.0626      2.034      2.951    27.5855 0.0000e+00
      2.081      0.054     7.5056     99.000     37.868  39.718939     2.7706      8.499   119.8709 4.2139e+01     5.3942      2.037      2.956    27.5603 0.0000e+00
      2.097      0.077     7.5507     99.897     38.014  39.867701     2.7788      8.489   119.7344 4.0916e+01     5.7782      2.050      2.974    27.5072 0.0000e+00
      2.127      0.099     7.6075     99.841     38.025  39.875389     2.7588      8.467   117.6548 3.9283e+01     5.9486      2.084      3.023    27.4813 0.0000e+00
      2.163      0.119     7.6986     99.123     38.043  39.875354     2.7128      8.430   113.7413 3.7812e+01     5.9856      2.123      3.079    27.4590 0.0000e+00
      2.197      0.134     7.8442     98.148     38.186  39.994168     2.5133      8.384   109.5845 3.6462e+01     6.3616      2.155      3.125    27.4291 0.0000e+00
      2.231      0.144     7.9316     97.007     38.273  40.042674     2.1613      8.340   105.0813 3.5012e+01     6.9765      2.187      3.171    27.4329 0.0000e+00
      2.266      0.147     7.9107     95.895     38.315  40.017549     1.9442      8.304    99.0432 3.3416e+01     7.2027      2.221      3.222    27.4345 0.0000e+00
      2.306      0.146     7.8427     95.215     38.458  40.071039     1.9112      8.276    91.8150 3.1771e+01     7.2187      2.261      3.279    27.4084 0.0000e+00
      2.350      0.140     7.7751     94.939     38.592  40.118114     1.9951      8.256    85.2270 3.0161e+01     8.2632      2.305      3.342    27.3620 0.0000e+00
      2.391      0.129     7.6883     94.586     38.687  40.142352     2.1597      8.244    79.3585 2.8751e+01    10.2322      2.348      3.405    27.3185 0.0000e+00
      2.425      0.114     7.5910     93.812     38.835  40.237056     2.2366      8.239    74.2897 2.7678e+01    11.2467      2.382      3.454    27.2339 0.0000e+00
      2.450      0.095     7.5591     92.600     38.950  40.311138     2.2672      8.237    70.4879 2.6867e+01    11.3065      2.405      3.488    27.0848 0.0000e+00
      2.469      0.075     7.5737     91.063     39.009  40.339918     2.8797      8.237    66.8600 2.6195e+01    12.1167      2.422      3.512    26.9608 0.0000e+00
      2.484      0.055     7.5679     89.332     39.085  40.394599     4.0487      8.240    62.9470 2.5611e+01    13.7668      2.436      3.534    26.8694 0.0000e+00
      2.496      0.040     7.5152     87.608     39.110  40.401073     4.7081      8.244    58.8826 2.5216e+01    14.7935      2.448      3.552    26.7907 0.0000e+00
      2.503      0.028     7.4209     86.053     39.081  40.354712     4.7929      8.247    54.8012 2.5041e+01    14.8969      2.457      3.563    26.7355 0.0000e+00
      2.507      0.019     7.3016     84.736     39.147  40.405187     4.8326      8.251    51.0262 2.4946e+01    14.8124      2.459      3.567    26.6972 0.0000e+00
      2.508      0.012     7.1591     83.745     39.262  40.503631     5.2297      8.256    47.4832 2.4822e+01    15.2757      2.460      3.568    26.6660 0.0000e+00
      2.509      0.007     7.0193     83.150     39.248  40.466082     5.9908      8.262    44.3139 2.4665e+01    16.3310      2.461      3.569    26.6411 0.0000e+00
      2.510      0.004     6.8966     82.816     39.211  40.395394     6.4353      8.268    41.9597 2.4525e+01    17.0155      2.462      3.571    26.6232 0.0000e+00
      2.512      0.004     6.7910     82.485     39.329  40.473921     6.6596      8.273    40.0986 2.4436e+01    17.3359      2.463      3.573    26.6013 0.0000e+00
      2.512      0.006     6.7105     82.165     39.484  40.590466     8.3436      8.277    38.2446 2.4371e+01    19.7942      2.463      3.573    26.5753 0.0000e+00
      2.513      0.009     6.6691     82.041     39.464  40.535188    11.3743      8.281    36.4062 2.4325e+01    24.3300      2.464      3.573    26.5491 0.0000e+00
      2.514      0.013     6.6596     82.015     39.399  40.440130    13.1078      8.287    34.8204 2.4264e+01    27.0539      2.465      3.575    26.5108 0.0000e+00
      2.516      0.017     6.6391     81.827     39.563  40.583427    14.3216      8.294    33.6979 2.4059e+01    29.8071      2.466      3.576    26.4504 0.0000e+00
      2.522      0.019     6.6095     81.568     39.675  40.681149    25.9169      8.299    32.8151 2.3719e+01    56.3891      2.473      3.586    26.3903 0.0000e+00
      2.532      0.019     6.6086     81.488     39.552  40.542759    47.0779      8.305    31.9764 2.3439e+01   104.8302      2.484      3.602    26.3488 0.0000e+00
      2.539      0.018     6.6238     81.533     39.762  40.750599    58.4878      8.310    31.3000 2.3312e+01   131.0208      2.491      3.614    26.3161 0.0000e+00
      2.542      0.018     6.6094     81.799     40.100  41.099749    58.4109      8.315    30.7456 2.3252e+01   131.8581      2.493      3.616    26.2789 0.0000e+00
      2.543      0.018     6.5749     82.612     39.959  40.956411    46.3804      8.321    30.1777 2.3204e+01   115.4994      2.494      3.618    26.2592 0.0000e+00
      2.545      0.017     6.5796     83.739     39.934  40.921497    24.1674      8.326    29.5095 2.3114e+01    85.1369      2.496      3.620    26.2461 0.0000e+00
      2.549      0.017     6.5866     84.730     40.324  41.312266    12.0114      8.330    28.6896 2.2904e+01    68.3901      2.499      3.624    26.2271 0.0000e+00
      2.557      0.017     6.5829     85.594     40.563  41.555896    10.6334      8.332    27.6633 2.2672e+01    65.3331      2.508      3.637    26.2410 0.0000e+00
      2.564      0.017     6.6603     86.358     40.523  41.518978     7.8392      8.335    26.4798 2.2529e+01    49.5401      2.517      3.650    26.2514 0.0000e+00
      2.569      0.016     6.7759     86.775     40.435  41.437104     2.9389      8.339    25.3064 2.2432e+01    21.0452      2.520      3.655    26.2287 0.0000e+00
      2.571      0.013     6.8490     86.680     40.383  41.391038     0.2906      8.341    24.2305 2.2355e+01     5.5909      2.522      3.657    26.2148 0.0000e+00
      2.573      0.010     6.9155     86.084     40.457  41.469737     0.0479      8.344    23.1946 2.2300e+01     4.1382      2.524      3.660    26.2158 0.0000e+00
      2.574      0.009     6.9896     85.176     40.672  41.690515    -0.0049      8.346    22.1593 2.2253e+01     3.8213      2.525      3.662    26.2208 0.0000e+00
      2.575      0.011     7.0250     84.326     40.757  41.775637    -0.0228      8.349    20.9188 2.2231e+01     3.3993      2.525      3.663    26.2334 0.0000e+00
      2.577      0.014     7.0153     83.733     40.723  41.737324    -0.0025      8.353    19.3815 2.2200e+01     2.8624      2.527      3.665    26.2427 0.0000e+00
      2.581      0.018     6.9636     83.293     40.913  41.925409     0.0325      8.356    17.9405 2.2066e+01     2.6587      2.530      3.669    26.2455 0.0000e+00
      2.586      0.022     6.8755     82.928     41.258  42.272646     0.0350      8.357    16.6589 2.1834e+01     2.6093      2.536      3.678    26.2463 0.0000e+00
      2.594      0.023     6.7998     82.642     41.436  42.444961     0.0195      8.359    15.4147 2.1550e+01     2.4020      2.544      3.689    26.2445 0.0000e+00
      2.602      0.023     6.7601     82.335     41.431  42.422130     0.0193      8.360    14.3407 2.1194e+01     2.1330      2.552      3.701    26.2391 0.0000e+00
      2.609      0.022     6.7279     81.882     41.475  42.440853     0.0247      8.361    13.5684 2.0830e+01     1.9539      2.559      3.712    26.2319 0.0000e+00
      2.614      0.019     6.6959     81.223     41.358  42.290476     0.0431      8.361    13.0457 2.0558e+01     1.8411      2.564      3.719    26.2239 0.0000e+00
      2.618      0.015     6.6789     80.346     40.855  41.746294     0.0414      8.363    12.5814 2.0400e+01     1.3851      2.569      3.725    26.2140 0.0000e+00
      2.621      0.012     6.6605     79.303     40.530  41.382860     0.0209      8.365    12.0838 2.0317e+01     0.7440      2.571      3.728    26.1951 0.0000e+00
      2.623      0.009     6.6289     78.163     40.629  41.450394     0.0122      8.367    11.6757 2.0219e+01     0.5120      2.572      3.731    26.1585 0.0000e+00
      2.624      0.007     6.5817     77.029     40.818  41.610794     0.0109      8.369    11.4329 2.0114e+01     0.5267      2.574      3.733    26.1202 0.0000e+00
      2.626      0.006     6.5121     76.010     41.154  41.925939     0.0220      8.371    11.2124 2.0045e+01     0.4780      2.575      3.735    26.0853 0.0000e+00
      2.628      0.005     6.4307     75.101     41.456  42.214250     0.0131      8.374    10.9889 2.0011e+01     0.3669      2.577      3.738    26.0471 0.0000e+00
      2.629      0.004     6.3409     74.262     41.370  42.113689     0.0033      8.376    10.8809 1.9987e+01     0.3789      2.579      3.740    26.0053 0.0000e+00
      2.630      0.003     6.2478     73.470     41.249  41.979446     0.0114      8.378    10.8537 1.9955e+01     0.5204      2.580      3.741    25.9611 0.0000e+00
      2.630      0.002     6.1717     72.716     41.266  41.987450     0.0189      8.380    10.7467 1.9939e+01     0.5408      2.579      3.741    25.9271 0.0000e+00
      2.631      0.002     6.1009     72.014     41.367  42.083511     0.0277      8.381    10.6191 1.9975e+01     0.4209      2.580      3.742    25.9062 0.0000e+00
      2.631      0.001     6.0349     71.371     41.977  42.696611     0.0099      8.384    10.6016 2.0029e+01     0.3001      2.580      3.742    25.8905 0.0000e+00
      2.631      0.001     5.9725     70.775     42.959  43.687958     0.0029      8.386    10.4483 2.0054e+01     0.3451      2.581      3.743    25.8785 0.0000e+00
      2.632      0.002     5.9111     70.186     43.503  44.231641     0.0346      8.388     9.9708 2.0068e+01     0.4523      2.581      3.743    25.8683 0.0000e+00
      2.632      0.002     5.8555     69.610     43.538  44.255888     0.0526      8.389     9.4746 2.0083e+01     0.4343      2.581      3.744    25.8595 0.0000e+00
      2.633      0.002     5.8033     69.090     43.468  44.171540     0.0377      8.390     9.0951 2.0103e+01     0.2985      2.582      3.745    25.8515 0.0000e+00
      2.633      0.003     5.7581     68.606     43.479  44.163908     0.0041      8.391     8.7374 2.0113e+01     0.1088      2.582      3.745    25.8428 0.0000e+00
      2.634      0.003     5.7115     68.122     43.567  44.227061    -0.0044      8.394     8.3338 2.0115e+01     0.0873      2.583      3.747    25.8317 0.0000e+00
      2.635      0.003     5.6630     67.649     43.666  44.300318     0.0261      8.396     7.9143 2.0147e+01     0.1751      2.584      3.748    25.8190 0.0000e+00
      2.636      0.003     5.6232     67.187     43.806  44.414863     0.0487      8.399     7.7093 2.0211e+01     0.1455      2.585      3.749    25.8064 0.0000e+00
      2.637      0.002     5.5882     66.747     43.946  44.532884     0.0275      8.400     7.6611 2.0295e+01     0.0365      2.586      3.750    25.7851 0.0000e+00
      2.637      0.002     5.5500     66.351     44.019  44.584694    -0.0135      8.401     7.5036 2.0383e+01    -0.1178      2.586      3.750    25.7524 0.0000e+00
      2.638      0.001     5.5160     65.971     44.051  44.596919    -0.0312      8.401     7.2677 2.0469e+01    -0.2176      2.587      3.751    25.7188 0.0000e+00
      2.638      0.001     5.4812     65.588     44.089  44.617186    -0.0113      8.402     7.0466 2.0581e+01    -0.1447      2.587      3.751    25.6879 0.0000e+00
      2.638      0.000     5.4461     65.222     44.126  44.639285     0.0353      8.404     6.8087 2.0736e+01     0.0123      2.587      3.752    25.6599 0.0000e+00
      2.638 2.2170e-08     5.4182     64.882     44.173  44.673660     0.0498      8.405     6.6285 2.0918e+01     0.0065      2.587      3.751    25.6352 0.0000e+00
      2.638 2.4386e-07     5.3901     64.558     44.226  44.715410     0.0143      8.407     6.4169 2.1075e+01    -0.1462      2.587      3.752    25.6125 0.0000e+00
      2.638 6.1641e-07     5.3594     64.232     44.284  44.763214    -0.0195      8.408     6.0568 2.1189e+01    -0.2286      2.586      3.751    25.5917 0.0000e+00
      2.638      0.000     5.3316     63.895     44.338  44.807299    -0.0099      8.409     5.7161 2.1301e+01    -0.1705      2.587      3.751    25.5739 0.0000e+00
      2.638      0.000     5.3050     63.572     44.345  44.804083     0.0306      8.410     5.3948 2.1424e+01    -0.0245      2.587      3.752    25.5595 0.0000e+00
      2.638      0.001     5.2805     63.276     44.338  44.787789     0.0370      8.411     5.0117 2.1552e+01    -0.0001      2.587      3.751    25.5463 0.0000e+00
      2.638      0.001     5.2559     62.996     44.358  44.800699     0.0010      8.413     4.6977 2.1693e+01    -0.1147      2.587      3.752    25.5343 0.0000e+00
      2.638      0.001     5.2279     62.723     44.396  44.833216    -0.0212      8.414     4.4369 2.1836e+01    -0.1806      2.587      3.752    25.5230 0.0000e+00
      2.639      0.001     5.2022     62.456     44.431  44.863557     0.0023      8.416     4.0092 2.1982e+01    -0.1132      2.588      3.753    25.5114 0.0000e+00
      2.639      0.001     5.1795     62.205     44.421  44.850147     0.0424      8.418     3.3992 2.2114e+01    -0.0176      2.588      3.753    25.5010 0.0000e+00
      2.639      0.000     5.1577     62.005     44.185  44.607604     0.0394      8.420     2.9118 2.2216e+01    -0.0841      2.588      3.753    25.4924 0.0000e+00
      2.640     -0.003     5.1359     61.882     43.424  43.835274    -0.0004      8.421     2.5901 2.2382e+01    -0.1994      2.589      3.754    25.4859 0.0000e+00
      2.640     -0.008     5.1147     61.813     42.724  43.128841    -0.0227      8.422     2.0904 2.2662e+01    -0.2160      2.589      3.754    25.4806 0.0000e+00
      2.640     -0.012     5.0931     61.792     43.074  43.492574    -0.0217      8.423     1.4303 2.2943e+01    -0.2162      2.589      3.754    25.4763 0.0000e+00
      2.637     -0.015     5.0759     61.948     43.790  44.234350    -0.0053      8.426     0.8037 2.3001e+01    -0.2012      2.588      3.753    25.4716 0.0000e+00
      2.628     -0.016     5.0674     62.418     43.824  44.290388     0.0089      8.428     0.1065 2.2633e+01    -0.1721      2.579      3.741    25.4664 0.0000e+00
      2.618     -0.015     5.0637     63.063     43.683  44.170207    -0.0085      8.428    -0.6326 2.2077e+01    -0.2065      2.566      3.722    25.4628 0.0000e+00
      2.613     -0.011     5.0567     63.595     43.988  44.495125    -0.0238      8.428    -1.2492 2.1758e+01    -0.2415      2.561      3.714    25.4755 0.0000e+00
      2.613     -0.005     5.0594     63.940     44.396  44.918214    -0.0010      8.429    -1.7567 2.1693e+01    -0.1506      2.562      3.716    25.5004 0.0000e+00
      2.615      0.000     5.1006     64.197     44.307  44.842392     0.0344      8.430    -2.2083 2.1713e+01    -0.0292      2.565      3.719    25.5245 0.0000e+00
      2.617      0.005     5.1635     64.397     43.227  43.768811     0.0378      8.431    -2.5791 2.1734e+01    -0.0727      2.567      3.722    25.5548 0.0000e+00
      2.619      0.006     5.2056     64.472     37.790  38.285238     0.0065      8.432    -2.7985 2.1728e+01    -0.1971      2.569      3.727    25.5752 0.0000e+00
      2.621      0.006     5.2280     64.454     29.332  29.742069    -0.0117      8.433    -2.9684 2.1687e+01    -0.2015      2.571      3.729    25.5800 0.0000e+00
      2.623      0.005     5.2473     64.610     28.483  28.913967     0.0097      8.435    -3.2573 2.1627e+01    -0.0913      2.572      3.731    25.5937 0.0000e+00
      2.625      0.004     5.2638     65.021     31.206  31.702056     0.0402      8.436    -3.5377 2.1567e+01    -0.0272      2.574      3.733    25.6187 0.0000e+00
      2.625      0.003     5.2697     65.430     27.469  27.926469     0.0331      8.437    -3.6918 2.1499e+01    -0.0757      2.574      3.733    25.6515 0.0000e+00
      2.626      0.001     5.2509     65.841     25.568  26.018809     0.0144      8.439    -3.8298 2.1426e+01    -0.0620      2.575      3.734    25.7007 0.0000e+00
      2.626     -0.003     5.2530     66.550     30.975  31.541211     0.0311      8.440    -4.0016 2.1347e+01     0.0704      2.575      3.734    25.7488 0.0000e+00
      2.626     -0.011     5.2988     67.629     35.104  35.767861     0.0526      8.440    -4.3924 2.1226e+01     0.1585      2.575      3.735    25.7885 0.0000e+00
      2.625     -0.025     5.3279     69.284     33.814  34.492696     0.0571      8.439    -5.1135 2.1130e+01     0.5925      2.575      3.735    25.8346 0.0000e+00
      2.622     -0.040     5.3400     72.500     32.384  33.065988     0.0355      8.439    -5.8371 2.1174e+01     6.2400      2.572      3.731    25.8794 0.0000e+00
      2.612     -0.051     5.3984     78.545     31.641  32.288436     0.0081      8.440    -6.3445 2.1374e+01    16.7932      2.566      3.722    25.9034 0.0000e+00
      2.592     -0.055     5.4845     87.185     29.732  30.293054     0.0248      8.443    -6.7743 2.1910e+01    22.6720      2.548      3.696    25.9278 0.0000e+00
      2.562     -0.051     5.5819     96.001     28.287  28.794816     0.0295      8.445    -7.2480 2.2589e+01    23.2117      2.508      3.639    25.9970 0.0000e+00
      2.540     -0.040     5.7830    102.736     27.264  27.747701    -0.0093      8.446    -7.5975 2.2811e+01    23.0798      2.482      3.600    26.0880 0.0000e+00
      2.533     -0.023     6.2698    106.932     26.548  27.019036    -0.0280      8.447    -7.8165 2.2648e+01    22.1026      2.481      3.600    26.0391 0.0000e+00
      2.538     -0.004     7.0852    108.853     27.226  27.721991    -0.0060      8.448    -8.1755 2.2388e+01    20.4486      2.487      3.607    25.9000 0.0000e+00
      2.546      0.012     7.8824    108.590     27.424  27.938790     0.0244      8.449    -8.5826 2.2103e+01    19.6145      2.497      3.622    25.8827 0.0000e+00
      2.554      0.022     8.4260    106.382     27.717  28.244609     0.0140      8.452    -8.8668 2.1844e+01    19.0875      2.506      3.634    25.8818 0.0000e+00
      2.561      0.023     8.7562    102.994     30.703  31.290739    -0.0144      8.454    -9.2028 2.1619e+01    14.1790      2.512      3.643    25.8633 0.0000e+00
      2.566      0.020     8.9098     99.964     31.558  32.165584    -0.0025      8.455    -9.5482 2.1472e+01     5.4599      2.517      3.652    25.9019 0.0000e+00
      2.570      0.014     8.8767     98.955     30.112  30.702919     0.0329      8.457    -9.7728 2.1366e+01     0.8399      2.521      3.655    25.9435 0.0000e+00
      2.574      0.001     8.6754     99.916     33.719  34.411597     0.0474      8.457    -9.9406 2.1261e+01     1.0530      2.524      3.661    25.9494 0.0000e+00
      2.578     -0.021     8.3620    101.431     39.234  40.080915     0.0220      8.456   -10.0285 2.1159e+01     7.7973      2.528      3.666    25.9459 0.0000e+00
      2.578     -0.060     8.0391    102.433     40.280  41.195139    -0.0160      8.453    -9.9741 2.1221e+01    20.2493      2.531      3.670    25.9581 0.0000e+00
      2.570     -0.119     7.9657    102.542     39.977  40.969792    -0.0120      8.451    -9.8854 2.1757e+01    27.2003      2.527      3.665    25.9621 0.0000e+00
      2.545     -0.194     8.0991    101.966     41.716  42.878253     0.0451      8.452   -10.4190 2.3022e+01    29.0558      2.504      3.632    26.0013 0.0000e+00
      2.495     -0.266     8.2326    100.983     43.124  44.403866     0.2586      8.458   -12.0374 2.5473e+01    42.2394      2.457      3.563    26.0781 0.0000e+00
      2.410     -0.315     8.3236     99.507     42.080  43.293991     0.5886      8.467   -13.9663 2.9628e+01    66.2585      2.381      3.453    26.1125 0.0000e+00
      2.287     -0.329     8.3080     97.794     40.932  42.026730     0.7392      8.474   -14.6398 3.4862e+01    79.3620      2.250      3.263    26.2038 0.0000e+00
      2.153     -0.305     8.2172     96.599     41.328  42.410970     0.7477      8.481   -13.7286 3.9178e+01    81.5253      2.095      3.038    26.3972 0.0000e+00
      2.054     -0.250     8.1290     96.250     41.733  42.862245     0.7915      8.487   -12.7576 4.1288e+01    92.3122      1.995      2.893    26.5414 0.0000e+00
      2.008     -0.175     8.0200     96.926     41.493  42.659463     0.8445      8.490   -12.6226 4.1676e+01   111.7481      1.956      2.837    26.4646 0.0000e+00
      2.001     -0.094     7.8695     98.682     41.728  42.942351     0.8550      8.491   -12.9560 4.1245e+01   122.2584      1.958      2.840    26.2772 0.0000e+00
      2.009     -0.024     7.7740    100.739     42.232  43.489830     0.8185      8.491   -13.6045 4.0553e+01   123.0613      1.972      2.860    26.2782 0.0000e+00
      2.017      0.022     7.7337    102.244     42.108  43.376106     0.7871      8.491   -14.3551 3.9985e+01   122.9257      1.978      2.868    26.3510 0.0000e+00
      2.026      0.047     7.7632    102.948     42.201  43.471627     0.8085      8.489   -14.3742 3.9442e+01   121.6775      1.985      2.880    26.3991 0.0000e+00
      2.039      0.060     7.9334    102.814     42.298  43.565780     0.8684      8.486   -13.8361 3.8586e+01   119.4121      1.998      2.897    26.4530 0.0000e+00
      2.057      0.068     8.1216    101.849     41.876  43.118020     0.8874      8.485   -13.7850 3.7675e+01   118.0796      2.018      2.927    26.4892 0.0000e+00
      2.077      0.071     8.2409    100.349     42.276  43.516407     0.8635      8.484   -14.2723 3.6805e+01   117.6945      2.037      2.954    26.5084 0.0000e+00
      2.099      0.069     8.2987     98.759     43.121  44.383679     0.9368      8.482   -14.8243 3.5656e+01   116.4295      2.056      2.981    26.4958 0.0000e+00
      2.124      0.061     8.2924     97.449     42.709  43.956078     1.1077      8.482   -15.2098 3.4628e+01   114.2962      2.086      3.025    26.4977 0.0000e+00
      2.143      0.041     8.2069     96.744     41.522  42.726124     1.1992      8.482   -15.4060 3.4185e+01   113.1472      2.107      3.055    26.4791 0.0000e+00
      2.151     -0.003     8.0746     96.783     40.999  42.206944     1.1853      8.483   -15.3900 3.4021e+01   112.9560      2.110      3.060    26.4510 0.0000e+00
      2.153     -0.083     7.9388     97.461     41.590  42.883334     1.1238      8.490   -15.3606 3.3876e+01   112.9411      2.111      3.061    26.4603 0.0000e+00
      2.152     -0.190     7.8199     98.438     42.153  43.541774     1.0703      8.505   -15.3086 3.4312e+01   113.2749      2.116      3.069    26.4623 0.0000e+00
      2.124     -0.296     7.7652     99.287     41.898  43.313336     1.0802      8.524   -14.5894 3.7065e+01   113.5758      2.110      3.062    26.4315 0.0000e+00
      2.028     -0.373     7.7691     99.780     41.646  43.041163     1.1022      8.538   -12.6875 4.2900e+01   113.3347      2.020      2.930    26.4394 0.0000e+00
      1.861     -0.403     7.8207    100.013     41.352  42.726420     1.1361      8.543   -10.1239 4.9809e+01   110.0175      1.828      2.652    26.5372 0.0000e+00
      1.679     -0.384     7.8945    100.111     40.863  42.236949     1.2076      8.543    -8.1989 5.5515e+01   103.9717      1.628      2.362    26.6678 0.0000e+00
      1.545     -0.319     7.9646    100.042     41.026  42.454487     1.2667      8.540    -7.1367 5.8710e+01   100.7666      1.485      2.154    26.7109 0.0000e+00
      1.486     -0.224     8.0056     99.720     41.560  43.071820     1.3021      8.535    -6.0572 5.9180e+01   100.4711      1.432      2.077    26.6602 0.0000e+00
      1.489     -0.124     8.0200     98.932     41.547  43.100286     1.3438      8.531    -4.3538 5.8446e+01    98.5202      1.455      2.111    26.6461 0.0000e+00
      1.512     -0.044     8.0315     97.566     41.376  42.925700     1.3792      8.529    -2.1135 5.8163e+01    94.8040      1.489      2.160    26.6587 0.0000e+00
      1.525      0.003     8.0147     95.786     41.582  43.118936     1.3729      8.528     0.4664 5.8563e+01    92.6708      1.502      2.178    26.7222 0.0000e+00
      1.520      0.020     7.9831     93.721     41.637  43.151685     1.3847      8.527     3.4370 5.8993e+01    92.4722      1.492      2.164    26.8281 0.0000e+00
      1.511      0.021     7.9185     91.456     41.396  42.877336     1.4472      8.527     6.6155 5.8620e+01    93.0855      1.477      2.143    26.8808 0.0000e+00
      1.511      0.021     7.8000     89.286     41.520  42.975334     1.4868      8.527     9.7303 5.6305e+01    94.1429      1.477      2.142    26.8786 0.0000e+00
      1.524      0.023     7.6601     87.486     41.943  43.384429     1.4731      8.525    12.8768 5.2671e+01    94.5989      1.495      2.167    26.8388 0.0000e+00
      1.540      0.026     7.5005     86.018     41.898  43.317138     1.4396      8.525    16.3527 5.0214e+01    94.4664      1.512      2.193    26.8118 0.0000e+00
      1.552      0.026     7.3122     85.001     41.655  43.050303     1.4466      8.524    20.0082 4.9781e+01    94.3161      1.524      2.211    26.7881 0.0000e+00
      1.557      0.024     7.1311     84.786     41.867  43.268234     1.5170      8.522    23.3481 5.0410e+01    92.9522      1.530      2.219    26.7443 0.0000e+00
      1.556      0.020     6.9995     85.245     42.059  43.476724     1.5914      8.521    26.1903 5.1023e+01    90.3072      1.526      2.213    26.7084 0.0000e+00
      1.556      0.019     6.8844     85.839     42.056  43.476600     1.6064      8.519    28.4760 5.1305e+01    88.7410      1.524      2.210    26.6865 0.0000e+00
      1.559      0.022     6.7846     86.212     42.358  43.774519     1.5815      8.514    30.3346 5.1247e+01    88.3971      1.527      2.215    26.6615 0.0000e+00
      1.567      0.027     6.7744     86.212     42.631  44.032077     1.6067      8.506    32.0569 5.0744e+01    88.1306      1.537      2.228    26.6581 0.0000e+00
      1.578      0.029     6.8298     85.772     42.307  43.670887     1.6867      8.496    33.5545 4.9993e+01    87.8407      1.548      2.246    26.6844 0.0000e+00
      1.589      0.020     6.8843     84.976     41.638  42.961853     1.7323      8.486    34.8490 4.9096e+01    87.6257      1.557      2.260    26.6901 0.0000e+00
      1.599     -0.015     6.9195     84.431     41.295  42.631541     1.7172      8.478    36.2650 4.8133e+01    86.9308      1.569      2.276    26.6707 0.0000e+00
      1.604     -0.090     6.9271     85.447     41.545  42.977661     1.7454      8.473    37.8555 4.7317e+01    80.3963      1.575      2.285    26.6366 0.0000e+00
      1.603     -0.198     6.8933     88.502     41.795  43.338642     1.8810      8.469    39.3660 4.7022e+01    68.7374      1.576      2.286    26.6070 0.0000e+00
      1.576     -0.308     6.8260     92.225     41.721  43.314985     1.9926      8.465    40.6768 4.8573e+01    62.4824      1.574      2.283    26.5672 0.0000e+00
      1.479     -0.389     6.7307     95.100     41.619  43.199497     2.0296      8.459    42.0892 5.3787e+01    61.3696      1.487      2.156    26.5713 0.0000e+00
      1.302     -0.418     6.7643     96.675     41.424  42.957824     2.1109      8.450    43.5372 6.1333e+01    54.4962      1.283      1.861    26.7101 0.0000e+00
      1.106     -0.390     7.0530     97.243     41.233  42.741299     2.2352      8.442    44.4182 6.6774e+01    41.9231      1.064      1.542    26.8681 0.0000e+00
      0.963     -0.314     7.3896     97.524     41.320  42.866434     2.3089      8.436    44.9114 6.7402e+01    35.0893      0.908      1.317    26.9339 0.0000e+00
      0.909     -0.204     7.6289     98.168     41.460  43.074522     2.3366      8.431    45.3707 6.4491e+01    34.4162      0.863      1.252    26.9088 0.0000e+00
      0.928     -0.089     7.7553     98.843     41.377  43.035894     2.3790      8.427    45.7553 6.1318e+01    32.1793      0.904      1.311    26.8346 0.0000e+00
      0.969     -0.002     7.7873     98.861     41.235  42.907229     2.4384      8.424    46.2073 5.9179e+01    27.9240      0.957      1.388    26.7916 0.0000e+00
      0.998      0.042     7.7702     98.346     41.240  42.915247     2.4464      8.422    46.6198 5.7478e+01    25.4940      0.987      1.431    26.8513 0.0000e+00
      1.006      0.046     7.8209     97.505     41.270  42.942426     2.4348      8.421    46.8708 5.5903e+01    25.2755      0.990      1.436    26.9524 0.0000e+00
      1.003      0.018     7.9059     96.351     41.307  42.981954     2.4402      8.420    47.0902 5.4918e+01    25.4869      0.983      1.426    27.0107 0.0000e+00
      1.002     -0.039     7.8827     95.286     41.366  43.075814     2.4036      8.420    47.3800 5.4848e+01    27.4344      0.980      1.422    27.0306 0.0000e+00
      1.006     -0.126     7.8376     94.716     41.474  43.252206     2.3334      8.424    47.7068 5.5267e+01    30.9917      0.986      1.431    27.0238 0.0000e+00
      1.005     -0.224     7.7803     94.578     41.694  43.527997     2.2738      8.431    48.2024 5.6949e+01    32.8698      0.996      1.444    27.0213 0.0000e+00
      0.964     -0.308     7.6733     94.823     41.723  43.554210     2.2645      8.441    49.4145 6.0882e+01    32.7895      0.980      1.421    27.0065 0.0000e+00
      0.841     -0.358     7.5669     95.478     41.714  43.505677     2.2800      8.451    51.2637 6.6122e+01    29.6105      0.854      1.239    27.0353 0.0000e+00
      0.659     -0.364     7.5155     96.058     41.859  43.639311     2.2695      8.459    52.9229 7.0565e+01    23.5374      0.631      0.916    27.1491 0.0000e+00
      0.500     -0.324     7.4994     96.040     41.833  43.646581     2.2460      8.464    54.3320 7.2920e+01    20.0951      0.457      0.664    27.2178 0.0000e+00
      0.419     -0.245     7.5071     95.540     41.736  43.593653     2.2200      8.466    55.8255 7.3991e+01    19.5870      0.387      0.561    27.2089 0.0000e+00
      0.405     -0.144     7.5914     94.930     41.683  43.570709     2.2218      8.466    57.2152 7.4004e+01    18.9316      0.387      0.562    27.1298 0.0000e+00
      0.425     -0.048     7.6646     94.258     41.593  43.496168     2.2516      8.465    58.4009 7.2862e+01    17.9092      0.415      0.603    27.0844 0.0000e+00
      0.449      0.017     7.6451     93.549     41.545  43.454085     2.2641      8.463    59.3203 7.2071e+01    17.3358      0.446      0.646    27.1625 0.0000e+00
      0.461      0.049     7.5787     92.987     41.594  43.506204     2.2477      8.458    59.9858 7.2605e+01    17.1228      0.458      0.664    27.2283 0.0000e+00
      0.463      0.056     7.5296     92.502     41.640  43.555074     2.2276      8.452    60.6823 7.4416e+01    15.9501      0.451      0.655    27.2624 0.0000e+00
      0.470      0.047     7.4763     91.901     41.677  43.600659     2.2536      8.447    61.3758 7.6326e+01    14.0526      0.454      0.659    27.2884 0.0000e+00
      0.491      0.020     7.4050     91.066     41.861  43.803488     2.2971      8.446    61.7451 7.6878e+01    13.1727      0.477      0.692    27.2927 0.0000e+00
      0.517     -0.033     7.3681     89.999     41.954  43.912853     2.3040      8.450    61.7058 7.6285e+01    13.1683      0.512      0.743    27.2934 0.0000e+00
      0.531     -0.109     7.3352     88.788     41.756  43.717001     2.2533      8.460    61.5897 7.6070e+01    13.4197      0.532      0.770    27.2905 0.0000e+00
      0.512     -0.190     7.2896     87.458     41.571  43.530118     2.1513      8.473    61.8897 7.7744e+01    13.9572      0.522      0.757    27.2984 0.0000e+00
      0.440     -0.253     7.2230     86.150     41.718  43.684426     2.1027      8.489    62.8373 8.0790e+01    14.3381      0.455      0.660    27.3149 0.0000e+00
      0.318     -0.278     7.1296     85.160     42.374  44.376713     2.1146      8.503    64.2718 8.9223e+01    14.4729      0.316      0.458    27.3276 0.0000e+00
      0.185     -0.258     7.0361     84.839     43.040  45.108633     2.1026      8.513    65.8117 1.0487e+02    14.2893      0.165      0.239    27.3438 0.0000e+00
      0.094     -0.202     6.9237     85.285     42.857  44.980400     2.0415      8.519    67.0018 1.1736e+02    12.1515      0.068      0.099    27.3522 0.0000e+00
      0.064     -0.122     6.8130     86.236     42.205  44.349820     1.9504      8.524    67.6481 1.2396e+02     8.4031      0.046      0.066    27.3524 0.0000e+00
      0.079     -0.042     6.7240     87.389     42.050  44.212945     1.8993      8.527    68.0333 1.2988e+02     6.4413      0.073      0.105    27.3422 0.0000e+00
      0.113      0.017     6.6880     88.297     42.350  44.531579     1.8985      8.527    68.6474 1.3113e+02     6.4668      0.115      0.167    27.3748 0.0000e+00
      0.139      0.044     6.7258     88.531     42.465  44.647774     1.9491      8.526    69.4813 1.2277e+02     7.7559      0.142      0.207    27.4809 0.0000e+00
      0.150      0.044     6.7952     88.082     42.244  44.411793     2.0287      8.525    70.2855 1.0974e+02     9.9015      0.150      0.216    27.5505 0.0000e+00
      0.151      0.030     6.8975     87.239     42.121  44.280855     2.0457      8.524    71.1444 9.9322e+01    10.9225      0.149      0.217    27.5723 0.0000e+00
      0.151      0.015     6.9862     86.249     42.297  44.461077     2.0297      8.526    72.0366 9.3529e+01    10.9798      0.146      0.212    27.5745 0.0000e+00
      0.151      0.007     7.0034     85.183     42.457  44.623095     2.0511      8.529    72.8995 9.1656e+01    11.4141      0.147      0.214    27.5593 0.0000e+00
      0.153      0.006     6.9582     84.087     42.433  44.589429     2.0796      8.532    73.6623 9.3009e+01    12.1772      0.151      0.219    27.5598 0.0000e+00
      0.154      0.009     6.8833     83.091     42.355  44.498347     2.0662      8.535    74.2035 9.7228e+01    12.5209      0.152      0.221    27.5604 0.0000e+00
      0.155      0.013     6.8064     82.273     42.280  44.410479     2.0302      8.537    74.7109 1.0342e+02    12.4274      0.151      0.220    27.5523 0.0000e+00
      0.158      0.016     6.7228     81.584     42.171  44.288717     2.0280      8.537    75.3232 1.0937e+02    12.4803      0.154      0.222    27.5455 0.0000e+00
      0.165      0.017     6.6325     81.007     42.062  44.168681     2.0727      8.537    75.9288 1.1054e+02    12.7848      0.161      0.234    27.5357 0.0000e+00
      0.173      0.015     6.5519     80.605     42.185  44.292094     2.1217      8.537    76.4402 1.0379e+02    13.0349      0.171      0.248    27.5236 0.0000e+00
      0.180      0.006     6.4923     80.392     42.881  45.019164     2.1206      8.534    76.8607 9.2344e+01    12.9762      0.177      0.257    27.5124 0.0000e+00
      0.182     -0.021     6.4394     80.242     43.481  45.659663     2.0511      8.533    77.3141 8.1232e+01    12.2804      0.179      0.260    27.5047 0.0000e+00
      0.182     -0.071     6.3915     80.105     43.116  45.307643     1.9546      8.536    77.6192 7.2516e+01    11.1808      0.179      0.259    27.4973 0.0000e+00
      0.177     -0.131     6.3596     80.364     42.926  45.143042     1.9197      8.544    77.6244 6.8474e+01    10.6463      0.180      0.261    27.4913 0.0000e+00
      0.152     -0.190     6.3472     81.476     44.401  46.716519     1.9452      8.556    77.6343 8.2514e+01    10.6679      0.168      0.243    27.4831 0.0000e+00
      0.082     -0.242     6.3427     83.496     46.026  48.461453     1.9316      8.569    77.8256 1.3466e+02    10.5536      0.098      0.143    27.4849 0.0000e+00
     -0.023     -0.286     6.3121     86.371     46.081  48.592263     1.7964      8.579    78.8186 2.1152e+02     9.6065     -0.028     -0.040    27.5323 0.0000e+00
     -0.121     -0.316     6.3070     90.034     47.096  49.758977     1.5994      8.586    86.0271 2.7192e+02     8.0635     -0.132     -0.192    27.5885 0.0000e+00
     -0.196     -0.329     6.3982     93.614     50.558  53.551342     1.5149      8.586    96.5811 3.1657e+02     7.3030     -0.189     -0.274    27.5963 0.0000e+00
     -0.269     -0.322     6.5580     95.222     53.173  56.599427     1.5234      8.581    92.6835 3.6210e+02     7.3119     -0.257     -0.373    27.6148 0.0000e+00
     -0.351     -0.297     6.7673     93.767     47.683  51.113270     1.3117      8.566    77.5322 4.1037e+02     6.8733     -0.345     -0.501    27.7161 0.0000e+00
     -0.437     -0.263     7.0585     90.286     31.066  33.551979     0.8777      8.545    71.7864 7.3546e+02     5.9961     -0.427     -0.619    27.8229 0.0000e+00
     -0.520     -0.222     7.3992     86.411     14.669  15.979125     0.6372      8.548    73.9747 1.4891e+03     5.5532     -0.516     -0.749    27.8894 0.0000e+00
     -0.582     -0.172     7.5407     82.957      7.738   8.504286     0.6178      8.584    74.3077 1.7125e+03     5.4468     -0.586     -0.851    28.1288 0.0000e+00
     -0.610     -0.119     7.3092     80.267      6.067   6.695805     0.4518      8.613    74.8653 1.4691e+03     4.4699     -0.604     -0.876    28.6632 0.0000e+00
     -0.616     -0.071     6.9106     78.557      5.223   5.770978     0.0779      8.633    77.1902 1.8651e+03     2.5894     -0.603     -0.875    29.2750 0.0000e+00
     -0.616     -0.033     6.5449     77.944      4.630   5.114960    -0.1574      8.628    79.5312 2.2883e+03     1.5994     -0.604     -0.876    29.7739 0.0000e+00
     -0.616     -0.011     6.2391     78.415      4.104   4.529005    -0.1630      8.589    81.5738 2.2876e+03     1.6898     -0.603     -0.875    30.0968 0.0000e+00
     -0.616     -0.002     6.0160     79.609      3.635   4.007654    -0.1220      8.587    82.9586 2.2452e+03     1.6328     -0.604     -0.876    30.2344 0.0000e+00
     -0.616 3.6266e-08     5.8831     80.957      3.292   3.625843    -0.0946      8.610    83.9709 2.0596e+03     1.2848     -0.604     -0.876    30.2565 0.0000e+00
     -0.616 3.9893e-07     5.8368     82.131      3.087   3.396651    -0.0661      8.600    84.6076 1.4580e+03     1.1382     -0.604     -0.877    30.2277 0.0000e+00
     -0.616      0.000     5.8876     83.071      2.969   3.263591    -0.0263      8.581    84.8059 6.9663e+02     1.2262     -0.604     -0.876    30.1781 0.0000e+00
     -0.616      0.000     6.0036     83.789      2.876   3.157249    -0.0038      8.586    85.2497 3.5618e+02     1.3246     -0.604     -0.876    30.1216 0.0000e+00
     -0.616      0.001     6.1185     84.327      2.791   3.061050     0.0058      8.604    85.9296 3.3672e+02     1.5086     -0.604     -0.876    30.0637 0.0000e+00
     -0.615      0.001     6.2131     84.761      2.726   2.987278     0.0148      8.614    86.5738 3.4055e+02     1.7086     -0.603     -0.875    30.0074 0.0000e+00
     -0.615      0.001     6.2901     85.207      2.647   2.898726     0.0209      8.614    87.0167 3.5660e+02     1.7942     -0.603     -0.875    29.9530 0.0000e+00
     -0.615      0.001     6.3489     85.700      2.572   2.813836     0.0218      8.621    87.1542 4.7153e+02     1.7584     -0.603     -0.875    29.8987 0.0000e+00
     -0.615      0.000     6.3941     86.180      2.606   2.847700    -0.0160      8.638    87.3762 6.2313e+02     1.6177     -0.603     -0.875    29.8464 0.0000e+00
     -0.615 1.8626e-08     6.4285     86.658      2.682   2.928108    -0.0450      8.648    88.0663 7.1132e+02     1.5958     -0.603     -0.874    29.7948 0.0000e+00
     -0.615 2.0489e-07     6.4663     87.160      2.657   2.899209    -0.0217      8.635    88.9593 8.5115e+02     1.7326     -0.603     -0.874    29.7414 0.0000e+00
     -0.615 2.0489e-07     6.5140     87.694      2.582   2.815011    -0.0172      8.607    90.6018 1.0058e+03     1.7350     -0.603     -0.875    29.6904 0.0000e+00
     -0.615 1.8626e-08     6.5542     88.315      2.509   2.733550    -0.0234      8.575    92.0076 1.0939e+03     1.6241     -0.603     -0.874    29.6418 0.0000e+00
     -0.615 1.6933e-09     6.5948     89.036      2.457   2.674397     0.0111      8.559    91.8470 1.1396e+03     1.5872     -0.603     -0.875    29.5917 0.0000e+00
     -0.615 1.5394e-10     6.6409     89.793      2.455   2.669878     0.0264      8.576    92.1870 1.1126e+03     1.4940     -0.604     -0.875    29.5419 0.0000e+00
     -0.615 1.3994e-11     6.6832     90.494      2.465   2.678914     0.0030      8.606    92.8502 1.0439e+03     1.3173     -0.604     -0.875    29.4947 0.0000e+00
     -0.615 1.2722e-12     6.7358     91.096      2.447   2.656961     0.0040      8.623    93.2407 1.0354e+03     1.3291     -0.603     -0.874    29.4512 0.0000e+00
     -0.615 1.1565e-13     6.7975     91.641      2.450   2.657818     0.0296      8.627    94.5846 1.0904e+03     1.4323     -0.603     -0.874    29.4115 0.0000e+00
     -0.615 1.0514e-14     6.8624     92.159      2.481   2.689275     0.0296      8.627    95.6774 1.1239e+03     1.3699     -0.603     -0.874    29.3741 0.0000e+00
     -0.615 9.5585e-16     6.9227     92.599      2.453   2.657237     0.0028      8.627    95.2675 1.1324e+03     1.2909     -0.603     -0.875    29.3367 0.0000e+00
     -0.615 8.6895e-17     6.9709     92.905      2.389   2.587163    -0.0197      8.627    94.4472 1.1703e+03     1.4336     -0.603     -0.874    29.2975 0.0000e+00
     -0.615 7.8995e-18     7.0164     93.107      2.346   2.538789    -0.0255      8.628    94.3641 1.2318e+03     1.6951     -0.603     -0.875    29.2560 0.0000e+00
     -0.615 7.1815e-19     7.0634     93.251      2.327   2.515757    -0.0088      8.629    93.9171 1.2810e+03     1.7198     -0.603     -0.875    29.2124 0.0000e+00
     -0.615 6.5285e-20     7.1052     93.347      2.313   2.498712    -0.0088      8.630    92.2267 1.3139e+03     1.5620     -0.603     -0.874    29.1700 0.0000e+00
     -0.615 5.9350e-21     7.1318     93.411      2.278   2.459376    -0.0091      8.630    90.6181 1.3295e+03     1.5294     -0.603     -0.875    29.1283 0.0000e+00
     -0.615 5.3955e-22     7.1506     93.448      2.243   2.420203     0.0285      8.630    89.1803 1.3293e+03     1.5647     -0.603     -0.875    29.0883 0.0000e+00
     -0.615 4.9049e-23     7.1667     93.457      2.231   2.405134     0.0297      8.630    87.4037 1.2867e+03     1.4767     -0.603     -0.875    29.0529 0.0000e+00
     -0.615 4.4590e-24     7.1772     93.455      2.231   2.403869    -0.0116      8.631    86.2588 1.2005e+03     1.3531     -0.603     -0.874    29.0198 0.0000e+00
     -0.615 4.0537e-25     7.1862     93.455      2.233   2.404909    -0.0130      8.631    85.2313 1.1554e+03     1.3687     -0.603     -0.874    28.9877 0.0000e+00
     -0.615 3.6851e-26     7.1932     93.459      2.246   2.417694    -0.0036      8.630    84.6178 1.1682e+03     1.3912     -0.603     -0.874    28.9569 0.0000e+00
     -0.615 3.3501e-27     7.1974     93.490      2.260   2.431771    -0.0386      8.630    84.8635 1.1903e+03     1.3181     -0.603     -0.874    28.9247 0.0000e+00
     -0.615 3.0456e-28     7.2012     93.543      2.277   2.448420    -0.0532      8.630    84.6744 1.2251e+03     1.3728     -0.603     -0.874    28.8878 0.0000e+00
     -0.615 2.7687e-29     7.2068     93.580      2.319   2.492307    -0.0226      8.629    84.7401 1.2740e+03     1.5744     -0.603     -0.874    28.8501 0.0000e+00
     -0.615 2.5170e-30     7.2098     93.617      2.404   2.582343    -0.0014      8.628    85.7441 1.3213e+03     1.6729     -0.603     -0.875    28.8171 0.0000e+00
     -0.615 2.2882e-31     7.2155     93.675      2.528   2.713568    -0.0134      8.632    76.2496 1.3932e+03     1.5725     -0.603     -0.874    28.7872 0.0000e+00
     -0.615 2.0802e-32     7.2264     93.748      2.621   2.812072    -0.0424      8.636    61.8331 1.3347e+03     1.4200     -0.603     -0.875    28.7573 0.0000e+00
     -0.615 1.8911e-33     7.2311     93.816      2.633   2.823177    -0.0454      8.627    74.2221 1.2045e+03     1.4338     -0.603     -0.875    28.7272 0.0000e+00
     -0.615 1.7191e-34     7.2376     93.851      2.598   2.784490    -0.0319      8.608   114.8813 1.1162e+03     1.4660     -0.603     -0.875    28.6954 0.0000e+00
     -0.615 1.5629e-35     7.2468     93.880      2.543   2.724367    -0.0377      8.593   153.7020 9.0951e+02     1.3653     -0.603     -0.874    28.6617 0.0000e+00
     -0.616 1.4208e-36     7.2564     93.914      2.490   2.666336    -0.0326      8.590   175.3517 9.4780e+02     1.3777     -0.604     -0.875    28.6289 0.0000e+00
     -0.616 1.2916e-37     7.2679     93.925      2.538   2.716281    -0.0031      8.596   182.5412 1.1055e+03     1.5142     -0.604     -0.876    28.5985 0.0000e+00
     -0.615 1.1742e-38     7.2721     93.915      2.816   3.011518     0.0107      8.613   149.5999 9.8442e+02     1.2386     -0.603     -0.875    28.5710 0.0000e+00
     -0.615 1.0674e-39     7.2771     93.903      3.166   3.385491     0.0022      8.641    64.0883 1.0867e+03     0.6080     -0.603     -0.875    28.5453 0.0000e+00
     -0.615 9.7040e-41     7.2849     93.913      3.156   3.373894     0.0098      8.660   -12.9196 1.2921e+03     0.3459     -0.604     -0.875    28.5206 0.0000e+00
     -0.615 8.8220e-42     7.2877     93.957      2.806   2.997992     0.0443      8.650   -19.9630 1.4731e+03     0.3577     -0.603     -0.875    28.4964 0.0000e+00
     -0.615 8.0200e-43     7.2899     94.020      2.533   2.704556     0.0529      8.623    25.8186 2.0351e+03     0.2730     -0.604     -0.875    28.4739 0.0000e+00
     -0.615 7.2910e-44     7.2909     94.080      2.627   2.803185     0.0387      8.609    50.8861 2.5061e+03     0.1755     -0.604     -0.875    28.4524 0.0000e+00
     -0.615 6.6280e-45     7.2936     94.120      3.039   3.240322     0.0392      8.613    42.3021 2.6183e+03     0.1698     -0.604     -0.876    28.4320 0.0000e+00
     -0.615 6.0255e-46     7.3009     94.157      3.456   3.682484     0.0425      8.616    42.1412 2.6490e+03     0.2040     -0.604     -0.875    28.4096 0.0000e+00
     -0.616 5.4775e-47     7.3101     94.209      3.667   3.905129     0.0462      8.616    49.0277 2.6502e+03     0.1105     -0.604     -0.876    28.3775 0.0000e+00
     -0.616 4.9798e-48     7.3208     94.264      3.728   3.968544     0.0338      8.616    51.0561 2.6539e+03    -0.0736     -0.604     -0.876    28.3397 0.0000e+00
     -0.615 4.5270e-49     7.3275     94.317      3.825   4.069137     0.0251      8.618    45.7582 2.6599e+03    -0.0745     -0.604     -0.875    28.3049 0.0000e+00
     -0.615 4.1155e-50     7.3332     94.357      3.804   4.044471     0.0487      8.623    32.7237 2.3978e+03     0.0662     -0.604     -0.876    28.2732 0.0000e+00
     -0.616 3.7414e-51     7.3425     94.370      3.573   3.796995     0.0529      8.628    21.4834 1.6548e+03     0.0556     -0.605     -0.877    28.2456 0.0000e+00
     -0.616 3.4012e-52     7.3494     94.378      3.400   3.610834     0.0352      8.630    14.2179 8.6957e+02     0.2078     -0.604     -0.876    28.2203 0.0000e+00
     -0.616 3.0920e-53     7.3579     94.396      3.301   3.504004     0.0420      8.632     2.8677 4.9086e+02     0.7111     -0.604     -0.876    28.1884 0.0000e+00
     -0.616 2.8109e-54     7.3666     94.416      3.137   3.328818     0.0360      8.635   -10.5245 4.0542e+02     0.9826     -0.604     -0.876    28.1542 0.0000e+00
     -0.616 2.5554e-55     7.3701     94.457      2.961   3.139671    -0.0127      8.635   -12.1090 3.9022e+02     0.9970     -0.604     -0.876    28.1249 0.0000e+00
     -0.616 2.3231e-56     7.3735     94.510      2.881   3.054074    -0.1723      8.631    -1.8358 4.1305e+02     1.9777     -0.604     -0.876    28.0979 0.0000e+00
     -0.616 2.1119e-57     7.3800     94.536      3.002   3.180700    -0.4284      8.629     0.3750 7.8710e+02     3.8222     -0.605     -0.877    28.0699 0.0000e+00
     -0.616 1.9199e-58     7.3836     94.549      3.273   3.467127    -0.5705      8.634   -12.3941 1.5117e+03     4.7850     -0.605     -0.877    28.0416 0.0000e+00
     -0.615 1.7454e-59     7.3902     94.561      3.523   3.730007    -0.5930      8.636   -16.2411 1.6319e+03     4.9079     -0.604     -0.875    28.0160 0.0000e+00
     -0.615 1.5867e-60     7.4001     94.561      3.614   3.825292    -0.4746      8.634    -8.2815 9.9745e+02     5.0687     -0.604     -0.875    27.9936 0.0000e+00
     -0.616 1.4424e-61     7.4030     94.565      3.467   3.668989    -0.1376      8.633    -5.4632 6.5451e+02     5.3288     -0.604     -0.876    27.9735 0.0000e+00
     -0.616 1.3113e-62     7.4062     94.597      3.236   3.423846     0.1515      8.633    -3.8468 1.1983e+03     5.4224     -0.604     -0.876    27.9550 0.0000e+00
     -0.616 1.1921e-63     7.4103     94.626      3.091   3.268466     0.2241      8.633     1.3674 2.1757e+03     5.3115     -0.604     -0.876    27.9368 0.0000e+00
     -0.616 1.0837e-64     7.4122     94.632      3.012   3.183920     0.2325      8.633     5.6993 2.6828e+03     5.3546     -0.605     -0.877    27.9192 0.0000e+00
     -0.616 9.8527e-66     7.4129     94.656      2.932   3.098415     0.2120      8.635     8.1763 2.7280e+03     5.5691     -0.604     -0.876    27.9028 0.0000e+00
     -0.616 9.0305e-67     7.4194     94.703      2.835   2.994771     0.1086      8.638     9.9797 2.7340e+03     5.7176     -0.604     -0.876    27.8860 0.0000e+00
     -0.616 1.6285e-67     7.4252     94.728      2.787   2.944287     0.0395      8.639    10.7266 2.7260e+03     5.7496     -0.603     -0.875    27.8692 0.0000e+00
     -0.616 -9.990e-29     7.4255 -9.990e-29 -9.990e-29 -9.990e-29 -9.990e-29 -9.990e-29 -9.990e-29 2.7099e+03 -9.990e-29     -0.604     -0.876    27.8507 0.0000e+00
     -0.616 -9.990e-29     7.4297 -9.990e-29 -9.990e-29 -9.990e-29 -9.990e-29 -9.990e-29 -9.990e-29 2.6998e+03 -9.990e-29     -0.604     -0.876    27.8343 0.0000e+00
     -0.616 -9.990e-29     7.4374 -9.990e-29 -9.990e-29 -9.990e-29 -9.990e-29 -9.990e-29 -9.990e-29 2.6905e+03 -9.990e-29     -0.605     -0.877    27.8157 0.0000e+00
     -0.616 -9.990e-29     7.4423 -9.990e-29 -9.990e-29 -9.990e-29 -9.990e-29 -9.990e-29 -9.990e-29 2.6847e+03 -9.990e-29     -0.604     -0.876    27.8027 0.0000e+00
