* Sea-Bird SBE19plus  Data File:
* FileName = C:\R\Reservoirs\Data\DataNotYetUploadedToEDI\Raw_CTD\RawDownloads\0730224_fcr50_SB7809_0008.hex
* Software version 2.8.0.119
* Temperature SN = 7809
* Conductivity SN = 7809
* System UpLoad Time = Jul 30 2024 15:58:10
* <ApplicationData>
* <Seaterm232>
* <SoftwareVersion>2.8.0.119</SoftwareVersion>
* <BuildDate>07-Nov-2018</BuildDate>
* </Seaterm232>
* </ApplicationData>
* <InstrumentState>
* <HardwareData DeviceType='SBE19plus' SerialNumber='01907809'>
*
*    <Manufacturer>Sea-Bird Electronics, Inc.</Manufacturer>
*
*    <FirmwareVersion>3.1.8</FirmwareVersion>
*
*    <FirmwareDate>Mar  9 2016 16:22:29</FirmwareDate>
*
*    <CommandSetVersion>1.4</CommandSetVersion>
*
*    <PCBAssembly PCBSerialNum='120721' AssemblyNum='41054J'/>
*
*    <PCBAssembly PCBSerialNum='120715' AssemblyNum='41967A'/>
*
*    <PCBAssembly PCBSerialNum='116699' AssemblyNum='41606'/>
*
*    <PCBAssembly PCBSerialNum='120719' AssemblyNum='41059D'/>
*
*    <MfgDate>28-Apr-2017</MfgDate>
*
*    <InternalSensors>
*
*       <Sensor id='Main Temperature'>
*
*          <type>temperature0</type>
*
*          <SerialNumber>01907809</SerialNumber>
*
*       </Sensor>
*
*       <Sensor id='Main Conductivity'>
*
*          <type>conductivity-0</type>
*
*          <SerialNumber>01907809</SerialNumber>
*
*       </Sensor>
*
*       <Sensor id='Main Pressure'>
*
*          <type>strain-0</type>
*
*          <SerialNumber>10586018</SerialNumber>
*
*       </Sensor>
*
*    </InternalSensors>
*
*    <ExternalSensors>
*
*       <Sensor id='volt 0'>
*
*          <type>pH</type>
*
*          <SerialNumber>27-0363</SerialNumber>
*
*       </Sensor>
*
*       <Sensor id='volt 1'>
*
*          <type>ORP</type>
*
*          <SerialNumber>27-0363</SerialNumber>
*
*       </Sensor>
*
*       <Sensor id='volt 2'>
*
*          <type>OXY</type>
*
*          <SerialNumber>43-0434</SerialNumber>
*
*       </Sensor>
*
*       <Sensor id='volt 3'>
*
*          <type>PAR</type>
*
*          <SerialNumber>1122</SerialNumber>
*
*       </Sensor>
*
*       <Sensor id='volt 4'>
*
*          <type>ECO AFL/FL</type>
*
*          <SerialNumber>FLNTURT-2496</SerialNumber>
*
*       </Sensor>
*
*       <Sensor id='volt 5'>
*
*          <type>ECO-NTU</type>
*
*          <SerialNumber>FLNTURT-2496</SerialNumber>
*
*       </Sensor>
*
*       <Sensor id='serial'>
*
*          <type>not assigned</type>
*
*          <SerialNumber>not assigned</SerialNumber>
*
*       </Sensor>
*
*    </ExternalSensors>
*
* </HardwareData>
* <StatusData DeviceType='SBE19plus' SerialNumber='01907809'>
*
*    <DateTime>2024-07-30T15:57:07</DateTime>
*
*    <LoggingState>not logging</LoggingState>
*
*    <EventSummary numEvents='0'/>
*
*    <Power>
*
*       <vMain>12.4</vMain>
*
*       <vLith>8.3</vLith>
*
*       <iMain>63.0</iMain>
*
*       <iPump>139.6</iPump>
*
*       <iExt01>21.1</iExt01>
*
*       <iExt2345>39.3</iExt2345>
*
*    </Power>
*
*    <MemorySummary>
*
*       <Bytes>189796</Bytes>
*
*       <Samples>8252</Samples>
*
*       <SamplesFree>2852536</SamplesFree>
*
*       <SampleLength>23</SampleLength>
*
*       <Profiles>8</Profiles>
*
*    </MemorySummary>
*
* </StatusData>
* <ConfigurationData DeviceType='SBE19plus' SerialNumber='01907809'>
*
*    <ProfileMode>
*
*       <ScansToAverage>1</ScansToAverage>
*
*       <MinimumCondFreq>0</MinimumCondFreq>
*
*       <PumpDelay>45</PumpDelay>
*
*       <AutoRun>no</AutoRun>
*
*       <IgnoreSwitch>no</IgnoreSwitch>
*
*    </ProfileMode>
*
*    <Battery>
*
*       <Type>alkaline</Type>
*
*       <CutOff>7.5</CutOff>
*
*    </Battery>
*
*    <DataChannels>
*
*       <ExtVolt0>yes</ExtVolt0>
*
*       <ExtVolt1>yes</ExtVolt1>
*
*       <ExtVolt2>yes</ExtVolt2>
*
*       <ExtVolt3>yes</ExtVolt3>
*
*       <ExtVolt4>yes</ExtVolt4>
*
*       <ExtVolt5>yes</ExtVolt5>
*
*       <SBE38>no</SBE38>
*
*       <WETLABS>no</WETLABS>
*
*       <OPTODE>no</OPTODE>
*
*       <SBE63>no</SBE63>
*
*       <SeaFET>no</SeaFET>
*
*       <GTD>no</GTD>
*
*    </DataChannels>
*
*    <EchoCharacters>yes</EchoCharacters>
*
*    <OutputExecutedTag>yes</OutputExecutedTag>
*
*    <OutputFormat>raw HEX</OutputFormat>
*
* </ConfigurationData>
* <CalibrationCoefficients DeviceType='SBE19plus' SerialNumber='01907809'>
*
*    <Calibration format='TEMP1' id='Main Temperature'>
*
*       <SerialNum>01907809</SerialNum>
*
*       <CalDate>31-Jan-23</CalDate>
*
*       <TA0>1.218232e-03</TA0>
*
*       <TA1>2.815090e-04</TA1>
*
*       <TA2>-1.578887e-06</TA2>
*
*       <TA3>1.972343e-07</TA3>
*
*       <TOFFSET>0.000000e+00</TOFFSET>
*
*    </Calibration>
*
*    <Calibration format='WBCOND0' id='Main Conductivity'>
*
*       <SerialNum>01907809</SerialNum>
*
*       <CalDate>31-Jan-23</CalDate>
*
*       <G>-1.005652e+00</G>
*
*       <H>1.267963e-01</H>
*
*       <I>-1.561708e-04</I>
*
*       <J>2.645944e-05</J>
*
*       <CPCOR>-9.570000e-08</CPCOR>
*
*       <CTCOR>3.250000e-06</CTCOR>
*
*       <CSLOPE>1.000000e+00</CSLOPE>
*
*    </Calibration>
*
*    <Calibration format='STRAIN0' id='Main Pressure'>
*
*       <SerialNum>10586018</SerialNum>
*
*       <CalDate>20-Jan-23</CalDate>
*
*       <PA0>4.416439e-02</PA0>
*
*       <PA1>4.850502e-04</PA1>
*
*       <PA2>-3.090426e-12</PA2>
*
*       <PTCA0>5.254757e+05</PTCA0>
*
*       <PTCA1>1.050255e+01</PTCA1>
*
*       <PTCA2>-2.922435e-01</PTCA2>
*
*       <PTCB0>2.516687e+01</PTCB0>
*
*       <PTCB1>3.750000e-04</PTCB1>
*
*       <PTCB2>0.000000e+00</PTCB2>
*
*       <PTEMPA0>-5.470820e+01</PTEMPA0>
*
*       <PTEMPA1>5.485421e+01</PTEMPA1>
*
*       <PTEMPA2>-3.446578e-01</PTEMPA2>
*
*       <POFFSET>8.500000e-01</POFFSET>
*
*       <PRANGE>1.600000e+02</PRANGE>
*
*    </Calibration>
*
*    <Calibration format='VOLT0' id='Volt 0'>
*
*       <OFFSET>-4.920000e-02</OFFSET>
*
*       <SLOPE>1.248122e+00</SLOPE>
*
*    </Calibration>
*
*    <Calibration format='VOLT0' id='Volt 1'>
*
*       <OFFSET>-4.784000e-02</OFFSET>
*
*       <SLOPE>1.248871e+00</SLOPE>
*
*    </Calibration>
*
*    <Calibration format='VOLT0' id='Volt 2'>
*
*       <OFFSET>-4.864632e-02</OFFSET>
*
*       <SLOPE>1.248714e+00</SLOPE>
*
*    </Calibration>
*
*    <Calibration format='VOLT0' id='Volt 3'>
*
*       <OFFSET>-4.743790e-02</OFFSET>
*
*       <SLOPE>1.248571e+00</SLOPE>
*
*    </Calibration>
*
*    <Calibration format='VOLT0' id='Volt 4'>
*
*       <OFFSET>-4.671263e-02</OFFSET>
*
*       <SLOPE>1.248951e+00</SLOPE>
*
*    </Calibration>
*
*    <Calibration format='VOLT0' id='Volt 5'>
*
*       <OFFSET>-4.871053e-02</OFFSET>
*
*       <SLOPE>1.249136e+00</SLOPE>
*
*    </Calibration>
*
*    <Calibration format='FREQ0' id='external frequency channel'>
*
*       <EXTFREQSF>1.000014e+00</EXTFREQSF>
*
*    </Calibration>
*
* </CalibrationCoefficients>
* <EventCounters DeviceType='SBE19plus' SerialNumber='01907809'>
*
*    <EventSummary numEvents='0'/>
*
* </EventCounters></InstrumentState>
* <Headers>
*
* cast   8 29 Jul 2024 13:32:53 samples 7122 to 8252, avg = 1, stop = mag switch
*
# nquan = 15
# nvalues = 950                         
# units = specified
# name 0 = depFM: Depth [fresh water, m]
# name 1 = dz/dtM: Descent Rate [m/s]
# name 2 = sbeox0Mg/L: Oxygen, SBE 43 [mg/l]
# name 3 = sbeox0PS: Oxygen, SBE 43 [% saturation]
# name 4 = specc: Specific Conductance [uS/cm]
# name 5 = c0uS/cm: Conductivity [uS/cm]
# name 6 = flECO-AFL: Fluorescence, WET Labs ECO-AFL/FL [mg/m^3]
# name 7 = ph: pH
# name 8 = orp: Oxidation Reduction Potential [mV]
# name 9 = par/sat/log: PAR/Logarithmic, Satlantic
# name 10 = turbWETntu0: Turbidity, WET Labs ECO [NTU]
# name 11 = prdM: Pressure, Strain Gauge [db]
# name 12 = prdE: Pressure, Strain Gauge [psi]
# name 13 = tv290C: Temperature [ITS-90, deg C]
# name 14 = flag:  0.000e+00
# span 0 =     -0.642,      9.557       
# span 1 =     -0.195,      0.234       
# span 2 =     0.1407,     9.3402       
# span 3 =      1.391,    115.386       
# span 4 =      0.790,    484.845       
# span 5 =   0.734100, 361.821943       
# span 6 =    -0.1036,    69.2343       
# span 7 =      5.566,      7.466       
# span 8 =   104.6549,   494.6533       
# span 9 = 1.2359e-01, 4.2917e+02       
# span 10 =    -0.3139,   100.6171      
# span 11 =     -0.630,      9.376      
# span 12 =     -0.914,     13.598      
# span 13 =    12.2381,    26.3759      
# span 14 = 0.0000e+00, 0.0000e+00      
# interval = seconds: 0.25
# start_time = Jul 29 2024 13:32:53 [Instrument's time stamp, header]
# bad_flag = -9.990e-29
# <Sensors count="9" >
#   <sensor Channel="1" >
#     <!-- Count, Temperature -->
#     <TemperatureSensor SensorID="58" >
#       <SerialNumber>7809</SerialNumber>
#       <CalibrationDate>31-Jan-23</CalibrationDate>
#       <A0>1.21823180e-003</A0>
#       <A1>2.81508993e-004</A1>
#       <A2>-1.57888696e-006</A2>
#       <A3>1.97234302e-007</A3>
#       <Slope>1.00000000</Slope>
#       <Offset>0.0000</Offset>
#     </TemperatureSensor>
#   </sensor>
#   <sensor Channel="2" >
#     <!-- Frequency 0, Conductivity -->
#     <ConductivitySensor SensorID="3" >
#       <SerialNumber>7809</SerialNumber>
#       <CalibrationDate>31-Jan-23</CalibrationDate>
#       <UseG_J>1</UseG_J>
#       <!-- Cell const and series R are applicable only for wide range sensors. -->
#       <SeriesR>0.0000</SeriesR>
#       <CellConst>2000.0000</CellConst>
#       <ConductivityType>0</ConductivityType>
#       <Coefficients equation="0" >
#         <A>0.00000000e+000</A>
#         <B>0.00000000e+000</B>
#         <C>0.00000000e+000</C>
#         <D>0.00000000e+000</D>
#         <M>0.0</M>
#         <CPcor>-9.57000000e-008</CPcor>
#       </Coefficients>
#       <Coefficients equation="1" >
#         <G>-1.00565232e+000</G>
#         <H>1.26796307e-001</H>
#         <I>-1.56170788e-004</I>
#         <J>2.64594368e-005</J>
#         <CPcor>-9.57000000e-008</CPcor>
#         <CTcor>3.2500e-006</CTcor>
#         <!-- WBOTC not applicable unless ConductivityType = 1. -->
#         <WBOTC>0.00000000e+000</WBOTC>
#       </Coefficients>
#       <Slope>1.00000000</Slope>
#       <Offset>0.00000</Offset>
#     </ConductivitySensor>
#   </sensor>
#   <sensor Channel="3" >
#     <!-- Count, Pressure, Strain Gauge -->
#     <PressureSensor SensorID="46" >
#       <SerialNumber>7809</SerialNumber>
#       <CalibrationDate>20-Jan-23</CalibrationDate>
#       <PA0>4.41643944e-002</PA0>
#       <PA1>4.85050239e-004</PA1>
#       <PA2>-3.09042623e-012</PA2>
#       <PTEMPA0>-5.47081996e+001</PTEMPA0>
#       <PTEMPA1>5.48542136e+001</PTEMPA1>
#       <PTEMPA2>-3.44657813e-001</PTEMPA2>
#       <PTCA0>5.25475731e+005</PTCA0>
#       <PTCA1>1.05025484e+001</PTCA1>
#       <PTCA2>-2.92243463e-001</PTCA2>
#       <PTCB0>2.51668750e+001</PTCB0>
#       <PTCB1>3.75000000e-004</PTCB1>
#       <PTCB2>0.00000000e+000</PTCB2>
#       <Offset>0.000000</Offset>
#     </PressureSensor>
#   </sensor>
#   <sensor Channel="4" >
#     <!-- A/D voltage 0, Oxygen, SBE 43 -->
#     <OxygenSensor SensorID="38" >
#       <SerialNumber>0434</SerialNumber>
#       <CalibrationDate>18-Feb-23</CalibrationDate>
#       <Use2007Equation>1</Use2007Equation>
#       <CalibrationCoefficients equation="0" >
#         <!-- Coefficients for Owens-Millard equation. -->
#         <Boc>0.0000</Boc>
#         <Soc>0.0000e+000</Soc>
#         <offset>0.0000</offset>
#         <Pcor>0.00e+000</Pcor>
#         <Tcor>0.0000</Tcor>
#         <Tau>0.0</Tau>
#       </CalibrationCoefficients>
#       <CalibrationCoefficients equation="1" >
#         <!-- Coefficients for Sea-Bird equation - SBE calibration in 2007 and later. -->
#         <Soc>5.1878e-001</Soc>
#         <offset>-0.5046</offset>
#         <A>-4.2788e-003</A>
#         <B> 1.5372e-004</B>
#         <C>-2.1853e-006</C>
#         <D0> 2.5826e+000</D0>
#         <D1> 1.92634e-004</D1>
#         <D2>-4.64803e-002</D2>
#         <E> 3.6000e-002</E>
#         <Tau20> 0.9900</Tau20>
#         <H1>-3.3000e-002</H1>
#         <H2> 5.0000e+003</H2>
#         <H3> 1.4500e+003</H3>
#       </CalibrationCoefficients>
#     </OxygenSensor>
#   </sensor>
#   <sensor Channel="5" >
#     <!-- A/D voltage 1, PAR/Logarithmic, Satlantic -->
#     <PARLog_SatlanticSensor SensorID="76" >
#       <SerialNumber>1122</SerialNumber>
#       <CalibrationDate>08-Sep-2021</CalibrationDate>
#       <a0>9.6751e-001</a0>
#       <a1>8.0992e-001</a1>
#       <Im>1.3589e+000</Im>
#       <Multiplier>1.0000e+000</Multiplier>
#     </PARLog_SatlanticSensor>
#   </sensor>
#   <sensor Channel="6" >
#     <!-- A/D voltage 2, pH -->
#     <pH_Sensor SensorID="43" >
#       <SerialNumber>0363</SerialNumber>
#       <CalibrationDate>28-Feb-23</CalibrationDate>
#       <Slope>4.7364</Slope>
#       <Offset>2.5433</Offset>
#     </pH_Sensor>
#   </sensor>
#   <sensor Channel="7" >
#     <!-- A/D voltage 3, Oxidation Reduction Potential -->
#     <OxidationReductionPotentialSensor SensorID="41" >
#       <SerialNumber>0363</SerialNumber>
#       <CalibrationDate>28-Feb-23</CalibrationDate>
#       <B>2.499480</B>
#       <M>-0.496195</M>
#       <Offset>0.0</Offset>
#     </OxidationReductionPotentialSensor>
#   </sensor>
#   <sensor Channel="8" >
#     <!-- A/D voltage 4, Fluorometer, WET Labs ECO-AFL/FL -->
#     <FluoroWetlabECO_AFL_FL_Sensor SensorID="20" >
#       <SerialNumber>FLNTURT-2496</SerialNumber>
#       <CalibrationDate>02-Sep-2021</CalibrationDate>
#       <ScaleFactor>4.80000000e+001</ScaleFactor>
#       <!-- Dark output -->
#       <Vblank>0.0550</Vblank>
#     </FluoroWetlabECO_AFL_FL_Sensor>
#   </sensor>
#   <sensor Channel="9" >
#     <!-- A/D voltage 5, Turbidity Meter, WET Labs, ECO-NTU -->
#     <TurbidityMeter SensorID="67" >
#       <SerialNumber>FLNTURT--2496</SerialNumber>
#       <CalibrationDate>02-Sep-2021</CalibrationDate>
#       <ScaleFactor>197.000000</ScaleFactor>
#       <!-- Dark output -->
#       <DarkVoltage>0.070000</DarkVoltage>
#     </TurbidityMeter>
#   </sensor>
# </Sensors>
# datcnv_date = Jul 30 2024 16:00:14, 7.26.7.129 [datcnv_vars = 14]
# datcnv_in = C:\R\Reservoirs\Data\DataNotYetUploadedToEDI\Raw_CTD\RawDownloads\0730224_fcr50_SB7809_0008.hex C:\R\Reservoirs\Data\DataNotYetUploadedToEDI\Raw_CTD\RawDownloads\SBE19plusV2_7809_start20230701.xmlcon
# datcnv_skipover = 0
# datcnv_ox_hysteresis_correction = yes
# datcnv_ox_tau_correction = yes
# filter_date = Jul 30 2024 16:00:59, 7.26.7.129
# filter_in = C:\R\Reservoirs\Data\DataNotYetUploadedToEDI\Raw_CTD\RawDownloads\0730224_fcr50_SB7809_0008.cnv
# filter_low_pass_tc_A = 0.030
# filter_low_pass_tc_B = 0.150
# filter_low_pass_A_vars = sbeox0Mg/L prdM prdE tv290C
# filter_low_pass_B_vars = depFM dz/dtM sbeox0PS specc c0uS/cm flECO-AFL ph orp par/sat/log turbWETntu0
# alignctd_date = Jul 30 2024 16:01:30, 7.26.7.129
# alignctd_in = C:\R\Reservoirs\Data\DataNotYetUploadedToEDI\Raw_CTD\RawDownloads\0730224_fcr50_SB7809_0008.cnv
# alignctd_adv = dz/dtM 1.000, sbeox0PS 1.000, specc 1.000, c0uS/cm 1.000, flECO-AFL 1.000, ph 1.000, orp 1.000, turbWETntu0 1.000                                                                                                   
# file_type = ascii
*END*
     -0.642 3.4574e-26     8.2278     93.184      0.820   0.761844    -0.0604      5.600   485.1587 2.8461e+02     2.2353     -0.629     -0.913    21.4596 0.0000e+00
     -0.642 3.8032e-25     8.2292     93.215      0.832   0.773245    -0.0645      5.600   485.7753 2.8309e+02     2.1261     -0.630     -0.913    21.4596 0.0000e+00
     -0.642 4.1835e-24     8.2321     93.229      0.844   0.784553    -0.0677      5.600   485.7304 2.9521e+02     1.8726     -0.629     -0.913    21.4598 0.0000e+00
     -0.642 4.6018e-23     8.2304     93.226      0.831   0.771885    -0.0661      5.601   485.8203 3.1357e+02     1.5281     -0.629     -0.913    21.4599 0.0000e+00
     -0.642 5.0620e-22     8.2315     93.231      0.804   0.746758    -0.0705      5.601   486.7772 3.2667e+02     1.3074     -0.629     -0.913    21.4598 0.0000e+00
     -0.642 5.5682e-21     8.2365     93.231      0.790   0.734100    -0.0786      5.600   488.0932 3.3877e+02     1.2194     -0.630     -0.913    21.4599 0.0000e+00
     -0.642 6.1250e-20     8.2374     93.214      0.802   0.745513    -0.0730      5.600   488.4825 3.5686e+02     1.2161     -0.629     -0.913    21.4599 0.0000e+00
     -0.642 6.7375e-19     8.2355     93.201      0.816   0.758076    -0.0614      5.600   488.3006 3.7843e+02     1.2331     -0.630     -0.913    21.4600 0.0000e+00
     -0.642 7.4113e-18     8.2366     93.192      0.817   0.759320    -0.0625      5.600   488.4748 3.9236e+02     1.2211     -0.630     -0.914    21.4599 0.0000e+00
     -0.642 8.1524e-17     8.2384     93.187      0.818   0.760557    -0.0613      5.600   488.7809 3.9961e+02     1.2416     -0.629     -0.913    21.4602 0.0000e+00
     -0.642 8.9676e-16     8.2341     93.196      0.832   0.773036    -0.0464      5.601   489.3355 4.1055e+02     1.2755     -0.629     -0.913    21.4604 0.0000e+00
     -0.642 9.8644e-15     8.2342     93.209      0.843   0.783515    -0.0499      5.601   490.5343 4.2301e+02     1.1866     -0.629     -0.913    21.4603 0.0000e+00
     -0.642 1.0851e-13     8.2332     93.212      0.818   0.760577    -0.0784      5.601   491.4873 4.2917e+02     1.0209     -0.630     -0.913    21.4603 0.0000e+00
     -0.642 1.1936e-12     8.2320     93.202      0.806   0.749062    -0.0913      5.600   492.1683 4.2848e+02     0.9450     -0.629     -0.913    21.4604 0.0000e+00
     -0.642 1.3130e-11     8.2337     93.199      0.830   0.770952    -0.0808      5.600   493.3481 4.2439e+02     0.9522     -0.629     -0.913    21.4604 0.0000e+00
     -0.642 1.4442e-10     8.2349     93.209      0.830   0.771894    -0.0684      5.601   494.6533 4.1574e+02     0.9381     -0.629     -0.913    21.4606 0.0000e+00
     -0.642 1.5887e-09     8.2357     93.208      0.818   0.760455    -0.0663      5.601   494.1832 4.0026e+02     0.8091     -0.630     -0.913    21.4607 0.0000e+00
     -0.642 1.7475e-08     8.2338     93.188      0.817   0.759321    -0.0715      5.601   491.8804 3.8395e+02     0.7239     -0.630     -0.913    21.4608 0.0000e+00
     -0.642 1.9223e-07     8.2328     93.177      0.816   0.758190    -0.0725      5.601   490.9865 3.7058e+02     0.7616     -0.630     -0.913    21.4609 0.0000e+00
     -0.642 3.5242e-07     8.2352     93.181      0.804   0.746770    -0.0705      5.601   492.0656 3.5369e+02     0.7530     -0.630     -0.913    21.4608 0.0000e+00
     -0.642 1.9223e-07     8.2358     93.196      0.805   0.747920    -0.0728      5.600   493.3985 3.3399e+02     0.7230     -0.629     -0.913    21.4609 0.0000e+00
     -0.642 1.7476e-08     8.2318     93.209      0.831   0.772104    -0.0752      5.600   491.0989 3.1579e+02     0.7749     -0.629     -0.913    21.4610 0.0000e+00
     -0.642 1.5887e-09     8.2316     93.201      0.846   0.785819    -0.0664      5.598   450.0655 2.9826e+02     0.8338     -0.630     -0.914    21.4611 0.0000e+00
     -0.642 1.4442e-10     8.2317     93.195      0.847   0.787067    -0.0662      5.596   378.8513 2.8970e+02     0.7853     -0.629     -0.913    21.4613 0.0000e+00
     -0.642 1.3130e-11     8.2331     93.190      0.847   0.787189    -0.0730      5.596   351.2350 2.9264e+02     0.7357     -0.629     -0.913    21.4615 0.0000e+00
     -0.642 1.1936e-12     8.2361     93.086      0.847   0.787304    -0.0569      5.598   362.6620 2.9680e+02     0.7807     -0.629     -0.913    21.4614 0.0000e+00
     -0.642 1.0851e-13     8.2338     92.759      0.848   0.788456    -0.0549      5.599   376.5111 3.0037e+02     0.7830     -0.629     -0.913    21.4613 0.0000e+00
     -0.642 9.8645e-15     8.2319     92.176      0.862   0.801115    -0.0816      5.599   388.9371 3.0520e+02     0.6949     -0.629     -0.912    21.4619 0.0000e+00
     -0.642 8.9675e-16     8.2356     91.404      0.876   0.813681    -0.0885      5.599   391.5011 3.0690e+02     0.6379     -0.629     -0.913    21.4618 0.0000e+00
     -0.642 8.1525e-17     8.2317     90.592      0.876   0.813707    -0.0710      5.599   387.5516 3.0018e+02     0.6741     -0.629     -0.913    21.4617 0.0000e+00
     -0.642 7.4115e-18     8.2029     89.882      0.862   0.801436    -0.0620      5.599   385.2357 2.8681e+02     0.7563     -0.629     -0.913    21.4620 0.0000e+00
     -0.642 6.7375e-19     8.1501     89.330      0.852   0.791986    -0.0716      5.599   386.0420 2.7777e+02     0.7780     -0.629     -0.913    21.4619 0.0000e+00
     -0.642 6.1250e-20     8.0761     88.950      0.889   0.826131    -0.0789      5.598   392.7409 2.7947e+02     0.7653     -0.629     -0.913    21.4619 0.0000e+00
     -0.642 5.5680e-21     7.9991     88.749      0.966   0.897577    -0.0673      5.594   405.5741 2.8607e+02     0.8082     -0.629     -0.913    21.4620 0.0000e+00
     -0.642 5.0620e-22     7.9357     88.723      1.441   1.339143    -0.0557      5.591   413.8690 2.9073e+02     0.7845     -0.629     -0.913    21.4619 0.0000e+00
     -0.642 4.6019e-23     7.8863     88.827      2.067   1.921118    -0.0631      5.594   413.9640 2.9522e+02     0.6837     -0.629     -0.913    21.4620 0.0000e+00
     -0.642 4.1835e-24     7.8532     88.990      1.926   1.789998    -0.0654      5.595   410.4230 3.0512e+02     0.6823     -0.629     -0.912    21.4620 0.0000e+00
     -0.642 3.8035e-25     7.8344     89.155      1.439   1.337439    -0.0500      5.594   409.2554 3.2132e+02     0.7335     -0.629     -0.913    21.4619 0.0000e+00
     -0.642 3.4851e-26     7.8342     89.301      1.223   1.136620    -0.0510      5.594   415.8497 3.4015e+02     0.7219     -0.629     -0.913    21.4621 0.0000e+00
     -0.642 6.1889e-27     7.8454     89.429      1.017   0.945433    -0.0703      5.594   422.0970 3.5626e+02     0.7120     -0.628     -0.912    21.4623 0.0000e+00
     -0.642 3.3789e-26     7.8623     89.536      1.064   0.989345    -0.0838      5.594   423.8760 3.6691e+02     0.7167     -0.629     -0.913    21.4623 0.0000e+00
     -0.642 3.6856e-25     7.8769     89.630      1.794   1.667502    -0.0968      5.595   424.9700 3.7279e+02     0.6766     -0.629     -0.912    21.4622 0.0000e+00
     -0.642 4.0539e-24     7.8894     89.717      2.411   2.240731    -0.1036      5.595   425.8590 3.7450e+02     0.6369     -0.629     -0.913    21.4623 0.0000e+00
     -0.642 4.4593e-23     7.9017     89.796      1.979   1.839374    -0.0911      5.596   428.0009 3.7034e+02     0.6467     -0.628     -0.912    21.4624 0.0000e+00
     -0.642 4.9052e-22     7.9099     89.858      1.207   1.121977    -0.0704      5.596   431.8520 3.5551e+02     0.6929     -0.629     -0.913    21.4625 0.0000e+00
     -0.641 5.3958e-21     7.9188     89.904      0.915   0.851072    -0.0610      5.596   434.6516 3.3261e+02     0.7170     -0.629     -0.912    21.4626 0.0000e+00
     -0.641 5.9353e-20     7.9258     89.947      0.840   0.780853    -0.0692      5.596   435.7807 3.0672e+02     0.6993     -0.628     -0.912    21.4630 0.0000e+00
     -0.641 6.5289e-19     7.9335     89.987      0.839   0.779687    -0.0778      5.597   438.3623 2.7737e+02     0.7175     -0.629     -0.913    21.4628 0.0000e+00
     -0.641 7.1818e-18     7.9390     90.029      0.900   0.836982    -0.0730      5.597   442.2056 2.5323e+02     0.7671     -0.628     -0.912    21.4628 0.0000e+00
     -0.641 7.8999e-17     7.9422     90.073      0.904   0.840209    -0.0695      5.598   444.8215 2.3891e+02     0.7522     -0.628     -0.912    21.4631 0.0000e+00
     -0.641 8.6899e-16     7.9463     90.104      0.881   0.818708    -0.0772      5.598   446.1579 2.2305e+02     0.7072     -0.628     -0.911    21.4631 0.0000e+00
     -0.641 9.5589e-15     7.9497     90.123      0.894   0.830363    -0.0751      5.597   447.1792 2.0176e+02     0.7363     -0.629     -0.912    21.4633 0.0000e+00
     -0.641 1.0515e-13     7.9529     90.144      0.920   0.854455    -0.0597      5.596   447.9638 1.8501e+02     0.7963     -0.628     -0.912    21.4632 0.0000e+00
     -0.641 1.1566e-12     7.9580     90.161      0.922   0.856646    -0.0585      5.597   447.9015 1.7885e+02     0.7837     -0.628     -0.912    21.4635 0.0000e+00
     -0.641 1.2723e-11     7.9604     90.168      0.922   0.856861    -0.0603      5.598   447.2005 1.8169e+02     0.7549     -0.628     -0.911    21.4635 0.0000e+00
     -0.641 1.3995e-10     7.9612     90.192      0.922   0.857046    -0.0481      5.598   446.9726 1.8997e+02     0.7896     -0.628     -0.911    21.4636 0.0000e+00
     -0.640 1.5395e-09     7.9633     90.239      0.924   0.858890    -0.0531      5.598   448.4160 1.9920e+02     0.7933     -0.628     -0.911    21.4639 0.0000e+00
     -0.640 1.6934e-08     7.9656     90.275      0.946   0.879148    -0.0789      5.598   450.1973 2.0769e+02     0.7315     -0.627     -0.910    21.4639 0.0000e+00
     -0.640 1.8628e-07     7.9652     90.303      0.981   0.911969    -0.0931      5.598   450.5277 2.1606e+02     0.6908     -0.628     -0.911    21.4641 0.0000e+00
     -0.640 1.8629e-07     7.9658     90.337      1.011   0.939033    -0.0833      5.598   451.2932 2.2260e+02     0.7111     -0.628     -0.911    21.4642 0.0000e+00
     -0.640 1.7113e-08     7.9729     90.358      1.026   0.953009    -0.0610      5.598   453.3438 2.2428e+02     0.7716     -0.628     -0.911    21.4644 0.0000e+00
     -0.640 3.5038e-09     7.9753     90.389      1.027   0.954279    -0.0566      5.597   455.5325 2.2148e+02     0.7746     -0.628     -0.911    21.4646 0.0000e+00
     -0.640 2.1747e-08     7.9762     90.437      1.027   0.954385    -0.0711      5.597   457.8806 2.1936e+02     0.7473     -0.628     -0.911    21.4645 0.0000e+00
     -0.640 2.3769e-07     7.9819     90.451      1.027   0.954291    -0.0697      5.597   460.6547 2.1982e+02     0.7824     -0.628     -0.911    21.4646 0.0000e+00
     -0.641 4.3575e-07     7.9815     90.436      1.026   0.953139    -0.0651      5.598   463.0912 2.1991e+02     0.7899     -0.628     -0.911    21.4648 0.0000e+00
     -0.641 2.3768e-07     7.9835     90.457      1.012   0.940463    -0.0814      5.598   464.4529 2.1902e+02     0.7344     -0.628     -0.911    21.4650 0.0000e+00
     -0.640 2.1608e-08     7.9910     90.507      0.998   0.927700    -0.0838      5.598   465.1594 2.1820e+02     0.7269     -0.628     -0.911    21.4651 0.0000e+00
     -0.640 1.9655e-09     7.9920     90.534      0.996   0.925500    -0.0612      5.599   465.9550 2.1816e+02     0.7677     -0.627     -0.910    21.4652 0.0000e+00
     -0.640 1.9201e-10     7.9868     90.533      0.984   0.913870    -0.0572      5.599   467.2758 2.1882e+02     0.7497     -0.628     -0.911    21.4653 0.0000e+00
     -0.640 1.6399e-10     7.9891     90.535      0.984   0.913762    -0.0779      5.599   468.3093 2.1973e+02     0.7142     -0.628     -0.911    21.4656 0.0000e+00
     -0.640 1.6268e-09     7.9972     90.574      0.995   0.924198    -0.0861      5.598   469.5022 2.2075e+02     0.7478     -0.628     -0.911    21.4653 0.0000e+00
     -0.640 1.7879e-08     7.9981     90.625      0.983   0.913369    -0.0820      5.597   471.6331 2.2148e+02     0.7465     -0.628     -0.911    21.4659 0.0000e+00
     -0.640 1.9667e-07     7.9979     90.656      0.979   0.909502    -0.0855      5.597   473.4245 2.2205e+02     0.6982     -0.627     -0.910    21.4653 0.0000e+00
     -0.640      0.000     7.9955     90.679      1.012   0.940791    -0.0877      5.597   474.2973 2.2363e+02     0.7106     -0.628     -0.911    21.4664 0.0000e+00
     -0.640      0.000     8.0007     90.708      1.049   0.974979    -0.0757      5.597   472.9798 2.3030e+02     0.8280     -0.628     -0.911    21.4653 0.0000e+00
     -0.640      0.000     8.0066     90.738      1.082   1.006166    -0.0564      5.597   470.4878 2.4334e+02     0.9566     -0.628     -0.912    21.4676 0.0000e+00
     -0.640      0.003     8.0087     90.758      1.475   1.381215    -0.0541      5.597   463.7833 2.5479e+02     0.9331     -0.628     -0.911    21.4640 0.0000e+00
     -0.640      0.012     8.0093     90.752      6.081   5.763010    -0.0482      5.579   401.4660 2.6030e+02     0.9195     -0.628     -0.912    21.4704 0.0000e+00
     -0.640      0.028     8.0137     90.711     16.544  15.839567     0.1487      5.566   273.7746 2.6755e+02     1.1339     -0.627     -0.911    21.4603 0.0000e+00
     -0.639      0.052     8.0145     90.677     28.674  27.838455     2.3596      5.622   178.9766 2.8770e+02     2.9439     -0.628     -0.912    21.4771 0.0000e+00
     -0.629      0.082     8.0197     90.695     38.434  37.790121     6.4174      5.723   148.2736 3.1513e+02     6.2365     -0.625     -0.906    21.4500 0.0000e+00
     -0.604      0.114     8.0040     90.987     42.587  42.278711     8.6268      5.812   137.6924 3.3391e+02     8.0491     -0.596     -0.865    21.5671 0.0000e+00
     -0.565      0.145     7.8774     91.701     42.837  42.900920     8.8645      5.878   132.9499 3.4549e+02     8.1907     -0.556     -0.806    22.3397 0.0000e+00
     -0.518      0.175     7.7240     92.381     42.695  43.092265     9.4161      5.929   129.3054 3.5669e+02     7.9139     -0.510     -0.739    23.3654 0.0000e+00
     -0.466      0.201     7.6093     92.682     42.475  43.132896    10.3946      5.971   124.6012 3.6720e+02     7.4009     -0.456     -0.660    24.1349 0.0000e+00
     -0.413      0.220     7.5430     92.866     42.188  43.011757    10.9158      6.007   120.3817 3.7663e+02     7.0782     -0.405     -0.588    24.6561 0.0000e+00
     -0.358      0.230     7.5694     93.174     41.928  42.833784    10.9571      6.036   116.7480 3.8629e+02     7.0190     -0.354     -0.514    25.0731 0.0000e+00
     -0.294      0.234     7.5821     93.572     41.765  42.694890    11.1104      6.055   113.7053 3.9661e+02     7.0608     -0.291     -0.423    25.4955 0.0000e+00
     -0.224      0.230     7.5448     93.967     41.612  42.538383    11.4128      6.070   111.5551 4.0314e+02     7.1048     -0.217     -0.314    25.8111 0.0000e+00
     -0.160      0.215     7.5275     94.339     41.496  42.401287    11.5828      6.085   109.6794 3.7596e+02     7.1063     -0.153     -0.223    26.0032 0.0000e+00
     -0.104      0.191     7.5420     94.716     41.450  42.306637    11.5935      6.100   107.8035 3.0426e+02     7.0790     -0.103     -0.150    26.1007 0.0000e+00
     -0.054      0.160     7.5756     95.131     41.485  42.282479    11.6342      6.115   106.4253 2.5003e+02     7.0485     -0.049     -0.071    26.1164 0.0000e+00
     -0.016      0.125     7.6085     95.584     41.661  42.426435    11.7328      6.129   105.5775 2.3799e+02     7.0788     -0.008     -0.011    26.1111 0.0000e+00
      0.005      0.093     7.6386     95.958     41.877  42.650819    11.7961      6.141   105.2958 2.3316e+02     7.1382      0.007      0.010    26.1023 0.0000e+00
      0.019      0.065     7.6776     96.131     41.972  42.774040    11.8091      6.153   104.9989 2.2933e+02     7.1176      0.018      0.027    26.0360 0.0000e+00
      0.031      0.041     7.7233     96.146     41.946  42.773876    11.8564      6.165   104.6549 2.2795e+02     7.0006      0.032      0.047    25.9390 0.0000e+00
      0.037      0.024     7.7707     96.095     41.928  42.775815    11.9434      6.176   104.7507 2.2715e+02     6.8503      0.037      0.054    25.8931 0.0000e+00
      0.038      0.014     7.8051     95.996     41.989  42.860989    11.9946      6.187   105.1247 2.2819e+02     6.8037      0.038      0.055    25.9093 0.0000e+00
      0.038      0.008     7.8098     95.869     42.080  42.978618    12.0179      6.197   105.5632 2.2764e+02     6.8815      0.038      0.055    25.9515 0.0000e+00
      0.039      0.005     7.8026     95.747     42.139  43.055612    12.0341      6.207   106.0091 2.2689e+02     6.9025      0.038      0.055    25.9851 0.0000e+00
      0.039      0.005     7.7964     95.653     42.168  43.093759    12.0404      6.216   106.3861 2.2726e+02     6.8180      0.038      0.055    26.0036 0.0000e+00
      0.040      0.006     7.7845     95.865     42.192  43.122501    12.0608      6.224   106.4210 2.2654e+02     6.7486      0.039      0.056    26.0307 0.0000e+00
      0.043      0.006     7.7661     96.665     42.214  43.149252    12.0803      6.231   106.1729 2.2503e+02     6.7467      0.042      0.061    26.0664 0.0000e+00
      0.046      0.006     7.7565     97.519     42.224  43.163317    12.0938      6.236   106.3118 2.2449e+02     6.7952      0.045      0.067    26.0859 0.0000e+00
      0.048      0.005     7.7418     97.648     42.220  43.165626    12.1314      6.242   106.9819 2.2452e+02     6.8221      0.047      0.069    26.0916 0.0000e+00
      0.049      0.004     7.7364     97.026     42.225  43.177176    12.1778      6.248   107.7368 2.2473e+02     6.7990      0.048      0.069    26.0960 0.0000e+00
      0.049      0.002     7.8224     95.835     42.220  43.176029    12.1889      6.255   107.7808 2.2547e+02     6.7892      0.048      0.069    26.1010 0.0000e+00
      0.049      0.001     7.9274     94.090     42.195  43.151764    12.1821      6.261   106.9973 2.2610e+02     6.7720      0.048      0.069    26.1060 0.0000e+00
      0.049      0.001     7.9254     91.989     42.181  43.137694    12.1946      6.267   106.3508 2.2672e+02     6.7955      0.048      0.070    26.1131 0.0000e+00
      0.049      0.001     7.8660     89.766     42.176  43.132848    12.2156      6.275   106.3314 2.2776e+02     6.8690      0.048      0.069    26.1226 0.0000e+00
      0.049      0.003     7.7757     87.542     42.139  43.093163    12.2120      6.283   106.5916 2.2833e+02     6.8415      0.048      0.070    26.1282 0.0000e+00
      0.049      0.007     7.6245     85.610     42.027  42.975227    12.1925      6.289   106.2267 2.2855e+02     6.8042      0.048      0.070    26.1287 0.0000e+00
      0.050      0.013     7.4464     84.417     41.848  42.785904    12.1714      6.291   105.3613 2.2820e+02     6.8622      0.049      0.071    26.1282 0.0000e+00
      0.051      0.018     7.2665     84.057     41.723  42.644721    12.1484      6.289   105.1623 2.2662e+02     6.9280      0.049      0.071    26.1289 0.0000e+00
      0.056      0.022     7.0803     84.283     41.755  42.664528    12.1465      6.285   106.0576 2.2338e+02     6.9507      0.053      0.077    26.1262 0.0000e+00
      0.066      0.025     6.9046     84.902     41.866  42.771484    12.1491      6.280   107.4099 2.1917e+02     6.8974      0.064      0.092    26.1231 0.0000e+00
      0.078      0.026     6.8065     85.735     41.954  42.858913    12.1376      6.276   108.0047 2.1612e+02     6.8638      0.078      0.112    26.1178 0.0000e+00
      0.086      0.024     6.7928     86.519     41.991  42.896502    12.1328      6.272   107.4855 2.1461e+02     6.9548      0.086      0.125    26.0980 0.0000e+00
      0.091      0.019     6.8158     87.001     42.002  42.908612    12.1414      6.270   106.8105 2.1371e+02     7.0758      0.090      0.130    26.0806 0.0000e+00
      0.093      0.013     6.8710     87.014     42.033  42.941857    12.1585      6.270   106.4688 2.1280e+02     7.1298      0.092      0.133    26.0739 0.0000e+00
      0.095      0.008     6.9479     86.543     42.070  42.981115    12.1649      6.272   106.1067 2.1175e+02     7.0961      0.093      0.135    26.0718 0.0000e+00
      0.096      0.005     7.0182     85.767     42.089  43.002457    12.1609      6.277   106.0457 2.1074e+02     7.0446      0.094      0.136    26.0718 0.0000e+00
      0.096      0.005     7.0625     84.962     42.092  43.009494    12.1758      6.284   106.3333 2.1026e+02     7.0541      0.094      0.136    26.0730 0.0000e+00
      0.097      0.006     7.0645     84.393     42.082  43.002728    12.2038      6.291   106.4008 2.1019e+02     7.1076      0.095      0.137    26.0754 0.0000e+00
      0.098      0.007     7.0198     84.201     42.061  42.984130    12.2165      6.296   106.3468 2.1003e+02     7.1786      0.096      0.139    26.0754 0.0000e+00
      0.100      0.007     6.9488     84.419     42.049  42.975049    12.2038      6.302   106.3682 2.0995e+02     7.1947      0.098      0.143    26.0773 0.0000e+00
      0.103      0.007     6.8742     85.032     42.088  43.019874    12.1840      6.309   106.9175 2.0974e+02     7.1325      0.100      0.146    26.0824 0.0000e+00
      0.106      0.006     6.8235     85.927     42.142  43.081807    12.1765      6.318   107.8264 2.0908e+02     7.0756      0.104      0.150    26.0890 0.0000e+00
      0.108      0.004     6.8080     86.918     42.145  43.089173    12.1802      6.325   108.1510 2.0839e+02     7.0875      0.106      0.154    26.0924 0.0000e+00
      0.108      0.002     6.8246     87.827     42.100  43.045476    12.1950      6.330   108.0894 2.0782e+02     7.0716      0.105      0.152    26.0924 0.0000e+00
      0.108     -0.003     6.8773     88.533     41.932  42.870828    12.2057      6.334   107.4254 2.0721e+02     6.9176      0.106      0.153    26.0995 0.0000e+00
      0.107     -0.019     6.9542     88.995     41.646  42.564279    12.1928      6.334   106.4034 2.0707e+02     6.7963      0.105      0.152    26.1102 0.0000e+00
      0.107     -0.051     7.0385     89.140     41.506  42.385580    12.1731      6.327   106.4018 2.0757e+02     6.8007      0.104      0.151    26.1159 0.0000e+00
      0.105     -0.098     7.1164     88.959     41.666  42.487312    12.1412      6.316   107.4919 2.1026e+02     6.8337      0.105      0.152    26.1179 0.0000e+00
      0.091     -0.147     7.1726     88.711     42.018  42.778712    12.0907      6.302   108.9147 2.2344e+02     6.8547      0.100      0.144    26.1190 0.0000e+00
      0.047     -0.182     7.2142     88.702     42.254  42.989126    12.0621      6.284   109.8386 2.6036e+02     6.8483      0.062      0.091    26.1052 0.0000e+00
     -0.036     -0.195     7.2349     88.991     42.117  42.873341    12.0449      6.270   109.7150 3.0463e+02     6.8251     -0.030     -0.044    26.0662 0.0000e+00
     -0.129     -0.186     7.2205     89.476     41.792  42.584759    12.0074      6.264   108.7957 3.2048e+02     6.8134     -0.140     -0.203    25.9878 0.0000e+00
     -0.192     -0.155     7.2024     89.998     41.619  42.419620    11.9844      6.263   108.0154 3.1524e+02     6.8784     -0.206     -0.299    25.8802 0.0000e+00
     -0.214     -0.108     7.2084     90.388     41.648  42.399974    11.9906      6.266   107.5947 3.1427e+02     6.9619     -0.217     -0.315    25.8348 0.0000e+00
     -0.214     -0.057     7.2288     90.548     41.743  42.410608    11.9820      6.273   107.1504 3.1902e+02     6.9334     -0.210     -0.305    25.8832 0.0000e+00
     -0.208     -0.015     7.2626     90.495     41.828  42.421118    11.9141      6.282   106.9457 3.2292e+02     6.9095     -0.205     -0.297    25.9574 0.0000e+00
     -0.203      0.010     7.3071     90.300     41.916  42.463476    11.8183      6.288   107.6147 3.2496e+02     6.9809     -0.198     -0.286    25.9871 0.0000e+00
     -0.198      0.024     7.3510     90.034     41.953  42.478388    11.7808      6.286   108.5278 3.2630e+02     7.0454     -0.195     -0.282    25.9156 0.0000e+00
     -0.197      0.037     7.3806     89.792     41.891  42.410973    11.7861      6.281   108.2631 3.2629e+02     7.1093     -0.193     -0.280    25.7850 0.0000e+00
     -0.194      0.049     7.3866     89.690     41.814  42.346528    11.7737      6.282   107.5126 3.2726e+02     7.1382     -0.193     -0.280    25.6879 0.0000e+00
     -0.182      0.062     7.3763     89.800     41.784  42.333913    11.7726      6.287   108.0574 3.3068e+02     7.0182     -0.187     -0.271    25.6383 0.0000e+00
     -0.155      0.079     7.3546     90.025     41.768  42.321942    11.7972      6.287   109.3432 3.3324e+02     6.8543     -0.153     -0.222    25.6142 0.0000e+00
     -0.125      0.094     7.3328     90.134     41.708  42.265260    11.8061      6.287   109.6377 3.3342e+02     6.8313     -0.116     -0.168    25.6041 0.0000e+00
     -0.105      0.100     7.3179     90.004     41.649  42.219799    11.8046      6.289   109.1229 3.1992e+02     6.9111     -0.105     -0.153    25.6283 0.0000e+00
     -0.079      0.094     7.3250     89.669     41.631  42.216574    11.8209      6.294   108.7112 2.8710e+02     6.9644     -0.085     -0.124    25.6619 0.0000e+00
     -0.042      0.080     7.3534     89.139     41.634  42.226299    11.8529      6.299   109.2205 2.6155e+02     6.9972     -0.036     -0.052    25.6580 0.0000e+00
     -0.016      0.063     7.3666     88.374     41.672  42.273922    11.8838      6.307   110.4623 2.5768e+02     7.0342     -0.007     -0.010    25.6529 0.0000e+00
     -0.006      0.046     7.3489     87.433     41.726  42.348112    11.9111      6.317   111.0783 2.5969e+02     7.0699     -0.005     -0.007    25.6790 0.0000e+00
     -0.005      0.029     7.3183     86.444     41.767  42.425187    11.9832      6.327   110.9039 2.5932e+02     7.0535     -0.004     -0.006    25.7038 0.0000e+00
     -0.005      0.014     7.2782     85.464     41.800  42.507727    12.0814      6.339   110.5043 2.6045e+02     6.9386     -0.005     -0.008    25.7027 0.0000e+00
     -0.005      0.007     7.2127     84.436     41.822  42.584532    12.1165      6.353   110.3758 2.6184e+02     6.8423     -0.006     -0.008    25.7088 0.0000e+00
     -0.005      0.007     7.1279     83.360     41.846  42.655734    12.1075      6.367   110.6417 2.6109e+02     6.8451     -0.005     -0.008    25.7348 0.0000e+00
     -0.003      0.009     7.0397     82.344     41.886  42.733993    12.1061      6.379   110.9660 2.6086e+02     6.9047     -0.004     -0.005    25.7733 0.0000e+00
      0.001      0.010     6.9557     81.534     41.951  42.832633    12.1077      6.392   111.2849 2.5952e+02     6.9483      0.001      0.002    25.8382 0.0000e+00
      0.006      0.010     6.8634     81.101     42.048  42.959842    12.0947      6.404   111.5721 2.5504e+02     6.8940      0.007      0.010    25.9100 0.0000e+00
      0.010      0.009     6.7645     81.141     42.129  43.066158    12.0739      6.416   111.0840 2.5264e+02     6.7935      0.011      0.015    25.9649 0.0000e+00
      0.012      0.008     6.6741     81.577     42.144  43.102591    12.0729      6.428   109.9420 2.5348e+02     6.7588      0.012      0.017    26.0083 0.0000e+00
      0.012      0.008     6.5975     82.246     42.109  43.083016    12.0824      6.438   109.2940 2.5368e+02     6.8154      0.012      0.017    26.0455 0.0000e+00
      0.012      0.009     6.5549     83.033     42.043  43.019916    12.0881      6.445   109.3574 2.5276e+02     6.8978      0.012      0.017    26.0791 0.0000e+00
      0.013      0.010     6.5573     83.856     42.011  42.974383    12.0836      6.454   109.9343 2.5079e+02     6.9009      0.012      0.018    26.1090 0.0000e+00
      0.016      0.011     6.5965     84.636     42.029  42.976762    12.0690      6.461   110.0741 2.4770e+02     6.8529      0.015      0.022    26.1318 0.0000e+00
      0.021      0.011     6.6501     85.333     42.040  42.985179    12.0784      6.467   109.5853 2.4528e+02     6.8296      0.022      0.031    26.1536 0.0000e+00
      0.026      0.010     6.7143     85.928     42.058  43.012682    12.1214      6.472   109.6172 2.4422e+02     6.8243      0.028      0.040    26.1655 0.0000e+00
      0.029      0.009     6.7870     86.415     42.086  43.055426    12.1488      6.477   109.7716 2.4319e+02     6.8570      0.029      0.042    26.1424 0.0000e+00
      0.029      0.006     6.8539     86.757     42.076  43.057712    12.1356      6.481   109.4741 2.4224e+02     6.8834      0.029      0.042    26.1128 0.0000e+00
      0.029      0.002     6.9118     86.852     42.053  43.040341    12.1192      6.485   109.1173 2.4197e+02     6.8365      0.029      0.042    26.1107 0.0000e+00
      0.029      0.000     6.9576     86.591     42.048  43.035816    12.1257      6.490   108.7263 2.4202e+02     6.8027      0.029      0.042    26.1269 0.0000e+00
      0.029 4.4506e-08     6.9946     85.941     42.018  43.003007    12.1467      6.495   108.5324 2.4194e+02     6.8504      0.029      0.042    26.1473 0.0000e+00
      0.029 4.8957e-07     7.0242     84.965     41.982  42.961002    12.1659      6.501   108.6664 2.4177e+02     6.9005      0.029      0.042    26.1629 0.0000e+00
      0.029 4.8957e-07     7.0341     83.756     41.999  42.972224    12.1748      6.507   108.7976 2.4156e+02     6.8616      0.029      0.042    26.1703 0.0000e+00
      0.029 4.4506e-08     7.0148     82.479     42.169  43.138689    12.1797      6.513   108.9993 2.4103e+02     6.7906      0.029      0.042    26.1703 0.0000e+00
      0.030 4.0460e-09     6.9594     81.654     42.476  43.450372    12.1830      6.518   109.3848 2.3997e+02     6.7936      0.029      0.042    26.1664 0.0000e+00
      0.030 3.6782e-10     6.8794     82.541     42.697  43.694082    12.1979      6.522   109.7590 2.3877e+02     6.8629      0.029      0.042    26.1608 0.0000e+00
      0.030 3.3438e-11     6.7787     86.370     42.768  43.800362    12.2517      6.526   110.0820 2.3796e+02     6.9451      0.029      0.042    26.1545 0.0000e+00
      0.030 3.0398e-12     6.6672     92.627     42.781  43.846826    12.3175      6.529   110.5370 2.3728e+02     6.9344      0.029      0.042    26.1434 0.0000e+00
      0.030 2.7637e-13     6.5658     99.520     42.785  43.875073    12.3441      6.533   110.8725 2.3671e+02     6.8361      0.030      0.043    26.1309 0.0000e+00
      0.030 2.5296e-14     6.5756    105.614     42.782  43.888035    12.3487      6.537   110.9552 2.3653e+02     6.8146      0.030      0.043    26.1520 0.0000e+00
      0.030 4.1956e-15     6.9025    110.285     42.762  43.876633    12.3489      6.541   111.1923 2.3636e+02     6.9143      0.029      0.042    26.2029 0.0000e+00
      0.030 2.1237e-14     7.4703    113.459     42.745  43.864167    12.3381      6.543   111.5888 2.3593e+02     7.0504      0.030      0.043    26.2425 0.0000e+00
      0.030 2.3134e-13     8.0604    115.136     42.743  43.864272    12.3263      6.546   111.9628 2.3583e+02     7.0935      0.029      0.042    26.2705 0.0000e+00
      0.030 2.5446e-12     8.5682    115.386     42.755  43.877901    12.3143      6.550   111.8434 2.3671e+02     7.0605      0.030      0.043    26.2896 0.0000e+00
      0.030 2.7990e-11     8.9379    114.545     42.780  43.902014    12.3085      6.554   111.2635 2.3835e+02     7.0614      0.030      0.043    26.2992 0.0000e+00
      0.030 3.0789e-10     9.1959    113.173     42.781  43.901917    12.3154      6.559   111.2317 2.4005e+02     7.0356      0.030      0.043    26.3040 0.0000e+00
      0.030 3.3868e-09     9.3306    111.861     42.757  43.876728    12.3226      6.564   111.6316 2.4162e+02     6.9537      0.030      0.043    26.3055 0.0000e+00
      0.030 3.7255e-08     9.3402    110.926     42.732  43.851349    12.3286      6.569   111.7109 2.4328e+02     6.8914      0.030      0.043    26.3073 0.0000e+00
      0.030 4.0981e-07     9.2565    110.327     42.732  43.848956    12.3383      6.575   111.4152 2.4472e+02     6.8632      0.030      0.043    26.3063 0.0000e+00
      0.030      0.000     9.1260    109.912     42.736  43.847795    12.3895      6.582   110.9826 2.4577e+02     6.8517      0.030      0.043    26.3031 0.0000e+00
      0.030      0.000     9.0115    109.619     42.735  43.837305    12.4901      6.588   110.6956 2.4644e+02     6.8548      0.030      0.043    26.3024 0.0000e+00
      0.030      0.001     8.9389    109.423     42.755  43.849046    12.5485      6.593   110.6988 2.4641e+02     6.8998      0.030      0.043    26.3029 0.0000e+00
      0.031      0.001     8.8976    109.293     42.772  43.862798    12.5459      6.599   111.1924 2.4590e+02     6.9523      0.030      0.044    26.3032 0.0000e+00
      0.031      0.001     8.8647    109.218     42.783  43.876628    12.5333      6.605   111.6739 2.4530e+02     6.9092      0.030      0.044    26.2963 0.0000e+00
      0.031      0.001     8.8445    109.189     42.788  43.889321    12.5217      6.609   111.4443 2.4473e+02     6.7888      0.031      0.044    26.2810 0.0000e+00
      0.031      0.001     8.8317    109.170     42.782  43.889328    12.5306      6.613   111.0841 2.4420e+02     6.7603      0.031      0.044    26.2702 0.0000e+00
      0.032      0.001     8.8217    109.120     42.764  43.876729    12.5571      6.618   110.9312 2.4375e+02     6.8721      0.031      0.045    26.2659 0.0000e+00
      0.032      0.001     8.8153    109.035     42.747  43.863940    12.5424      6.622   111.4892 2.4372e+02     7.0124      0.032      0.046    26.2697 0.0000e+00
      0.033      0.001     8.8119    108.935     42.741  43.861652    12.4855      6.627   112.7543 2.4410e+02     7.0913      0.032      0.047    26.2809 0.0000e+00
      0.033      0.001     8.8114    108.845     42.727  43.849069    12.4437      6.632   113.3212 2.4453e+02     7.0747      0.032      0.047    26.2893 0.0000e+00
      0.033      0.001     8.8057    108.829     42.715  43.838759    12.4285      6.638   113.0098 2.4477e+02     7.0498      0.033      0.047    26.2949 0.0000e+00
      0.033      0.001     8.7975    108.925     42.739  43.863938    12.4427      6.643   112.5172 2.4445e+02     7.0981      0.033      0.047    26.3007 0.0000e+00
      0.034      0.001     8.7883    109.060     42.775  43.899608    12.4740      6.648   113.0431 2.4369e+02     7.1459      0.033      0.048    26.3051 0.0000e+00
      0.034      0.001     8.7789    109.156     42.769  43.889203    12.4900      6.653   114.4643 2.4282e+02     7.1153      0.033      0.048    26.3075 0.0000e+00
      0.034      0.000     8.7747    109.232     42.753  43.865073    12.4874      6.659   115.0744 2.4177e+02     7.0698      0.034      0.049    26.3079 0.0000e+00
      0.034 1.7088e-08     8.7852    109.289     42.759  43.861736    12.5251      6.664   114.6550 2.4086e+02     7.0739      0.033      0.048    26.3103 0.0000e+00
      0.034 1.8797e-07     8.8005    109.300     42.756  43.848845    12.6211      6.668   113.9538 2.4025e+02     7.0969      0.033      0.048    26.3104 0.0000e+00
      0.034 1.8797e-07     8.8055    109.260     42.750  43.836133    12.6751      6.673   113.7369 2.3960e+02     7.1433      0.034      0.049    26.3042 0.0000e+00
      0.034 1.7088e-08     8.8144    109.180     42.751  43.834978    12.6782      6.677   114.0983 2.3890e+02     7.1553      0.033      0.048    26.2952 0.0000e+00
      0.034 1.5535e-09     8.8219    109.109     42.750  43.834883    12.6753      6.682   114.5368 2.3835e+02     7.1061      0.033      0.048    26.2836 0.0000e+00
      0.034 1.4122e-10     8.8243    109.064     42.750  43.834977    12.6484      6.685   114.9098 2.3809e+02     7.1627      0.033      0.048    26.2708 0.0000e+00
      0.034 1.2839e-11     8.8235    109.022     42.754  43.836112    12.6196      6.689   115.2517 2.3804e+02     7.3279      0.033      0.048    26.2613 0.0000e+00
      0.034 1.1672e-12     8.8144    108.991     42.770  43.848608    12.6183      6.694   114.9704 2.3810e+02     7.4299      0.034      0.049    26.2606 0.0000e+00
      0.034 1.0651e-13     8.8078    108.971     42.781  43.859119    12.6239      6.699   114.3482 2.3825e+02     7.4393      0.033      0.048    26.2626 0.0000e+00
      0.034 1.4074e-14     8.8060    108.937     42.755  43.836248    12.5713      6.703   114.4399 2.3821e+02     7.3396      0.034      0.049    26.2632 0.0000e+00
      0.034 4.9586e-14     8.8021    108.918     42.740  43.825964    12.4728      6.707   114.7881 2.3803e+02     7.1800      0.034      0.049    26.2598 0.0000e+00
      0.034 5.3588e-13     8.7999    108.951     42.770  43.861739    12.4326      6.711   115.1167 2.3787e+02     7.1158      0.034      0.049    26.2536 0.0000e+00
      0.034 5.8938e-12     8.8008    109.005     42.793  43.887959    12.4429      6.715   114.9720 2.3779e+02     7.1096      0.033      0.048    26.2522 0.0000e+00
      0.034 6.4832e-11     8.7959    109.059     42.797  43.889094    12.4974      6.718   114.1579 2.3793e+02     7.0369      0.033      0.049    26.2571 0.0000e+00
      0.034 7.1315e-10     8.7910    109.129     42.785  43.875462    12.5924      6.722   113.8768 2.3806e+02     6.9202      0.034      0.050    26.2636 0.0000e+00
      0.034 7.8446e-09     8.7946    109.226     42.755  43.850082    12.6338      6.726   114.1543 2.3820e+02     6.8942      0.034      0.049    26.2725 0.0000e+00
      0.035 8.6291e-08     8.7985    109.322     42.736  43.836130    12.6402      6.729   114.4157 2.3874e+02     6.9616      0.034      0.050    26.2781 0.0000e+00
      0.035 1.5820e-07     8.8035    109.342     42.731  43.833726    12.6700      6.731   114.0257 2.3940e+02     6.9839      0.034      0.050    26.2688 0.0000e+00
      0.035 8.6290e-08     8.8099    109.277     42.721  43.821021    12.7029      6.734   112.8811 2.3979e+02     6.9239      0.034      0.050    26.2642 0.0000e+00
      0.035 7.8445e-09     8.8155    109.183     42.717  43.809462    12.7138      6.738   112.1920 2.4000e+02     6.8513      0.034      0.049    26.2746 0.0000e+00
      0.034 7.1315e-10     8.8265    109.103     42.745  43.820901    12.7021      6.742   112.4044 2.4031e+02     6.8238      0.034      0.049    26.2823 0.0000e+00
      0.034 6.4830e-11     8.8273    109.064     42.777  43.832361    12.6108      6.744   112.8682 2.4068e+02     6.8648      0.034      0.049    26.2844 0.0000e+00
      0.034 5.8935e-12     8.8194    109.059     42.782  43.821032    12.4424      6.747   113.0675 2.4090e+02     6.9362      0.033      0.048    26.2842 0.0000e+00
      0.035 5.3582e-13     8.8125    109.046     42.778  43.810855    12.3473      6.749   113.0078 2.4079e+02     6.9360      0.034      0.049    26.2776 0.0000e+00
      0.035 4.8937e-14     8.8081    109.021     42.800  43.836254    12.3344      6.752   112.9201 2.4043e+02     6.8630      0.034      0.049    26.2552 0.0000e+00
      0.035 6.9493e-15     8.8106    109.021     42.831  43.874233    12.3197      6.754   112.9531 2.4019e+02     6.8041      0.034      0.050    26.2227 0.0000e+00
      0.035 2.8137e-14     8.8151    109.044     42.841  43.889226    12.2858      6.757   113.1486 2.4024e+02     6.8042      0.034      0.049    26.2030 0.0000e+00
      0.035 3.0512e-13     8.8153    109.068     42.838  43.890587    12.2408      6.760   113.6497 2.4032e+02     6.8650      0.034      0.050    26.1982 0.0000e+00
      0.035 3.3559e-12     8.8099    109.102     42.833  43.890701    12.2253      6.762   114.2797 2.4029e+02     6.8900      0.034      0.049    26.2035 0.0000e+00
      0.035 3.6915e-11     8.8093    109.153     42.827  43.890606    12.2320      6.764   114.3992 2.4037e+02     6.8335      0.034      0.049    26.2122 0.0000e+00
      0.035 4.0606e-10     8.8114    109.227     42.819  43.889452    12.3051      6.767   114.0616 2.4055e+02     6.8303      0.034      0.050    26.2187 0.0000e+00
      0.035 4.4667e-09     8.8113    109.289     42.801  43.876757    12.4595      6.770   113.8118 2.4069e+02     6.9208      0.034      0.050    26.2229 0.0000e+00
      0.035 4.9134e-08     8.8140    109.296     42.788  43.864062    12.5502      6.772   114.0460 2.4066e+02     6.9708      0.034      0.049    26.2271 0.0000e+00
      0.035 5.4047e-07     8.8159    109.281     42.792  43.862909    12.5619      6.774   114.5707 2.4054e+02     6.9567      0.034      0.049    26.2353 0.0000e+00
      0.035      0.000     8.8214    109.276     42.796  43.862814    12.5843      6.776   114.6486 2.4061e+02     6.9211      0.033      0.048    26.2441 0.0000e+00
      0.035      0.000     8.8281    109.245     42.796  43.862909    12.6216      6.778   114.1279 2.4074e+02     6.8820      0.034      0.049    26.2523 0.0000e+00
      0.035      0.001     8.8260    109.180     42.794  43.864062    12.6466      6.780   113.3510 2.4072e+02     6.9276      0.035      0.050    26.2533 0.0000e+00
      0.035      0.003     8.8248    109.136     42.800  43.876747    12.6535      6.780   113.3430 2.4079e+02     6.9939      0.034      0.049    26.2444 0.0000e+00
      0.035      0.007     8.8276    109.164     42.799  43.889344    12.5388      6.773   114.4619 2.4078e+02     6.9320      0.034      0.050    26.2378 0.0000e+00
      0.036      0.012     8.8253    109.254     42.780  43.889444    12.2997      6.757   115.6070 2.3988e+02     6.8287      0.034      0.050    26.2406 0.0000e+00
      0.038      0.017     8.8172    109.341     42.754  43.877986    12.1597      6.740   116.1762 2.3814e+02     6.8042      0.036      0.052    26.2434 0.0000e+00
      0.044      0.020     8.8111    109.341     42.749  43.877786    12.1446      6.727   116.4400 2.3449e+02     6.8063      0.042      0.059    26.2481 0.0000e+00
      0.054      0.021     8.8109    109.251     42.764  43.887031    12.1748      6.720   116.8179 2.3000e+02     6.8544      0.054      0.078    26.2656 0.0000e+00
      0.064      0.019     8.8162    109.141     42.751  43.862797    12.2415      6.717   117.2176 2.2794e+02     6.9416      0.066      0.095    26.2911 0.0000e+00
      0.068      0.015     8.8227    109.029     42.738  43.838659    12.2779      6.717   117.4862 2.2735e+02     6.9046      0.068      0.099    26.3128 0.0000e+00
      0.069      0.010     8.8223    108.922     42.754  43.849054    12.2649      6.720   117.7431 2.2726e+02     6.8169      0.068      0.099    26.3192 0.0000e+00
      0.069      0.005     8.8124    108.862     42.766  43.861529    12.2585      6.723   117.7429 2.2741e+02     6.8374      0.068      0.099    26.3098 0.0000e+00
      0.069      0.002     8.8070    108.854     42.766  43.862549    12.3509      6.727   117.4839 2.2742e+02     6.9815      0.068      0.099    26.2929 0.0000e+00
      0.069      0.000     8.8006    108.861     42.764  43.861394    12.5258      6.731   117.4507 2.2758e+02     7.1249      0.068      0.099    26.2790 0.0000e+00
      0.069 3.0779e-08     8.7903    108.834     42.753  43.847554    12.6158      6.734   117.6855 2.2762e+02     7.1018      0.068      0.099    26.2727 0.0000e+00
      0.069 3.3857e-07     8.7861    108.793     42.730  43.822167    12.6067      6.739   117.9995 2.2758e+02     7.0097      0.068      0.099    26.2730 0.0000e+00
      0.069 3.9282e-07     8.7852    108.803     42.717  43.808328    12.6324      6.745   117.9781 2.2748e+02     6.9341      0.068      0.099    26.2772 0.0000e+00
      0.069 8.9965e-08     8.7885    108.874     42.717  43.807174    12.7180      6.750   117.5986 2.2744e+02     6.9037      0.068      0.098    26.2778 0.0000e+00
      0.069 8.1785e-09     8.7860    108.969     42.720  43.808224    12.7767      6.754   117.4551 2.2760e+02     6.9501      0.068      0.099    26.2741 0.0000e+00
      0.070 7.4350e-10     8.7798    109.051     42.735  43.821013    12.7851      6.759   117.5335 2.2765e+02     6.9487      0.068      0.099    26.2719 0.0000e+00
      0.070 6.7590e-11     8.7811    109.106     42.747  43.834850    12.8687      6.764   117.6863 2.2750e+02     6.8872      0.068      0.099    26.2716 0.0000e+00
      0.070 6.1445e-12     8.7880    109.148     42.760  43.848584    13.0463      6.768   117.7537 2.2744e+02     6.8551      0.068      0.099    26.2703 0.0000e+00
      0.070 5.5860e-13     8.7978    109.197     42.773  43.860127    13.1519      6.772   117.6601 2.2760e+02     6.8676      0.068      0.099    26.2663 0.0000e+00
      0.070 5.0788e-14     8.8052    109.251     42.765  43.847462    13.1632      6.777   117.6731 2.2771e+02     6.9031      0.069      0.100    26.2630 0.0000e+00
      0.070 4.6994e-15     8.8085    109.244     42.746  43.822389    13.0663      6.782   117.7389 2.2761e+02     6.8732      0.068      0.099    26.2666 0.0000e+00
      0.070 1.3308e-15     8.8111    109.139     42.741  43.810859    12.8716      6.786   117.8531 2.2750e+02     6.7802      0.069      0.100    26.2700 0.0000e+00
      0.070 1.0060e-14     8.8146    108.986     42.771  43.834990    12.7649      6.789   118.1073 2.2739e+02     6.7685      0.069      0.100    26.2655 0.0000e+00
      0.070 1.1025e-13     8.8230    108.852     42.803  43.860257    12.7747      6.793   118.3177 2.2724e+02     6.8342      0.068      0.099    26.2594 0.0000e+00
      0.070 1.2127e-12     8.8253    108.750     42.808  43.862451    12.8409      6.798   118.4184 2.2700e+02     6.8578      0.068      0.099    26.2526 0.0000e+00
      0.070 1.3339e-11     8.8156    108.685     42.806  43.861516    12.9149      6.803   118.5508 2.2665e+02     6.8151      0.068      0.099    26.2465 0.0000e+00
      0.070 1.4673e-10     8.8016    108.689     42.791  43.848943    12.9297      6.807   118.7133 2.2634e+02     6.7617      0.069      0.100    26.2391 0.0000e+00
      0.070 1.6140e-09     8.7933    108.777     42.776  43.837384    12.9193      6.812   118.8342 2.2604e+02     6.7580      0.069      0.100    26.2265 0.0000e+00
      0.070 1.7755e-08     8.7859    108.870     42.783  43.848715    12.9306      6.816   118.8937 2.2556e+02     6.8386      0.068      0.099    26.2222 0.0000e+00
      0.070 1.9530e-07     8.7787    108.883     42.791  43.859006    12.9506      6.820   118.9169 2.2508e+02     6.9514      0.068      0.099    26.2264 0.0000e+00
      0.070 3.5805e-07     8.7771    108.878     42.766  43.834866    12.9526      6.823   118.9428 2.2478e+02     6.9600      0.069      0.100    26.2298 0.0000e+00
      0.070 1.9530e-07     8.7859    108.929     42.740  43.810734    12.9379      6.827   118.9484 2.2454e+02     6.8749      0.069      0.100    26.2345 0.0000e+00
      0.070 1.7755e-08     8.7980    109.033     42.749  43.821130    12.9313      6.831   118.9853 2.2434e+02     6.8102      0.069      0.100    26.2398 0.0000e+00
      0.070 1.6141e-09     8.7941    109.132     42.761  43.833616    12.9564      6.834   119.0448 2.2411e+02     6.8269      0.068      0.099    26.2416 0.0000e+00
      0.070 1.4673e-10     8.7915    109.190     42.763  43.834761    12.9999      6.837   119.1513 2.2376e+02     6.9057      0.069      0.100    26.2427 0.0000e+00
      0.070 1.3339e-11     8.7952    109.222     42.763  43.834968    13.0075      6.839   119.3260 2.2354e+02     6.9097      0.068      0.099    26.2466 0.0000e+00
      0.070 1.2127e-12     8.8053    109.213     42.765  43.836122    12.9817      6.841   119.5226 2.2344e+02     6.8404      0.069      0.100    26.2490 0.0000e+00
      0.070 1.1024e-13     8.8153    109.131     42.779  43.848712    12.9373      6.844   119.6361 2.2341e+02     6.8193      0.069      0.100    26.2478 0.0000e+00
      0.070 1.0022e-14     8.8183    109.008     42.793  43.860244    12.8783      6.848   119.6655 2.2342e+02     6.8593      0.069      0.101    26.2467 0.0000e+00
      0.070 9.1110e-16     8.8216    108.908     42.786  43.848600    12.8432      6.850   119.7919 2.2314e+02     6.9143      0.069      0.100    26.2464 0.0000e+00
      0.070 8.2825e-17     8.8229    108.858     42.778  43.834867    12.8207      6.853   119.9603 2.2269e+02     6.9033      0.069      0.100    26.2454 0.0000e+00
      0.070 7.5300e-18     8.8157    108.859     42.768  43.821133    12.7143      6.856   120.0672 2.2242e+02     6.8293      0.068      0.099    26.2434 0.0000e+00
      0.070 6.8450e-19     8.8027    108.904     42.758  43.809489    12.5383      6.859   120.0508 2.2228e+02     6.8045      0.069      0.100    26.2413 0.0000e+00
      0.070 6.2230e-20     8.7958    108.960     42.770  43.821020    12.4502      6.862   120.0202 2.2211e+02     6.8766      0.069      0.100    26.2370 0.0000e+00
      0.070 5.6623e-21     8.7927    109.010     42.784  43.833608    12.4482      6.865   120.1275 2.2186e+02     6.9505      0.068      0.099    26.2280 0.0000e+00
      0.070 5.7188e-22     8.7938    109.053     42.789  43.834744    12.4966      6.867   120.3158 2.2178e+02     6.9121      0.069      0.100    26.2225 0.0000e+00
      0.070 6.8009e-22     8.7985    109.065     42.793  43.834745    12.5945      6.868   120.4903 2.2196e+02     6.8221      0.068      0.099    26.2237 0.0000e+00
      0.070 6.9710e-21     8.8039    109.029     42.794  43.833610    12.6496      6.870   120.6028 2.2199e+02     6.7842      0.069      0.100    26.2232 0.0000e+00
      0.070 7.6634e-20     8.8075    109.003     42.780  43.821021    12.6633      6.872   120.6432 2.2180e+02     6.8302      0.069      0.100    26.2209 0.0000e+00
      0.070 8.4297e-19     8.8126    109.047     42.763  43.809479    12.7440      6.875   120.5486 2.2176e+02     6.9689      0.069      0.100    26.2166 0.0000e+00
      0.070 9.2727e-18     8.8163    109.135     42.767  43.821018    12.8756      6.878   120.4048 2.2186e+02     7.0948      0.069      0.101    26.2098 0.0000e+00
      0.070 1.0200e-16     8.8114    109.199     42.774  43.833607    12.9312      6.881   120.2823 2.2196e+02     7.1223      0.069      0.100    26.2065 0.0000e+00
      0.070 1.1220e-15     8.8064    109.217     42.773  43.834742    12.9178      6.883   120.2708 2.2218e+02     7.0953      0.069      0.100    26.2090 0.0000e+00
      0.070 1.2342e-14     8.8096    109.174     42.770  43.834752    12.9053      6.885   120.3521 2.2243e+02     7.0765      0.069      0.100    26.2169 0.0000e+00
      0.070 1.3576e-13     8.8183    109.059     42.764  43.833730    12.9043      6.886   120.3186 2.2252e+02     7.0999      0.069      0.100    26.2269 0.0000e+00
      0.070 1.4934e-12     8.8222    108.914     42.746  43.822389    12.8972      6.889   120.2101 2.2244e+02     7.1047      0.069      0.100    26.2330 0.0000e+00
      0.070 1.6427e-11     8.8239    108.792     42.744  43.824591    12.8782      6.892   120.2460 2.2234e+02     7.0663      0.069      0.101    26.2336 0.0000e+00
      0.070 1.8070e-10     8.8214    108.712     42.779  43.860368    12.8647      6.895   120.4939 2.2205e+02     7.0453      0.069      0.100    26.2359 0.0000e+00
      0.070 1.9877e-09     8.8086    108.685     42.795  43.874113    12.8176      6.896   120.6266 2.2168e+02     7.0907      0.068      0.099    26.2443 0.0000e+00
      0.070 2.1865e-08     8.7936    108.706     42.787  43.863830    12.7335      6.897   120.6452 2.2190e+02     7.1717      0.069      0.100    26.2541 0.0000e+00
      0.070 4.0085e-08     8.7828    108.760     42.787  43.862990    12.6808      6.899   120.7192 2.2227e+02     7.1698      0.069      0.100    26.2595 0.0000e+00
      0.070 2.1865e-08     8.7760    108.828     42.788  43.863945    12.6545      6.900   120.6608 2.2226e+02     7.1013      0.069      0.100    26.2591 0.0000e+00
      0.070 1.9877e-09     8.7744    108.891     42.798  43.875384    12.5646      6.902   120.6275 2.2227e+02     6.9930      0.069      0.100    26.2549 0.0000e+00
      0.070 1.8070e-10     8.7775    108.934     42.795  43.874342    12.4188      6.905   120.7473 2.2222e+02     6.8856      0.069      0.100    26.2518 0.0000e+00
      0.070 1.6427e-11     8.7820    108.930     42.772  43.851355    12.3477      6.908   120.8186 2.2219e+02     6.8953      0.069      0.100    26.2511 0.0000e+00
      0.070 1.4934e-12     8.7888    108.891     42.776  43.851346    12.3546      6.910   120.8011 2.2236e+02     6.9063      0.069      0.100    26.2507 0.0000e+00
      0.070 1.3576e-13     8.7933    108.916     42.806  43.874228    12.4439      6.912   120.7069 2.2244e+02     6.8468      0.069      0.100    26.2524 0.0000e+00
      0.070 1.2342e-14     8.7973    109.047     42.817  43.874117    12.6110      6.914   120.6265 2.2240e+02     6.8257      0.069      0.101    26.2555 0.0000e+00
      0.070 1.1220e-15     8.7978    109.195     42.804  43.849977    12.7107      6.917   120.6896 2.2237e+02     6.8561      0.069      0.100    26.2564 0.0000e+00
      0.070 1.0200e-16     8.7906    109.264     42.799  43.836233    12.7254      6.918   120.7821 2.2230e+02     6.9061      0.069      0.100    26.2521 0.0000e+00
      0.070 9.3005e-18     8.7924    109.249     42.804  43.834881    12.6885      6.919   120.7979 2.2236e+02     6.9187      0.069      0.100    26.2423 0.0000e+00
      0.070 1.1510e-18     8.8090    109.195     42.807  43.833624    12.6225      6.920   120.7948 2.2257e+02     6.8719      0.069      0.100    26.2284 0.0000e+00
      0.071 3.4653e-18     8.8271    109.129     42.796  43.821025    12.5936      6.922   120.7447 2.2263e+02     6.8526      0.069      0.101    26.2145 0.0000e+00
      0.071 3.7283e-17     8.8332    109.035     42.783  43.809493    12.5969      6.925   120.7077 2.2260e+02     6.8898      0.069      0.101    26.2051 0.0000e+00
      0.070 4.1003e-16     8.8318    108.905     42.795  43.821138    12.5956      6.928   120.7777 2.2270e+02     6.8775      0.069      0.100    26.1966 0.0000e+00
      0.070 4.5104e-15     8.8277    108.820     42.811  43.834873    12.5033      6.929   120.8169 2.2266e+02     6.8061      0.069      0.100    26.1901 0.0000e+00
      0.071 4.9614e-14     8.8223    108.825     42.829  43.848609    12.3465      6.930   120.7510 2.2261e+02     6.7791      0.069      0.101    26.1907 0.0000e+00
      0.071 5.4575e-13     8.8170    108.893     42.844  43.860264    12.2731      6.932   120.6703 2.2280e+02     6.7893      0.069      0.101    26.1937 0.0000e+00
      0.070 6.0033e-12     8.8013    108.979     42.834  43.848845    12.2566      6.935   120.7017 2.2298e+02     6.8275      0.069      0.100    26.1939 0.0000e+00
      0.070 6.6036e-11     8.7939    109.031     42.820  43.837495    12.2223      6.937   120.8715 2.2301e+02     6.9337      0.069      0.100    26.1906 0.0000e+00
      0.070 7.2640e-10     8.7977    109.067     42.828  43.849981    12.1743      6.939   121.0891 2.2284e+02     7.0481      0.069      0.100    26.1836 0.0000e+00
      0.071 7.9904e-09     8.8037    109.116     42.847  43.872862    12.1508      6.941   121.2683 2.2254e+02     7.0841      0.069      0.101    26.1773 0.0000e+00
      0.071 8.7894e-08     8.8146    109.156     42.833  43.860262    12.1548      6.943   121.3166 2.2239e+02     7.0616      0.069      0.101    26.1768 0.0000e+00
      0.070 1.6114e-07     8.8160    109.155     42.799  43.824591    12.1476      6.945   121.2435 2.2249e+02     7.0150      0.069      0.100    26.1815 0.0000e+00
      0.070 8.7890e-08     8.8167    109.075     42.798  43.822397    12.1464      6.945   121.2448 2.2265e+02     6.9643      0.069      0.100    26.1875 0.0000e+00
      0.070 7.9900e-09     8.8214    108.917     42.805  43.833738    12.1575      6.947   121.4177 2.2281e+02     6.8928      0.068      0.099    26.1924 0.0000e+00
      0.070 7.2635e-10     8.8248    108.738     42.797  43.834777    12.1647      6.949   121.6133 2.2299e+02     6.7989      0.069      0.100    26.1942 0.0000e+00
      0.070 6.6028e-11     8.8264    108.583     42.786  43.834974    12.2170      6.951   121.7164 2.2311e+02     6.7858      0.069      0.101    26.1915 0.0000e+00
      0.071 5.9251e-12     8.8213    108.500     42.776  43.836134    12.3077      6.953   121.8040 2.2320e+02     6.8363      0.069      0.100    26.1882 0.0000e+00
      0.071 -3.109e-13     8.8048    108.530     42.781  43.848828    12.3618      6.954   121.8984 2.2328e+02     6.8633      0.069      0.101    26.1918 0.0000e+00
      0.071 -5.507e-12     8.7880    108.646     42.791  43.861513    12.3799      6.956   121.9115 2.2328e+02     6.8736      0.070      0.101    26.2043 0.0000e+00
      0.071 -5.304e-11     8.7714    108.791     42.794  43.862563    12.3686      6.958   121.9633 2.2323e+02     6.8577      0.069      0.101    26.2203 0.0000e+00
      0.070 -5.788e-10     8.7606    108.926     42.798  43.861516    12.3341      6.960   122.0933 2.2318e+02     6.8418      0.069      0.100    26.2336 0.0000e+00
      0.070 -6.367e-09     8.7632    109.029     42.789  43.848850    12.3204      6.961   122.1932 2.2321e+02     6.8871      0.069      0.100    26.2426 0.0000e+00
      0.070 -7.004e-08     8.7734    109.068     42.777  43.836364    12.3282      6.963   122.2256 2.2341e+02     6.9268      0.070      0.101    26.2469 0.0000e+00
      0.070 -7.704e-07     8.7873    109.023     42.777  43.837499    12.3278      6.965   122.2267 2.2345e+02     6.8787      0.069      0.100    26.2431 0.0000e+00
      0.070      0.000     8.7989    108.902     42.800  43.862574    12.3233      6.968   122.3778 2.2321e+02     6.8169      0.069      0.101    26.2357 0.0000e+00
      0.070     -0.000     8.8096    108.777     42.822  43.885647    12.3236      6.970   122.6764 2.2311e+02     6.8289      0.069      0.100    26.2317 0.0000e+00
      0.070     -0.001     8.8131    108.722     42.801  43.862573    12.3156      6.970   122.7393 2.2308e+02     6.8869      0.069      0.101    26.2308 0.0000e+00
      0.070     -0.007     8.8097    108.724     42.777  43.837488    12.3184      6.968   122.1918 2.2300e+02     6.9376      0.069      0.100    26.2325 0.0000e+00
      0.070     -0.022     8.7974    108.762     42.772  43.836240    12.3320      6.963   121.5631 2.2311e+02     6.9291      0.069      0.100    26.2350 0.0000e+00
      0.070     -0.047     8.7830    108.839     42.771  43.847484    12.3309      6.956   121.5910 2.2380e+02     6.8874      0.069      0.101    26.2360 0.0000e+00
      0.067     -0.080     8.7815    108.956     42.748  43.846517    12.3216      6.950   122.2712 2.2834e+02     6.8774      0.069      0.101    26.2323 0.0000e+00
      0.049     -0.112     8.7821    109.071     42.711  43.824586    12.2948      6.943   123.5921 2.4007e+02     6.8419      0.057      0.083    26.2314 0.0000e+00
      0.008     -0.134     8.7846    109.124     42.724  43.836242    12.1975      6.932   124.9999 2.7902e+02     6.8004      0.015      0.022    26.2335 0.0000e+00
     -0.050     -0.141     8.7888    109.124     42.755  43.860498    12.0440      6.920   125.6986 3.3045e+02     6.8191     -0.049     -0.071    26.2446 0.0000e+00
     -0.108     -0.130     8.7932    109.120     42.759  43.863962    11.9531      6.910   126.0179 3.4191e+02     6.8294     -0.111     -0.162    26.2819 0.0000e+00
     -0.149     -0.102     8.8015    109.129     42.765  43.878115    11.9309      6.906   126.1925 3.3267e+02     6.8228     -0.156     -0.226    26.3090 0.0000e+00
     -0.167     -0.062     8.8061    109.129     42.782  43.904676    11.8673      6.907   125.9175 3.3269e+02     6.9098     -0.171     -0.248    26.2985 0.0000e+00
     -0.167     -0.019     8.8071    109.128     42.800  43.931233    11.7670      6.912   125.6179 3.3288e+02     7.0948     -0.166     -0.240    26.2813 0.0000e+00
     -0.157      0.017     8.8061    109.168     42.806  43.945333    11.7251      6.916   125.8389 3.3339e+02     7.1817     -0.155     -0.225    26.2820 0.0000e+00
     -0.143      0.044     8.8062    109.255     42.800  43.948214    11.7356      6.916   126.4385 3.3453e+02     7.1407     -0.141     -0.204    26.2947 0.0000e+00
     -0.129      0.062     8.8043    109.370     42.807  43.966078    11.7520      6.912   127.1040 3.3571e+02     7.1450     -0.126     -0.183    26.3060 0.0000e+00
     -0.114      0.073     8.8008    109.484     42.801  43.970913    11.7663      6.908   127.4320 3.2894e+02     7.2340     -0.113     -0.164    26.3152 0.0000e+00
     -0.095      0.079     8.8023    109.562     42.767  43.943220    11.7833      6.907   127.2215 3.0712e+02     7.3629     -0.095     -0.137    26.3250 0.0000e+00
     -0.070      0.079     8.8089    109.586     42.769  43.948636    11.8154      6.908   126.8820 2.7895e+02     7.4394     -0.070     -0.101    26.3339 0.0000e+00
     -0.043      0.075     8.8162    109.557     42.791  43.972923    11.8886      6.911   126.9401 2.5476e+02     7.3739     -0.041     -0.058    26.3474 0.0000e+00
     -0.020      0.069     8.8246    109.494     42.800  43.982982    11.9851      6.911   127.4090 2.4346e+02     7.2193     -0.014     -0.021    26.3629 0.0000e+00
     -0.005      0.061     8.8301    109.424     42.824  44.006772    12.0255      6.910   127.9910 2.4148e+02     7.1075     -0.002     -0.003    26.3708 0.0000e+00
      0.004      0.054     8.8312    109.343     42.826  44.006677    12.0355      6.908   128.4709 2.3803e+02     7.1148      0.003      0.004    26.3732 0.0000e+00
      0.013      0.049     8.8290    109.258     42.802  43.981823    12.0475      6.907   128.3923 2.3352e+02     7.1369      0.012      0.017    26.3747 0.0000e+00
      0.024      0.049     8.8214    109.230     42.780  43.960163    12.0552      6.907   127.8149 2.2990e+02     7.0329      0.023      0.033    26.3759 0.0000e+00
      0.037      0.051     8.8172    109.279     42.755  43.935217    12.0781      6.909   127.5129 2.2550e+02     6.8826      0.034      0.050    26.3743 0.0000e+00
      0.052      0.056     8.8117    109.345     42.755  43.934102    12.0908      6.910   127.7520 2.2023e+02     6.8224      0.050      0.073    26.3720 0.0000e+00
      0.068      0.061     8.8014    109.391     42.769  43.946677    12.0930      6.911   128.1248 2.1593e+02     6.8509      0.068      0.098    26.3719 0.0000e+00
      0.083      0.065     8.7985    109.433     42.783  43.960305    12.1290      6.913   127.8898 2.1152e+02     6.9541      0.081      0.118    26.3727 0.0000e+00
      0.099      0.068     8.8049    109.469     42.794  43.971931    12.1939      6.918   127.2345 2.0652e+02     7.0804      0.096      0.139    26.3731 0.0000e+00
      0.117      0.070     8.8121    109.480     42.783  43.960294    12.2204      6.923   127.0849 2.0150e+02     7.0790      0.114      0.165    26.3721 0.0000e+00
      0.137      0.070     8.8141    109.449     42.770  43.946550    12.2081      6.928   127.4577 1.9651e+02     7.0063      0.135      0.195    26.3707 0.0000e+00
      0.156      0.067     8.8180    109.351     42.758  43.932702    12.2620      6.933   127.8695 1.9206e+02     7.0555      0.154      0.223    26.3704 0.0000e+00
      0.175      0.062     8.8218    109.181     42.746  43.919798    12.3801      6.939   127.7617 1.8786e+02     7.1619      0.172      0.249    26.3706 0.0000e+00
      0.192      0.056     8.8224    108.960     42.745  43.917481    12.4455      6.946   127.1007 1.8429e+02     7.1996      0.190      0.276    26.3705 0.0000e+00
      0.205      0.051     8.8220    108.765     42.733  43.904681    12.4455      6.952   126.6747 1.8220e+02     7.1687      0.204      0.295    26.3695 0.0000e+00
      0.214      0.047     8.8134    108.653     42.723  43.891987    12.4381      6.958   126.6547 1.8101e+02     7.1299      0.210      0.305    26.3679 0.0000e+00
      0.222      0.044     8.8008    108.576     42.724  43.890946    12.4646      6.963   126.8597 1.7896e+02     7.1746      0.215      0.312    26.3665 0.0000e+00
      0.233      0.042     8.7799    108.505     42.728  43.892090    12.5077      6.969   127.2597 1.7591e+02     7.2314      0.227      0.329    26.3656 0.0000e+00
      0.247      0.042     8.7613    108.450     42.743  43.905806    12.5092      6.975   127.3609 1.7333e+02     7.2010      0.244      0.354    26.3639 0.0000e+00
      0.259      0.042     8.7565    108.400     42.767  43.929841    12.4419      6.981   127.3093 1.7148e+02     7.1148      0.255      0.370    26.3614 0.0000e+00
      0.269      0.041     8.7509    108.320     42.764  43.928801    12.3519      6.985   127.5818 1.6993e+02     7.0434      0.264      0.383    26.3585 0.0000e+00
      0.278      0.039     8.7450    108.174     42.729  43.893225    12.3199      6.988   127.9027 1.6866e+02     7.0545      0.272      0.395    26.3550 0.0000e+00
      0.287      0.036     8.7414    107.996     42.716  43.880539    12.3289      6.993   128.4361 1.6683e+02     7.1125      0.280      0.406    26.3524 0.0000e+00
      0.297      0.032     8.7381    107.892     42.737  43.902373    12.3283      6.997   129.2127 1.6445e+02     7.0962      0.292      0.423    26.3527 0.0000e+00
      0.308      0.028     8.7332    107.914     42.738  43.903318    12.3193      7.002   129.4636 1.6293e+02     6.9602      0.304      0.439    26.3551 0.0000e+00
      0.314      0.027     8.7206    108.025     42.726  43.891968    12.3125      7.006   129.3190 1.6230e+02     6.8337      0.309      0.448    26.3566 0.0000e+00
      0.318      0.027     8.7016    108.174     42.726  43.892079    12.3135      7.008   129.4434 1.6178e+02     6.8314      0.312      0.453    26.3572 0.0000e+00
      0.321      0.030     8.6915    108.321     42.739  43.904668    12.3311      7.007   130.3653 1.6117e+02     6.8978      0.315      0.457    26.3573 0.0000e+00
      0.326      0.035     8.6953    108.434     42.753  43.917231    12.4255      7.007   131.7753 1.5952e+02     6.9190      0.316      0.459    26.3572 0.0000e+00
      0.336      0.042     8.7057    108.503     42.753  43.917031    12.5725      7.006   132.6398 1.5589e+02     6.8493      0.325      0.472    26.3576 0.0000e+00
      0.353      0.052     8.7186    108.546     42.739  43.902237    12.6429      7.004   132.9883 1.5212e+02     6.8063      0.347      0.502    26.3577 0.0000e+00
      0.369      0.064     8.7316    108.555     42.704  43.865308    12.6689      6.999   133.3217 1.4989e+02     6.8776      0.364      0.528    26.3567 0.0000e+00
      0.381      0.077     8.7417    108.506     42.693  43.851365    12.7710      6.989   134.6056 1.4744e+02     7.0273      0.372      0.540    26.3555 0.0000e+00
      0.397      0.088     8.7458    108.405     42.708  43.860598    12.9290      6.979   136.5514 1.4305e+02     7.1821      0.386      0.559    26.3548 0.0000e+00
      0.422      0.096     8.7501    108.269     42.703  43.849993    13.0055      6.974   137.1451 1.3758e+02     7.2111      0.413      0.598    26.3536 0.0000e+00
      0.453      0.099     8.7518    108.084     42.707  43.850078    13.0057      6.974   136.4502 1.3195e+02     7.1391      0.443      0.643    26.3533 0.0000e+00
      0.488      0.099     8.7479    107.833     42.722  43.861618    13.1553      6.975   136.0648 1.2640e+02     7.0983      0.477      0.693    26.3514 0.0000e+00
      0.520      0.095     8.7401    107.562     42.726  43.862563    13.4579      6.975   136.7017 1.2263e+02     7.1274      0.516      0.748    26.3439 0.0000e+00
      0.541      0.090     8.7305    107.304     42.727  43.861505    13.6344      6.974   137.9565 1.2094e+02     7.1485      0.535      0.776    26.3356 0.0000e+00
      0.552      0.086     8.7186    107.040     42.717  43.848819    13.6503      6.973   138.9324 1.1896e+02     7.1146      0.540      0.783    26.3303 0.0000e+00
      0.567      0.083     8.6965    106.801     42.706  43.836115    13.6343      6.972   139.0365 1.1581e+02     7.0931      0.552      0.801    26.3274 0.0000e+00
      0.590      0.079     8.6727    106.641     42.706  43.834846    13.6314      6.974   138.5273 1.1203e+02     7.0935      0.577      0.836    26.3249 0.0000e+00
      0.618      0.077     8.6556    106.530     42.706  43.833472    13.6488      6.979   138.3673 1.0812e+02     7.1196      0.606      0.879    26.3205 0.0000e+00
      0.644      0.076     8.6327    106.427     42.694  43.819511    13.6528      6.984   138.8231 1.0530e+02     7.1705      0.636      0.922    26.3172 0.0000e+00
      0.663      0.074     8.6116    106.424     42.669  43.792986    13.6469      6.989   139.3061 1.0395e+02     7.1625      0.653      0.946    26.3167 0.0000e+00
      0.673      0.071     8.5994    106.509     42.647  43.766651    13.7029      6.992   139.4760 1.0280e+02     7.0907      0.659      0.956    26.3152 0.0000e+00
      0.684      0.067     8.5950    106.442     42.641  43.754986    13.8298      6.996   139.4141 1.0095e+02     7.0883      0.668      0.969    26.3131 0.0000e+00
      0.701      0.064     8.5820    106.202     42.667  43.778889    13.9247      7.001   139.0732 9.8232e+01     7.1677      0.685      0.993    26.3121 0.0000e+00
      0.725      0.063     8.5776    105.912     42.692  43.801749    13.9597      7.005   138.7104 9.5292e+01     7.1959      0.713      1.033    26.3110 0.0000e+00
      0.747      0.064     8.6010    105.633     42.669  43.777494    14.0858      7.008   138.9850 9.3461e+01     7.0879      0.736      1.068    26.3068 0.0000e+00
      0.760      0.065     8.5934    105.434     42.634  43.739505    14.3182      7.009   139.7269 9.2529e+01     6.9205      0.747      1.084    26.2999 0.0000e+00
      0.769      0.068     8.5690    105.332     42.621  43.723271    14.4475      7.009   139.9367 9.1174e+01     6.8462      0.751      1.091    26.2951 0.0000e+00
      0.783      0.071     8.5470    105.273     42.612  43.708156    14.4844      7.008   139.5423 8.9189e+01     6.8734      0.765      1.110    26.2930 0.0000e+00
      0.801      0.076     8.5208    105.228     42.595  43.683683    14.6725      7.006   139.5182 8.6877e+01     6.9758      0.785      1.138    26.2921 0.0000e+00
      0.826      0.081     8.5046    105.161     42.600  43.681259    14.9811      7.005   139.9905 8.4089e+01     7.0596      0.808      1.171    26.2911 0.0000e+00
      0.853      0.084     8.4995    105.004     42.604  43.678838    15.1367      7.003   140.8649 8.1489e+01     7.0317      0.839      1.216    26.2881 0.0000e+00
      0.877      0.088     8.4963    104.749     42.584  43.654393    15.1647      6.998   141.5716 7.9523e+01     7.0156      0.862      1.250    26.2809 0.0000e+00
      0.897      0.094     8.4941    104.424     42.574  43.639591    15.3102      6.992   141.5671 7.7948e+01     7.1039      0.881      1.277    26.2711 0.0000e+00
      0.913      0.099     8.4942    104.055     42.564  43.626801    15.5729      6.989   141.5846 7.6628e+01     7.2106      0.896      1.298    26.2620 0.0000e+00
      0.934      0.100     8.4816    103.705     42.567  43.626687    15.7195      6.991   141.6970 7.4143e+01     7.2120      0.907      1.316    26.2541 0.0000e+00
      0.968      0.099     8.4610    103.461     42.580  43.638218    15.7513      6.994   141.8934 7.0516e+01     7.1210      0.946      1.372    26.2492 0.0000e+00
      1.006      0.096     8.4349    103.352     42.581  43.639277    16.0984      6.997   141.9801 6.7852e+01     7.0675      0.993      1.441    26.2457 0.0000e+00
      1.033      0.089     8.4043    103.359     42.582  43.639485    16.7544      7.002   141.5414 6.6465e+01     7.1113      1.017      1.474    26.2417 0.0000e+00
      1.049      0.080     8.3722    103.422     42.585  43.640731    17.1236      7.005   141.5788 6.5302e+01     7.1723      1.028      1.490    26.2388 0.0000e+00
      1.063      0.075     8.3534    103.450     42.602  43.654337    17.1749      7.005   142.4320 6.4146e+01     7.1567      1.043      1.513    26.2360 0.0000e+00
      1.075      0.080     8.3448    103.379     42.634  43.677038    17.2164      7.001   143.3397 6.3322e+01     7.0929      1.057      1.531    26.2360 0.0000e+00
      1.087      0.095     8.3465    103.132     42.643  43.661296    17.7414      6.996   144.0358 6.2192e+01     7.0499      1.062      1.541    26.2363 0.0000e+00
      1.108      0.115     8.3564    102.638     42.616  43.590907    18.7378      6.991   144.5677 5.9838e+01     7.0806      1.079      1.565    26.2332 0.0000e+00
      1.145      0.134     8.3587    101.757     42.611  43.524113    19.3093      6.989   145.2108 5.6527e+01     7.1561      1.119      1.623    26.2315 0.0000e+00
      1.193      0.144     8.3582    100.272     42.646  43.488331    19.5322      6.988   145.7891 5.3289e+01     7.1779      1.172      1.699    26.2224 0.0000e+00
      1.241      0.144     8.3430     98.013     42.700  43.475535    21.1749      6.990   145.8812 5.0619e+01     7.2072      1.219      1.767    26.1960 0.0000e+00
      1.283      0.132     8.3133     94.758     42.768  43.496230    24.1560      6.994   145.8081 4.8382e+01     7.2712      1.259      1.827    26.1460 0.0000e+00
      1.319      0.113     8.2634     90.544     42.848  43.548065    25.7795      6.997   145.9380 4.6908e+01     7.3029      1.299      1.884    26.0705 0.0000e+00
      1.342      0.095     8.1570     86.048     42.911  43.594440    25.8980      7.002   146.1614 4.6400e+01     7.3512      1.322      1.917    25.9805 0.0000e+00
      1.352      0.080     7.9950     81.961     42.930  43.612590    25.5475      7.005   146.4444 4.6049e+01     7.3768      1.325      1.921    25.8915 0.0000e+00
      1.362      0.070     7.7450     78.453     42.947  43.640572    24.8625      7.006   147.0366 4.5131e+01     7.3397      1.332      1.931    25.8378 0.0000e+00
      1.382      0.065     7.3775     75.545     42.985  43.678902    24.4815      7.008   147.8151 4.4001e+01     7.3124      1.356      1.967    25.8090 0.0000e+00
      1.402      0.065     6.9912     73.507     43.015  43.695187    24.4532      7.010   148.3706 4.3052e+01     7.3199      1.376      1.995    25.7821 0.0000e+00
      1.420      0.066     6.6577     72.363     43.047  43.710498    24.5870      7.011   149.0218 4.2011e+01     7.3629      1.390      2.017    25.7810 0.0000e+00
      1.439      0.064     6.3742     71.600     43.094  43.737053    24.8425      7.012   149.8378 4.1215e+01     7.3879      1.415      2.052    25.8072 0.0000e+00
      1.454      0.058     6.1235     70.783     43.145  43.762343    24.9713      7.014   150.1490 4.0696e+01     7.3486      1.428      2.069    25.8115 0.0000e+00
      1.467      0.051     5.9536     69.630     43.164  43.762338    24.9377      7.017   150.0324 3.9911e+01     7.2979      1.435      2.081    25.7811 0.0000e+00
      1.482      0.047     5.8887     67.977     43.146  43.736961    24.5189      7.019   150.1489 3.9327e+01     7.2521      1.457      2.113    25.7680 0.0000e+00
      1.492      0.047     5.8374     66.092     43.130  43.709400    23.7605      7.020   150.6967 3.9141e+01     7.2052      1.466      2.127    25.7448 0.0000e+00
      1.497      0.049     5.7814     64.425     43.123  43.682984    23.3509      7.021   151.4074 3.8918e+01     7.1754      1.467      2.128    25.7034 0.0000e+00
      1.505      0.051     5.7012     63.187     43.119  43.671427    23.2620      7.023   151.9442 3.8377e+01     7.1305      1.471      2.134    25.6800 0.0000e+00
      1.522      0.052     5.5538     62.373     43.140  43.696594    22.7611      7.025   151.8531 3.7318e+01     7.1058      1.488      2.158    25.6818 0.0000e+00
      1.544      0.052     5.3849     62.101     43.197  43.733403    21.8723      7.028   151.4241 3.6415e+01     7.1507      1.519      2.204    25.6734 0.0000e+00
      1.560      0.051     5.2463     62.545     43.246  43.735604    21.3968      7.031   151.5754 3.6083e+01     7.1953      1.533      2.224    25.6370 0.0000e+00
      1.570      0.045     5.1507     63.375     43.253  43.723131    21.3728      7.035   152.3912 3.5671e+01     7.1672      1.537      2.230    25.6234 0.0000e+00
      1.581      0.038     5.0788     63.806     43.225  43.709509    21.3728      7.037   153.2862 3.5202e+01     7.0837      1.551      2.250    25.6522 0.0000e+00
      1.590      0.035     5.0460     63.482     43.211  43.697874    21.2974      7.037   153.5350 3.5022e+01     7.0395      1.562      2.265    25.6394 0.0000e+00
      1.594      0.038     5.1003     62.818     43.241  43.709399    21.1769      7.037   153.3349 3.4963e+01     7.0772      1.564      2.268    25.5376 0.0000e+00
      1.597      0.042     5.2023     62.260     43.283  43.721889    21.1225      7.038   153.3619 3.4705e+01     7.1301      1.564      2.268    25.5147 0.0000e+00
      1.608      0.043     5.2462     61.736     43.320  43.721895    21.0896      7.039   153.5173 3.3880e+01     7.1322      1.571      2.277    25.5721 0.0000e+00
      1.628      0.043     5.1994     60.840     43.329  43.709413    20.6880      7.041   153.5784 3.2889e+01     7.1017      1.596      2.314    25.5644 0.0000e+00
      1.648      0.040     5.1311     59.340     43.308  43.697881    19.9534      7.044   153.2414 3.2455e+01     7.0692      1.622      2.352    25.5361 0.0000e+00
      1.658      0.035     5.0931     57.728     43.289  43.709417    19.5576      7.047   152.5400 3.2379e+01     7.0467      1.628      2.362    25.5095 0.0000e+00
      1.661      0.025     5.0694     56.805     43.269  43.722001    19.5401      7.050   152.0675 3.2339e+01     7.0694      1.630      2.363    25.4473 0.0000e+00
      1.663      0.015     5.0125     56.738     43.247  43.723131    19.7242      7.053   152.0025 3.2339e+01     7.1041      1.632      2.366    25.4169 0.0000e+00
      1.665      0.008     4.8711     57.170     43.232  43.723118    20.0614      7.057   152.0114 3.2335e+01     7.0911      1.632      2.368    25.4378 0.0000e+00
      1.666      0.005     4.7001     57.832     43.217  43.721865    20.2372      7.060   152.0034 3.2307e+01     7.0485      1.633      2.369    25.4773 0.0000e+00
      1.667      0.005     4.6203     58.660     43.191  43.708006    20.2685      7.064   151.9917 3.2272e+01     6.9993      1.634      2.370    25.5233 0.0000e+00
      1.668      0.005     4.6290     59.673     43.154  43.682509    20.4810      7.068   151.6972 3.2238e+01     6.9743      1.635      2.372    25.5479 0.0000e+00
      1.670      0.005     4.6697     60.885     43.128  43.667504    20.8679      7.072   151.2822 3.2203e+01     6.9163      1.637      2.375    25.5621 0.0000e+00
      1.671      0.006     4.7233     62.248     43.100  43.653539    21.0762      7.076   151.1039 3.2176e+01     6.8109      1.639      2.377    25.5784 0.0000e+00
      1.672      0.007     4.7890     63.701     43.061  43.640631    21.0846      7.079   151.4339 3.2130e+01     6.7934      1.639      2.378    25.5920 0.0000e+00
      1.673      0.010     4.8692     65.270     43.022  43.638421    21.1616      7.081   152.1759 3.2028e+01     6.9092      1.640      2.379    25.6059 0.0000e+00
      1.676      0.014     4.9689     67.008     42.975  43.626872    21.3241      7.082   152.6751 3.1908e+01     7.0833      1.643      2.384    25.6193 0.0000e+00
      1.679      0.017     5.0825     68.888     42.951  43.628002    21.4180      7.084   152.7379 3.1783e+01     7.1566      1.646      2.388    25.6289 0.0000e+00
      1.684      0.018     5.1962     70.773     42.962  43.652121    21.4233      7.086   152.5901 3.1500e+01     7.1131      1.650      2.392    25.6633 0.0000e+00
      1.693      0.018     5.3173     72.495     42.972  43.664616    21.3967      7.088   153.1258 3.1140e+01     7.0694      1.660      2.407    25.7115 0.0000e+00
      1.700      0.017     5.4548     73.888     42.973  43.652133    21.2624      7.089   154.3968 3.0958e+01     7.0719      1.670      2.421    25.7552 0.0000e+00
      1.704      0.016     5.6097     74.826     42.978  43.628111    21.0397      7.091   154.8802 3.0918e+01     7.1091      1.672      2.425    25.7914 0.0000e+00
      1.705      0.013     5.7666     75.237     43.001  43.628021    20.9357      7.093   154.5815 3.0914e+01     7.1429      1.672      2.425    25.7983 0.0000e+00
      1.706      0.012     5.9114     75.100     43.030  43.651009    20.9365      7.095   155.1731 3.0837e+01     7.1399      1.672      2.426    25.8052 0.0000e+00
      1.708      0.014     6.0300     74.565     43.025  43.652152    20.8826      7.098   156.7001 3.0649e+01     7.1064      1.675      2.430    25.7943 0.0000e+00
      1.712      0.019     6.1124     73.914     43.000  43.641847    20.7838      7.100   157.4705 3.0494e+01     7.0789      1.679      2.436    25.7462 0.0000e+00
      1.717      0.024     6.1527     73.422     42.991  43.653394    20.7401      7.100   157.2600 3.0281e+01     7.0811      1.682      2.439    25.7141 0.0000e+00
      1.723      0.029     6.1363     73.262     42.991  43.664848    20.7542      7.101   156.9945 2.9895e+01     7.1337      1.688      2.448    25.7123 0.0000e+00
      1.733      0.031     6.0830     73.488     42.989  43.653405    20.7877      7.101   157.5310 2.9450e+01     7.1680      1.699      2.465    25.7181 0.0000e+00
      1.745      0.030     6.0198     74.078     43.000  43.641960    20.8288      7.100   158.8415 2.9024e+01     7.1203      1.712      2.482    25.7372 0.0000e+00
      1.755      0.030     5.9703     74.777     43.037  43.653388    20.8437      7.100   159.9341 2.8773e+01     7.0693      1.723      2.500    25.7700 0.0000e+00
      1.761      0.030     5.9562     75.152     43.066  43.664592    20.8509      7.098   160.5034 2.8699e+01     7.0971      1.728      2.507    25.7869 0.0000e+00
      1.764      0.033     5.9737     74.903     43.084  43.650462    20.9332      7.093   160.6479 2.8601e+01     7.1841      1.729      2.509    25.7725 0.0000e+00
      1.767      0.038     6.0326     73.935     43.140  43.609445    21.0810      7.088   160.9072 2.8405e+01     7.3012      1.732      2.512    25.7409 0.0000e+00
      1.775      0.045     6.1098     72.173     43.230  43.549354    21.1562      7.083   161.5734 2.7933e+01     7.3517      1.737      2.519    25.7061 0.0000e+00
      1.791      0.053     6.1501     69.160     43.335  43.494930    21.1687      7.079   162.1640 2.7206e+01     7.3154      1.755      2.545    25.6839 0.0000e+00
      1.811      0.060     6.1323     64.395     43.464  43.458950    21.4814      7.076   162.6283 2.6596e+01     7.3419      1.779      2.581    25.6925 0.0000e+00
      1.828      0.065     6.0638     57.885     43.589  43.431445    22.0739      7.073   162.8845 2.6058e+01     7.3989      1.793      2.600    25.5648 0.0000e+00
      1.845      0.067     5.9567     49.635     43.711  43.416030    22.3896      7.070   162.6805 2.5482e+01     7.4238      1.809      2.624    25.3521 0.0000e+00
      1.861      0.066     5.7538     40.093     43.824  43.399313    22.4101      7.068   162.6563 2.5014e+01     7.4033      1.826      2.649    25.1927 0.0000e+00
      1.877      0.064     5.3673     30.616     43.879  43.356083    22.4466      7.068   163.1938 2.4457e+01     7.3221      1.838      2.665    24.9754 0.0000e+00
      1.895      0.064     4.8504     22.186     43.867  43.274024    22.9891      7.068   163.5871 2.3868e+01     7.2963      1.859      2.696    24.8052 0.0000e+00
      1.912      0.063     4.1792     15.216     43.837  43.168728    23.9928      7.069   163.7120 2.3494e+01     7.3646      1.878      2.722    24.6614 0.0000e+00
      1.926      0.062     3.3316      9.976     43.870  43.098412    24.5442      7.069   163.6721 2.3103e+01     7.4637      1.887      2.737    24.4911 0.0000e+00
      1.941      0.059     2.5247      6.422     43.941  43.058407    24.6290      7.069   163.7070 2.2561e+01     7.5047      1.902      2.759    24.3836 0.0000e+00
      1.958      0.056     1.8158      4.308     43.973  43.002232    25.0846      7.068   164.3925 2.2073e+01     7.5185      1.921      2.786    24.3224 0.0000e+00
      1.974      0.057     1.2197      3.283     43.952  42.926850    25.9420      7.065   165.3348 2.1707e+01     7.6649      1.936      2.808    24.2484 0.0000e+00
      1.986      0.061     0.7894      2.956     43.910  42.845080    26.4551      7.062   166.0656 2.1456e+01     7.8398      1.949      2.827    24.1174 0.0000e+00
      1.995      0.066     0.4967      2.939     43.901  42.775159    26.9439      7.060   166.4324 2.1170e+01     7.9252      1.956      2.836    23.9795 0.0000e+00
      2.009      0.071     0.3328      3.011     43.934  42.716072    31.7529      7.060   166.7577 2.0487e+01     8.3217      1.965      2.850    23.8747 0.0000e+00
      2.034      0.076     0.2556      3.121     43.951  42.638288    40.5461      7.059   167.5894 1.9623e+01     9.0471      1.994      2.892    23.8190 0.0000e+00
      2.061      0.083     0.2425      3.178     43.940  42.532718    45.3618      7.058   168.4870 1.9041e+01     9.4538      2.024      2.936    23.7948 0.0000e+00
      2.082      0.089     0.2483      3.130     43.970  42.455041    45.9329      7.056   169.0067 1.8673e+01     9.5166      2.043      2.964    23.7293 0.0000e+00
      2.100      0.093     0.2521      2.974     44.025  42.397119    47.2680      7.056   169.2269 1.8253e+01     9.1576      2.057      2.984    23.6062 0.0000e+00
      2.121      0.093     0.2682      2.738     44.010  42.276509    49.6274      7.057   169.3431 1.7613e+01     8.3573      2.076      3.011    23.4956 0.0000e+00
      2.150      0.093     0.2737      2.529     43.993  42.139069    50.9387      7.059   169.5501 1.6875e+01     7.8688      2.107      3.057    23.4039 0.0000e+00
      2.179      0.093     0.2702      2.454     44.068  42.068040    51.4871      7.059   169.8371 1.6352e+01     7.8615      2.139      3.104    23.2733 0.0000e+00
      2.202      0.090     0.2579      2.555     44.196  42.052187    56.1583      7.060   170.1469 1.5954e+01     8.4739      2.160      3.133    23.1380 0.0000e+00
      2.223      0.083     0.2337      2.810     44.323  42.074128    64.6613      7.062   170.3698 1.5476e+01     9.5693      2.177      3.159    23.0326 0.0000e+00
      2.244      0.076     0.2125      3.097     44.379  42.079316    69.2343      7.065   170.4678 1.5074e+01    10.1404      2.203      3.195    22.8995 0.0000e+00
      2.263      0.073     0.2064      3.278     44.311  41.987908    69.0113      7.067   170.4714 1.4827e+01    10.1181      2.222      3.223    22.7245 0.0000e+00
      2.276      0.074     0.2151      3.320     44.241  41.857465    62.1139      7.067   170.4138 1.4606e+01     9.7103      2.232      3.239    22.5508 0.0000e+00
      2.289      0.075     0.2422      3.249     44.281  41.771425    49.4198      7.066   170.6314 1.4284e+01     9.0014      2.243      3.253    22.4345 0.0000e+00
      2.309      0.076     0.2737      3.099     44.364  41.709047    42.4885      7.065   171.2964 1.3787e+01     8.6176      2.261      3.278    22.3911 0.0000e+00
      2.335      0.081     0.2886      2.875     44.454  41.674273    41.8125      7.062   171.9146 1.3250e+01     8.5541      2.290      3.321    22.3903 0.0000e+00
      2.360      0.088     0.2922      2.598     44.571  41.668151    41.2222      7.058   172.1697 1.2912e+01     8.4726      2.319      3.364    22.3354 0.0000e+00
      2.377      0.091     0.2849      2.321     44.679  41.634874    35.3927      7.057   172.4874 1.2681e+01     8.2130      2.331      3.382    22.1666 0.0000e+00
      2.395      0.087     0.2735      2.089     44.752  41.589064    24.7381      7.056   173.0031 1.2232e+01     7.7385      2.342      3.397    21.9855 0.0000e+00
      2.425      0.080     0.2542      1.923     44.776  41.558386    18.9338      7.056   173.3276 1.1667e+01     7.4157      2.379      3.450    21.8668 0.0000e+00
      2.455      0.075     0.2277      1.825     44.759  41.517750    18.4145      7.056   173.4003 1.1377e+01     7.3162      2.415      3.504    21.7562 0.0000e+00
      2.470      0.072     0.2033      1.785     44.785  41.478523    18.4845      7.057   173.3659 1.1326e+01     7.2185      2.425      3.518    21.5813 0.0000e+00
      2.478      0.067     0.1822      1.783     44.908  41.464818    18.7148      7.059   173.3422 1.1195e+01     7.1565      2.427      3.521    21.4264 0.0000e+00
      2.490      0.061     0.1682      1.799     45.092  41.478792    18.8593      7.061   173.3720 1.0906e+01     7.1803      2.439      3.538    21.3883 0.0000e+00
      2.509      0.061     0.1593      1.826     45.301  41.520328    18.8999      7.063   173.4671 1.0624e+01     7.1990      2.462      3.572    21.3938 0.0000e+00
      2.527      0.066     0.1569      1.845     45.529  41.586025    19.2310      7.064   173.8046 1.0432e+01     7.3145      2.482      3.599    21.3379 0.0000e+00
      2.542      0.072     0.1584      1.861     45.724  41.638251    19.8588      7.066   174.2691 1.0244e+01     7.5874      2.492      3.615    21.1699 0.0000e+00
      2.557      0.076     0.1594      1.885     45.814  41.643867    20.1978      7.069   174.5227 9.9823e+00     7.7654      2.505      3.634    20.9806 0.0000e+00
      2.579      0.076     0.1642      1.902     45.848  41.653822    20.1090      7.070   174.6337 9.6613e+00     7.8264      2.528      3.666    20.8232 0.0000e+00
      2.604      0.074     0.1658      1.922     45.897  41.695130    18.5773      7.070   174.8363 9.3328e+00     8.0517      2.555      3.706    20.6591 0.0000e+00
      2.628      0.070     0.1663      1.919     45.983  41.762504    15.7277      7.071   175.0800 9.0565e+00     8.4406      2.580      3.743    20.5094 0.0000e+00
      2.646      0.063     0.1712      1.877     46.057  41.833726    14.1697      7.073   175.3435 8.8948e+00     8.6684      2.596      3.767    20.4136 0.0000e+00
      2.657      0.054     0.1705      1.848     46.060  41.858122    14.0050      7.074   175.6988 8.7749e+00     8.7217      2.606      3.779    20.4160 0.0000e+00
      2.667      0.046     0.1738      1.845     46.079  41.867100    13.6445      7.074   176.0213 8.5822e+00     8.7102      2.614      3.792    20.4295 0.0000e+00
      2.678      0.042     0.1759      1.847     46.128  41.878800    12.9904      7.073   176.2308 8.3684e+00     8.5969      2.626      3.810    20.3960 0.0000e+00
      2.688      0.044     0.1676      1.833     46.094  41.872589    12.6294      7.072   176.3395 8.2307e+00     8.4789      2.638      3.825    20.3936 0.0000e+00
      2.694      0.049     0.1659      1.793     45.976  41.855500    12.5927      7.071   176.3888 8.0556e+00     8.4455      2.641      3.830    20.4496 0.0000e+00
      2.704      0.055     0.1660      1.754     45.881  41.862719    12.5390      7.072   176.3969 7.6406e+00     8.5005      2.648      3.840    20.4504 0.0000e+00
      2.723      0.060     0.1671      1.731     45.963  42.023469    12.0298      7.073   176.4377 7.1147e+00     8.8017      2.669      3.871    20.3541 0.0000e+00
      2.744      0.064     0.1669      1.726     46.206  42.275962    11.1050      7.073   176.6235 6.7239e+00     9.2523      2.693      3.905    20.3800 0.0000e+00
      2.761      0.066     0.1607      1.731     46.427  42.376857    10.5965      7.073   176.7507 6.4170e+00     9.4397      2.708      3.927    20.5299 0.0000e+00
      2.778      0.064     0.1574      1.730     46.602  42.354656    10.5003      7.074   176.5986 6.1096e+00     9.4278      2.723      3.951    20.6105 0.0000e+00
      2.796      0.059     0.1543      1.735     46.747  42.324635     9.9249      7.075   176.4197 5.8729e+00     9.7232      2.743      3.979    20.7184 0.0000e+00
      2.809      0.055     0.1539      1.747     46.889  42.330995     8.8915      7.076   176.4806 5.7264e+00    10.3465      2.757      3.998    20.8164 0.0000e+00
      2.819      0.052     0.1562      1.746     47.014  42.367923     8.3266      7.076   176.6462 5.5749e+00    10.6790      2.764      4.010    20.6681 0.0000e+00
      2.831      0.049     0.1557      1.735     47.062  42.390208     8.2141      7.076   176.8731 5.3805e+00    10.6346      2.776      4.026    20.4151 0.0000e+00
      2.846      0.047     0.1562      1.734     47.097  42.410003     7.6133      7.076   177.0731 5.1837e+00    10.5958      2.791      4.048    20.2545 0.0000e+00
      2.859      0.047     0.1595      1.745     47.207  42.416849     6.5231      7.076   177.0854 5.0001e+00    10.6539      2.805      4.068    20.1204 0.0000e+00
      2.869      0.045     0.1589      1.732     47.416  42.409397     5.9352      7.076   177.1073 4.8346e+00    10.7223      2.814      4.082    20.0260 0.0000e+00
      2.879      0.041     0.1573      1.687     47.625  42.383097     5.8662      7.076   177.1666 4.6059e+00    10.7049      2.821      4.093    20.0211 0.0000e+00
      2.891      0.037     0.1564      1.657     47.766  42.352443     5.5636      7.076   177.3719 4.3288e+00    10.6833      2.835      4.112    20.0549 0.0000e+00
      2.903      0.032     0.1595      1.656     47.883  42.355916     5.0139      7.076   177.7831 4.1816e+00    10.7684      2.849      4.132    19.9747 0.0000e+00
      2.909      0.028     0.1605      1.660     47.968  42.361491     4.7221      7.076   177.9218 4.0958e+00    10.8794      2.853      4.139    19.7197 0.0000e+00
      2.914      0.023     0.1538      1.665     48.005  42.356283     4.7154      7.077   177.5864 3.9603e+00    10.9329      2.857      4.144    19.4615 0.0000e+00
      2.919      0.019     0.1515      1.673     48.027  42.356373     4.7909      7.077   176.9982 3.8660e+00    11.0402      2.864      4.154    19.3064 0.0000e+00
      2.923      0.018     0.1531      1.658     48.072  42.362563     4.9281      7.078   177.0045 3.8217e+00    11.2202      2.867      4.158    19.2180 0.0000e+00
      2.925      0.020     0.1538      1.637     48.108  42.367607     5.0099      7.079   177.5759 3.7657e+00    11.2989      2.868      4.159    19.1372 0.0000e+00
      2.927      0.024     0.1531      1.635     48.058  42.353837     5.0216      7.079   177.6268 3.6597e+00    11.3418      2.870      4.162    19.0998 0.0000e+00
      2.933      0.029     0.1565      1.614     47.881  42.259592     5.0279      7.079   177.3618 3.4552e+00    11.3972      2.874      4.168    19.1055 0.0000e+00
      2.943      0.034     0.1542      1.579     47.670  42.116768     5.1200      7.078   177.2106 3.2068e+00    11.3540      2.886      4.185    19.0614 0.0000e+00
      2.956      0.038     0.1495      1.566     47.524  42.023373     5.3028      7.077   177.5192 3.0334e+00    11.2980      2.901      4.208    18.9949 0.0000e+00
      2.967      0.042     0.1534      1.561     47.287  41.828578     5.4063      7.077   178.1674 2.8999e+00    11.3006      2.909      4.220    19.0445 0.0000e+00
      2.978      0.045     0.1501      1.562     46.971  41.475203     5.3893      7.077   178.1654 2.7673e+00    11.3853      2.920      4.235    19.1470 0.0000e+00
      2.988      0.047     0.1441      1.567     46.956  41.241425     5.0479      7.077   177.5804 2.6774e+00    11.9801      2.932      4.253    19.1651 0.0000e+00
      2.998      0.049     0.1451      1.563     47.216  41.159608     4.4081      7.078   176.9455 2.5778e+00    12.9591      2.939      4.263    19.2089 0.0000e+00
      3.011      0.051     0.1436      1.553     47.331  40.993282     4.0533      7.080   177.1139 2.4342e+00    13.4176      2.951      4.280    19.2581 0.0000e+00
      3.027      0.052     0.1439      1.564     47.380  40.816712     4.0125      7.082   178.1536 2.3050e+00    13.4601      2.970      4.306    19.2059 0.0000e+00
      3.042      0.051     0.1458      1.593     47.543  40.738052     3.9233      7.082   178.5892 2.2030e+00    14.0186      2.984      4.328    18.9652 0.0000e+00
      3.056      0.050     0.1470      1.601     47.608  40.613124     3.7739      7.082   178.0793 2.0940e+00    15.0470      2.996      4.346    18.5430 0.0000e+00
      3.070      0.048     0.1453      1.606     47.573  40.448374     3.6874      7.083   177.4954 2.0028e+00    15.5787      3.012      4.368    18.2735 0.0000e+00
      3.080      0.048     0.1462      1.618     47.588  40.332534     3.6604      7.083   177.5519 1.9594e+00    15.6644      3.021      4.383    18.0930 0.0000e+00
      3.088      0.048     0.1536      1.628     47.621  40.227795     3.6636      7.082   178.0737 1.9122e+00    16.6299      3.027      4.390    17.8131 0.0000e+00
      3.099      0.049     0.1522      1.641     47.656  40.133784     3.7011      7.081   178.4705 1.8322e+00    18.4394      3.038      4.407    17.6266 0.0000e+00
      3.113      0.049     0.1531      1.646     47.721  40.084200     3.7386      7.081   178.4770 1.7445e+00    19.4719      3.053      4.428    17.5143 0.0000e+00
      3.129      0.051     0.1559      1.635     47.796  40.072397     3.7512      7.081   178.0670 1.6747e+00    19.6525      3.068      4.450    17.3744 0.0000e+00
      3.144      0.054     0.1558      1.613     47.890  40.117916     3.8127      7.081   177.4708 1.6425e+00    20.8967      3.084      4.472    17.2293 0.0000e+00
      3.156      0.056     0.1589      1.602     47.951  40.190268     3.9404      7.080   177.0329 1.6251e+00    23.3451      3.096      4.490    17.0959 0.0000e+00
      3.166      0.056     0.1593      1.596     47.964  40.249120     4.0050      7.079   176.9876 1.5935e+00    24.7973      3.104      4.502    16.9848 0.0000e+00
      3.180      0.054     0.1594      1.589     48.015  40.321835     4.0112      7.078   177.1811 1.5464e+00    25.0304      3.116      4.520    16.9028 0.0000e+00
      3.198      0.049     0.1554      1.594     48.058  40.371385     4.0155      7.078   177.2219 1.4879e+00    25.0361      3.137      4.550    16.8588 0.0000e+00
      3.216      0.043     0.1549      1.596     48.078  40.403985     3.9654      7.078   176.6211 1.4407e+00    25.2074      3.158      4.580    16.8881 0.0000e+00
      3.227      0.035     0.1552      1.580     48.127  40.462170     3.8724      7.078   175.0794 1.4195e+00    25.7009      3.167      4.594    16.9693 0.0000e+00
      3.231      0.027     0.1522      1.552     48.149  40.503721     3.8221      7.079   173.5514 1.4142e+00    26.0502      3.169      4.596    16.9930 0.0000e+00
      3.232      0.020     0.1547      1.532     48.228  40.589084     3.8236      7.079   173.1174 1.4113e+00    26.1520      3.170      4.597    16.9898 0.0000e+00
      3.235      0.019     0.1548      1.522     48.391  40.732722     3.8402      7.079   173.1019 1.4040e+00    26.0780      3.173      4.602    17.0217 0.0000e+00
      3.238      0.023     0.1532      1.509     48.424  40.780718     3.8487      7.078   172.8469 1.3952e+00    25.8038      3.176      4.608    17.0262 0.0000e+00
      3.242      0.029     0.1495      1.490     48.425  40.788635     3.8347      7.078   171.8422 1.3743e+00    25.6034      3.178      4.609    17.0563 0.0000e+00
      3.250      0.036     0.1469      1.470     48.751  41.018865     3.8124      7.078   170.4178 1.3339e+00    25.4999      3.185      4.619    17.0918 0.0000e+00
      3.265      0.045     0.1474      1.469     49.747  41.787267     3.6953      7.078   170.0789 1.2909e+00    24.7233      3.203      4.646    17.0665 0.0000e+00
      3.279      0.055     0.1455      1.489     51.324  43.034105     3.4680      7.077   170.5843 1.2634e+00    23.2848      3.218      4.668    17.1052 0.0000e+00
      3.290      0.065     0.1440      1.499     53.497  44.732795     3.3272      7.075   170.9360 1.2463e+00    22.4193      3.226      4.679    17.1445 0.0000e+00
      3.305      0.075     0.1410      1.500     56.496  47.027800     3.2912      7.073   170.2020 1.2269e+00    22.0480      3.238      4.697    17.0696 0.0000e+00
      3.326      0.085     0.1407      1.510     59.382  49.134809     3.1330      7.070   168.7636 1.2023e+00    19.5470      3.259      4.727    16.9928 0.0000e+00
      3.351      0.094     0.1451      1.525     61.209  50.336393     2.8550      7.067   168.4292 1.1624e+00    15.0322      3.287      4.767    16.9363 0.0000e+00
      3.379      0.100     0.1457      1.546     62.123  50.825276     2.7093      7.065   168.9123 1.1145e+00    12.5837      3.314      4.806    16.8362 0.0000e+00
      3.408      0.102     0.1453      1.556     62.641  51.045259     2.6947      7.062   168.5820 1.0697e+00    12.2828      3.341      4.845    16.6572 0.0000e+00
      3.437      0.099     0.1480      1.547     62.972  51.154488     2.6198      7.058   167.1888 1.0327e+00    11.5312      3.372      4.891    16.3751 0.0000e+00
      3.462      0.094     0.1495      1.544     63.105  51.129771     2.4697      7.056   165.1454 1.0118e+00    10.2939      3.397      4.927    16.0982 0.0000e+00
      3.484      0.087     0.1534      1.548     63.145  51.063749     2.3868      7.054   162.3741 9.8724e-01     9.7220      3.416      4.954    15.8855 0.0000e+00
      3.505      0.081     0.1559      1.553     63.140  50.991090     2.3838      7.052   159.4069 9.5363e-01     9.7408      3.438      4.986    15.7284 0.0000e+00
      3.524      0.077     0.1530      1.553     63.158  50.949666     2.3574      7.050   156.8016 9.3244e-01     9.5989      3.458      5.014    15.6103 0.0000e+00
      3.539      0.074     0.1541      1.553     63.136  50.880323     2.3009      7.048   154.2761 9.1883e-01     9.3051      3.470      5.033    15.4956 0.0000e+00
      3.557      0.073     0.1544      1.570     63.059  50.787586     2.2579      7.046   151.7582 8.9523e-01     9.1601      3.485      5.055    15.4215 0.0000e+00
      3.578      0.076     0.1556      1.594     63.002  50.717336     2.2459      7.043   149.5020 8.6317e-01     9.2122      3.509      5.089    15.3720 0.0000e+00
      3.599      0.081     0.1558      1.606     62.990  50.602398     2.2469      7.040   147.9050 8.4075e-01     9.2171      3.532      5.123    15.3336 0.0000e+00
      3.616      0.086     0.1542      1.601     63.095  50.477221     2.2127      7.036   146.7307 8.2412e-01     8.7756      3.545      5.141    15.2846 0.0000e+00
      3.636      0.090     0.1577      1.597     63.219  50.346524     2.1396      7.032   145.1119 7.8884e-01     8.0075      3.561      5.164    15.2527 0.0000e+00
      3.663      0.092     0.1598      1.596     63.296  50.228306     2.0876      7.028   143.1310 7.3963e-01     7.5818      3.593      5.211    15.2764 0.0000e+00
      3.691      0.091     0.1627      1.588     63.416  50.190595     2.0658      7.023   141.5371 6.9871e-01     7.5224      3.622      5.255    15.2039 0.0000e+00
      3.716      0.086     0.1608      1.578     63.467  50.144400     2.0097      7.019   140.2081 6.6479e-01     7.5620      3.644      5.285    15.0000 0.0000e+00
      3.741      0.078     0.1614      1.569     63.314  49.987137     1.9177      7.018   138.4201 6.4051e-01     7.6172      3.668      5.320    14.7930 0.0000e+00
      3.761      0.071     0.1630      1.567     63.137  49.813004     1.8605      7.017   136.2666 6.3373e-01     7.5746      3.693      5.357    14.6650 0.0000e+00
      3.772      0.067     0.1610      1.568     63.134  49.753320     1.8340      7.015   134.3884 6.2761e-01     7.4910      3.700      5.368    14.5608 0.0000e+00
      3.781      0.064     0.1615      1.572     63.221  49.773393     1.7970      7.013   133.1774 6.1197e-01     7.5287      3.703      5.372    14.4775 0.0000e+00
      3.796      0.061     0.1593      1.574     63.292  49.801666     1.7620      7.013   132.2924 5.7730e-01     7.6886      3.720      5.395    14.4760 0.0000e+00
      3.818      0.059     0.1599      1.559     63.379  49.841157     1.7530      7.012   131.1734 5.1780e-01     7.7851      3.744      5.431    14.4570 0.0000e+00
      3.840      0.059     0.1601      1.534     63.442  49.869860     1.7455      7.011   129.9734 4.7029e-01     7.7730      3.771      5.468    14.3939 0.0000e+00
      3.854      0.057     0.1605      1.537     63.457  49.894704     1.7389      7.011   129.1401 4.4925e-01     7.8154      3.782      5.485    14.3515 0.0000e+00
      3.862      0.052     0.1619      1.548     63.401  49.887584     1.7558      7.010   128.6688 4.2730e-01     7.9559      3.785      5.488    14.3434 0.0000e+00
      3.873      0.046     0.1605      1.536     63.239  49.783824     1.7758      7.009   127.9747 4.0902e-01     8.0709      3.798      5.508    14.3167 0.0000e+00
      3.887      0.041     0.1552      1.527     63.104  49.656108     1.7890      7.009   126.8577 4.0198e-01     8.1477      3.813      5.531    14.2859 0.0000e+00
      3.898      0.038     0.1567      1.524     63.118  49.613246     1.7910      7.010   125.6597 3.9365e-01     8.3042      3.823      5.544    14.3025 0.0000e+00
      3.907      0.037     0.1604      1.512     63.053  49.519499     1.7820      7.011   124.7611 3.7988e-01     8.4943      3.831      5.557    14.3429 0.0000e+00
      3.915      0.036     0.1559      1.507     62.691  49.220993     1.7800      7.012   124.1666 3.6695e-01     8.6014      3.840      5.570    14.3740 0.0000e+00
      3.922      0.036     0.1556      1.512     62.406  48.988219     1.7843      7.014   123.4618 3.6362e-01     8.6763      3.846      5.579    14.3538 0.0000e+00
      3.930      0.037     0.1572      1.518     62.516  49.054301     1.7924      7.014   122.5202 3.6139e-01     8.7163      3.852      5.587    14.2916 0.0000e+00
      3.940      0.040     0.1542      1.534     62.804  49.258048     1.7953      7.015   121.6435 3.5292e-01     8.8811      3.863      5.602    14.2532 0.0000e+00
      3.953      0.045     0.1538      1.526     62.950  49.356406     1.7854      7.016   120.9494 3.4401e-01     9.2332      3.877      5.624    14.2535 0.0000e+00
      3.964      0.048     0.1557      1.489     62.963  49.354615     1.7809      7.016   120.3231 3.2501e-01     9.4222      3.888      5.639    14.2519 0.0000e+00
      3.976      0.049     0.1543      1.469     63.043  49.426848     1.7987      7.017   119.6636 2.9565e-01     9.5265      3.896      5.651    14.2297 0.0000e+00
      3.991      0.048     0.1586      1.461     63.044  49.467853     1.8752      7.018   118.9121 2.8303e-01    10.2545      3.913      5.675    14.2093 0.0000e+00
      4.006      0.046     0.1589      1.444     62.909  49.405994     1.9911      7.018   118.2915 2.8058e-01    11.5295      3.930      5.701    14.2003 0.0000e+00
      4.018      0.043     0.1508      1.423     62.916  49.440893     2.0431      7.017   117.8386 2.7214e-01    12.2352      3.940      5.714    14.1835 0.0000e+00
      4.028      0.040     0.1503      1.412     62.894  49.445391     2.0382      7.017   117.2225 2.6159e-01    12.3308      3.949      5.728    14.1844 0.0000e+00
      4.036      0.038     0.1506      1.422     62.086  48.825469     2.0809      7.018   116.3481 2.5097e-01    13.1641      3.959      5.741    14.2289 0.0000e+00
      4.042      0.037     0.1478      1.429     61.206  48.104085     2.1681      7.019   115.6125 2.4610e-01    14.7264      3.964      5.749    14.2720 0.0000e+00
      4.050      0.037     0.1456      1.419     60.877  47.770655     2.2101      7.018   115.2973 2.3701e-01    15.5418      3.969      5.757    14.2893 0.0000e+00
      4.062      0.041     0.1430      1.407     58.626  45.936761     2.1978      7.016   115.0320 2.1411e-01    15.6438      3.981      5.774    14.3021 0.0000e+00
      4.075      0.049     0.1460      1.394     54.862  42.879921     2.1447      7.014   114.4696 1.9997e-01    16.0971      3.999      5.801    14.3315 0.0000e+00
      4.084      0.058     0.1473      1.391     53.098  41.280468     2.0756      7.014   113.7457 2.0988e-01    16.9231      4.007      5.812    14.3200 0.0000e+00
      4.094      0.065     0.1453      1.432     53.078  41.006811     2.0445      7.014   113.2486 2.2019e-01    17.3987      4.008      5.813    14.2152 0.0000e+00
      4.114      0.073     0.1446      1.614     53.199  40.903675     2.0345      7.014   113.3646 2.0912e-01    17.4745      4.030      5.846    14.1790 0.0000e+00
      4.141      0.081     0.1430      2.109     53.398  40.921785     1.9549      7.015   113.7707 1.8361e-01    17.5325      4.066      5.896    14.1340 0.0000e+00
      4.163      0.085     0.1427      3.064     53.593  40.971757     1.8060      7.016   113.8567 1.6434e-01    17.5870      4.085      5.924    13.8793 0.0000e+00
      4.183      0.085     0.1447      4.449     53.711  41.000037     1.7334      7.018   113.8882 1.5528e-01    17.6556      4.097      5.944    13.5944 0.0000e+00
      4.208      0.085     0.1571      6.052     53.931  41.136712     1.7426      7.020   114.0660 1.4531e-01    17.7467      4.128      5.987    13.4192 0.0000e+00
      4.232      0.086     0.2023      7.676     54.190  41.291413     1.6675      7.021   114.4578 1.3461e-01    18.0061      4.157      6.029    13.3083 0.0000e+00
      4.247      0.087     0.3028      9.188     54.354  41.347227     1.4912      7.023   115.0109 1.3011e-01    18.4686      4.164      6.039    13.2094 0.0000e+00
      4.264      0.087     0.4602     10.543     54.462  41.367186     1.3835      7.024   115.1618 1.3127e-01    18.7623      4.174      6.053    13.1485 0.0000e+00
      4.294      0.084     0.6358     11.964     54.564  41.405726     1.3809      7.026   114.9051 1.3322e-01    18.8238      4.210      6.107    13.1416 0.0000e+00
      4.324      0.079     0.8100     13.872     54.640  41.432361     1.3934      7.028   114.5745 1.3055e-01    18.8368      4.247      6.160    13.1104 0.0000e+00
      4.344      0.073     0.9773     16.601     54.680  41.435310     1.3852      7.030   115.0368 1.2738e-01    18.9526      4.261      6.180    13.0259 0.0000e+00
      4.358      0.065     1.1108     20.119     54.702  41.441346     1.3562      7.032   116.3645 1.2771e-01    19.1651      4.272      6.196    12.9621 0.0000e+00
      4.371      0.060     1.2440     24.133     54.779  41.505335     1.3261      7.034   117.2918 1.2754e-01    19.2551      4.289      6.221    12.9414 0.0000e+00
      4.381      0.061     1.4304     28.366     54.974  41.637776     1.3126      7.035   117.5588 1.2754e-01    19.2894      4.298      6.234    12.9105 0.0000e+00
      4.389      0.068     1.7208     32.436     55.235  41.773280     1.2837      7.035   117.7002 1.2673e-01    19.4765      4.300      6.237    12.8801 0.0000e+00
      4.406      0.081     2.1112     35.911     55.563  41.937695     1.2184      7.035   118.3130 1.2654e-01    19.7751      4.317      6.261    12.8671 0.0000e+00
      4.432      0.097     2.5381     38.590     55.903  42.102311     1.1644      7.037   119.4620 1.2772e-01    19.9285      4.348      6.306    12.8856 0.0000e+00
      4.461      0.112     3.0007     40.638     56.147  42.176756     1.1375      7.040   120.4925 1.2782e-01    19.9304      4.374      6.343    12.8915 0.0000e+00
      4.491      0.124     3.4562     42.554     56.325  42.202980     1.0935      7.042   120.9644 1.2731e-01    20.1743      4.401      6.383    12.8142 0.0000e+00
      4.527      0.129     3.8376     44.942     56.470  42.228841     1.0236      7.044   121.1244 1.2556e-01    20.6226      4.440      6.439    12.7339 0.0000e+00
      4.566      0.128     4.1244     48.462     56.552  42.235454     0.9834      7.046   121.6526 1.2402e-01    20.8419      4.479      6.495    12.6664 0.0000e+00
      4.602      0.122     4.3272     53.358     56.568  42.219407     0.9816      7.048   122.7045 1.2388e-01    20.8792      4.513      6.546    12.5541 0.0000e+00
      4.634      0.114     4.5246     59.156     56.593  42.225203     0.9945      7.050   123.9487 1.2384e-01    20.9372      4.546      6.593    12.4522 0.0000e+00
      4.662      0.107     4.7565     65.279     56.628  42.242043     1.0224      7.051   125.3385 1.2378e-01    20.9953      4.574      6.635    12.3787 0.0000e+00
      4.682      0.101     5.1199     71.200     56.628  42.232593     1.0445      7.053   126.6892 1.2375e-01    21.0015      4.593      6.661    12.3301 0.0000e+00
      4.700      0.099     5.6798     76.398     56.646  42.237883     1.0450      7.054   127.3742 1.2373e-01    20.9781      4.606      6.680    12.3103 0.0000e+00
      4.724      0.100     6.3182     80.474     56.661  42.242514     1.0198      7.054   127.8559 1.2372e-01    20.9516      4.630      6.716    12.3026 0.0000e+00
      4.754      0.101     6.9933     83.139     56.642  42.225114     0.9730      7.054   129.4164 1.2371e-01    20.9205      4.665      6.765    12.2968 0.0000e+00
      4.783      0.101     7.6521     84.360     56.634  42.217909     0.9543      7.055   131.6147 1.2369e-01    20.9429      4.691      6.804    12.2859 0.0000e+00
      4.811      0.102     8.2210     84.505     56.636  42.218863     0.9768      7.057   133.1833 1.2371e-01    20.9829      4.717      6.842    12.2780 0.0000e+00
      4.838      0.104     8.6733     84.105     56.661  42.236647     0.9865      7.058   133.4972 1.2378e-01    20.9613      4.748      6.886    12.2727 0.0000e+00
      4.859      0.108     8.9607     83.409     56.669  42.242517     0.9711      7.057   133.4309 1.2383e-01    20.9550      4.767      6.914    12.2701 0.0000e+00
      4.878      0.112     9.0778     82.477     56.647  42.226364     0.9573      7.057   134.3609 1.2382e-01    21.0430      4.779      6.932    12.2697 0.0000e+00
      4.907      0.112     9.0651     81.447     56.656  42.231767     0.9698      7.057   135.6220 1.2377e-01    21.1374      4.807      6.972    12.2694 0.0000e+00
      4.947      0.109     9.0165     80.467     56.676  42.244366     0.9971      7.058   136.8051 1.2377e-01    21.1742      4.852      7.038    12.2685 0.0000e+00
      4.985      0.103     8.9448     79.655     56.690  42.251755     0.9962      7.059   137.4802 1.2379e-01    21.1797      4.894      7.099    12.2675 0.0000e+00
      5.013      0.098     8.8350     79.030     56.700  42.257626     0.9756      7.060   137.4181 1.2376e-01    21.1355      4.920      7.136    12.2690 0.0000e+00
      5.029      0.094     8.7218     78.524     56.694  42.251880     0.9651      7.061   138.0334 1.2375e-01    21.0498      4.934      7.156    12.2688 0.0000e+00
      5.041      0.094     8.6112     78.113     56.685  42.245742     0.9679      7.061   139.4986 1.2375e-01    21.0659      4.941      7.167    12.2648 0.0000e+00
      5.057      0.099     8.5239     77.832     56.683  42.246887     0.9436      7.060   141.0227 1.2375e-01    21.2281      4.952      7.183    12.2619 0.0000e+00
      5.085      0.108     8.4621     77.688     56.705  42.265730     0.8878      7.059   141.4053 1.2374e-01    21.3716      4.982      7.227    12.2611 0.0000e+00
      5.123      0.118     8.4088     77.618     56.730  42.283151     0.8592      7.059   140.8550 1.2376e-01    21.3998      5.025      7.290    12.2596 0.0000e+00
      5.161      0.123     8.3621     77.549     56.713  42.267104     0.8474      7.059   141.1666 1.2382e-01    21.3638      5.063      7.343    12.2600 0.0000e+00
      5.194      0.121     8.3305     77.465     56.710  42.262120     0.8611      7.059   142.5054 1.2380e-01    21.3806      5.094      7.388    12.2635 0.0000e+00
      5.225      0.114     8.3179     77.385     56.743  42.286355     0.9081      7.058   143.9639 1.2374e-01    21.4330      5.125      7.432    12.2660 0.0000e+00
      5.253      0.108     8.3141     77.325     56.767  42.306238     0.9332      7.058   144.3474 1.2374e-01    21.4157      5.153      7.474    12.2649 0.0000e+00
      5.276      0.103     8.3076     77.274     56.771  42.312108     0.9323      7.057   143.7864 1.2375e-01    21.3768      5.175      7.506    12.2609 0.0000e+00
      5.297      0.098     8.2983     77.230     56.743  42.293856     0.9385      7.057   143.8064 1.2377e-01    21.3388      5.191      7.529    12.2580 0.0000e+00
      5.322      0.088     8.2883     77.205     56.715  42.275978     0.9667      7.057   144.7606 1.2379e-01    21.2977      5.216      7.565    12.2577 0.0000e+00
      5.353      0.077     8.2831     77.199     56.722  42.286365     0.9898      7.059   145.8596 1.2375e-01    21.2547      5.251      7.616    12.2599 0.0000e+00
      5.378      0.068     8.2769     77.203     56.719  42.292502     0.9934      7.061   146.4251 1.2370e-01    21.1954      5.280      7.658    12.2628 0.0000e+00
      5.390      0.063     8.2709     77.197     56.700  42.286726     0.9852      7.061   146.4357 1.2368e-01    21.1615      5.290      7.673    12.2646 0.0000e+00
      5.393      0.062     8.2686     77.200     56.689  42.280005     0.9819      7.060   146.4182 1.2371e-01    21.1524      5.289      7.671    12.2666 0.0000e+00
      5.398      0.063     8.2661     77.223     56.689  42.274718     1.0043      7.059   146.8152 1.2382e-01    21.1531      5.289      7.671    12.2713 0.0000e+00
      5.413      0.064     8.2680     77.246     56.717  42.286261     1.0311      7.059   147.6219 1.2388e-01    21.1711      5.303      7.691    12.2795 0.0000e+00
      5.441      0.065     8.2631     77.257     56.733  42.292607     1.0391      7.059   148.5152 1.2385e-01    21.1987      5.335      7.738    12.2891 0.0000e+00
      5.472      0.065     8.2624     77.277     56.726  42.287977     1.0350      7.059   149.0122 1.2381e-01    21.1791      5.371      7.788    12.2920 0.0000e+00
      5.492      0.063     8.2678     77.313     56.729  42.293742     1.0309      7.059   149.1568 1.2380e-01    21.1390      5.390      7.817    12.2846 0.0000e+00
      5.500      0.062     8.2727     77.345     56.734  42.298848     1.0395      7.058   149.3174 1.2380e-01    21.1581      5.395      7.824    12.2736 0.0000e+00
      5.503      0.064     8.2741     77.375     56.724  42.286251     1.0555      7.057   149.6634 1.2375e-01    21.2050      5.395      7.824    12.2671 0.0000e+00
      5.511      0.070     8.2746     77.386     56.710  42.268364     1.0579      7.057   150.6726 1.2368e-01    21.2277      5.399      7.832    12.2694 0.0000e+00
      5.530      0.080     8.2799     77.352     56.725  42.272986     1.0444      7.058   151.8836 1.2373e-01    21.1934      5.419      7.861    12.2758 0.0000e+00
      5.560      0.090     8.2811     77.307     56.739  42.278657     1.0250      7.059   152.2593 1.2380e-01    21.1316      5.450      7.904    12.2781 0.0000e+00
      5.594      0.098     8.2866     77.299     56.734  42.273453     1.0231      7.060   152.2046 1.2384e-01    21.1300      5.488      7.961    12.2719 0.0000e+00
      5.624      0.102     8.2913     77.310     56.735  42.273540     1.0219      7.060   152.2539 1.2390e-01    21.2082      5.519      8.006    12.2627 0.0000e+00
      5.645      0.105     8.2874     77.307     56.744  42.279696     0.9929      7.059   153.1997 1.2386e-01    21.3253      5.536      8.028    12.2575 0.0000e+00
      5.665      0.108     8.2794     77.297     56.750  42.284413     0.9648      7.057   154.7783 1.2381e-01    21.3838      5.555      8.055    12.2542 0.0000e+00
      5.688      0.110     8.2808     77.297     56.727  42.267097     0.9565      7.056   155.3372 1.2382e-01    21.3344      5.578      8.089    12.2523 0.0000e+00
      5.718      0.111     8.2844     77.327     56.718  42.260751     0.9837      7.056   155.1385 1.2379e-01    21.3097      5.604      8.127    12.2517 0.0000e+00
      5.756      0.109     8.2823     77.372     56.730  42.271147     1.0349      7.056   154.9580 1.2373e-01    21.3587      5.644      8.185    12.2514 0.0000e+00
      5.794      0.106     8.2822     77.422     56.721  42.265858     1.0596      7.057   155.8213 1.2371e-01    21.4145      5.688      8.249    12.2522 0.0000e+00
      5.820      0.101     8.2789     77.466     56.714  42.260273     1.0500      7.057   157.6618 1.2371e-01    21.4372      5.712      8.285    12.2524 0.0000e+00
      5.835      0.095     8.2848     77.490     56.724  42.267096     1.0277      7.057   158.5407 1.2371e-01    21.4627      5.721      8.298    12.2523 0.0000e+00
      5.851      0.090     8.2890     77.515     56.750  42.284879     1.0231      7.056   158.2740 1.2368e-01    21.5855      5.734      8.316    12.2535 0.0000e+00
      5.873      0.087     8.2939     77.539     56.752  42.284870     1.0437      7.056   157.8785 1.2367e-01    21.6583      5.759      8.352    12.2548 0.0000e+00
      5.899      0.087     8.3012     77.552     56.730  42.266983     1.0604      7.056   158.6629 1.2373e-01    21.6259      5.786      8.392    12.2553 0.0000e+00
      5.926      0.085     8.3005     77.562     56.720  42.259015     1.0504      7.057   160.2728 1.2377e-01    21.6038      5.812      8.430    12.2544 0.0000e+00
      5.951      0.081     8.3050     77.558     56.711  42.252000     1.0215      7.057   160.9968 1.2378e-01    21.5277      5.838      8.468    12.2527 0.0000e+00
      5.971      0.074     8.3085     77.537     56.703  42.245645     1.0195      7.057   161.2210 1.2383e-01    21.4567      5.858      8.496    12.2511 0.0000e+00
      5.984      0.066     8.3088     77.522     56.704  42.245645     1.0426      7.057   161.2632 1.2377e-01    21.4635      5.868      8.511    12.2504 0.0000e+00
      5.997      0.060     8.3108     77.532     56.713  42.251991     1.0518      7.057   161.5075 1.2369e-01    21.4730      5.879      8.527    12.2500 0.0000e+00
      6.013      0.059     8.3112     77.549     56.722  42.258901     1.0307      7.056   162.5396 1.2376e-01    21.4348      5.897      8.553    12.2494 0.0000e+00
      6.028      0.061     8.3073     77.536     56.729  42.265724     0.9873      7.056   163.3313 1.2381e-01    21.3779      5.914      8.577    12.2487 0.0000e+00
      6.040      0.065     8.3054     77.509     56.734  42.271022     0.9678      7.055   163.6811 1.2379e-01    21.3999      5.923      8.591    12.2480 0.0000e+00
      6.055      0.068     8.3065     77.480     56.714  42.259481     0.9779      7.055   163.7567 1.2377e-01    21.4615      5.934      8.608    12.2476 0.0000e+00
      6.077      0.071     8.3116     77.426     56.701  42.253134     0.9850      7.055   163.7297 1.2376e-01    21.4049      5.959      8.642    12.2479 0.0000e+00
      6.099      0.076     8.3083     77.386     56.702  42.257764     0.9790      7.056   164.3870 1.2379e-01    21.2278      5.985      8.681    12.2486 0.0000e+00
      6.117      0.083     8.3035     77.400     56.692  42.251994     0.9635      7.056   165.3370 1.2380e-01    21.0971      5.999      8.701    12.2499 0.0000e+00
      6.135      0.093     8.3034     77.450     56.688  42.246830     0.9633      7.055   165.9248 1.2375e-01    21.1224      6.012      8.720    12.2531 0.0000e+00
      6.157      0.103     8.2936     77.517     56.711  42.258805     0.9772      7.053   166.1590 1.2372e-01    21.2947      6.036      8.755    12.2567 0.0000e+00
      6.184      0.111     8.2866     77.588     56.731  42.269826     0.9742      7.052   165.9315 1.2372e-01    21.4732      6.062      8.792    12.2602 0.0000e+00
      6.217      0.116     8.2894     77.658     56.711  42.253131     0.9601      7.051   165.6692 1.2372e-01    21.5374      6.094      8.839    12.2629 0.0000e+00
      6.255      0.117     8.2955     77.720     56.705  42.247362     0.9560      7.051   166.0845 1.2380e-01    21.5588      6.134      8.897    12.2605 0.0000e+00
      6.291      0.116     8.3046     77.757     56.728  42.263543     0.9661      7.052   166.9091 1.2389e-01    21.6641      6.172      8.952    12.2551 0.0000e+00
      6.317      0.115     8.3127     77.759     56.722  42.258350     0.9829      7.052   167.4654 1.2385e-01    21.8201      6.199      8.991    12.2517 0.0000e+00
      6.337      0.112     8.3207     77.732     56.708  42.248050     0.9843      7.052   167.6487 1.2375e-01    21.8396      6.213      9.012    12.2503 0.0000e+00
      6.360      0.109     8.3282     77.695     56.733  42.265955     0.9653      7.052   167.4910 1.2372e-01    21.7629      6.231      9.039    12.2494 0.0000e+00
      6.392      0.107     8.3331     77.675     56.758  42.284414     0.9528      7.052   167.1936 1.2377e-01    21.7806      6.267      9.090    12.2482 0.0000e+00
      6.427      0.110     8.3329     77.670     56.753  42.280825     0.9512      7.052   167.5800 1.2378e-01    21.7804      6.306      9.145    12.2476 0.0000e+00
      6.455      0.115     8.3293     77.661     56.759  42.286028     0.9461      7.052   168.4632 1.2375e-01    21.5889      6.332      9.184    12.2478 0.0000e+00
      6.478      0.115     8.3243     77.660     56.755  42.283843     0.9321      7.052   169.0109 1.2378e-01    21.3787      6.351      9.211    12.2473 0.0000e+00
      6.505      0.111     8.3219     77.664     56.716  42.254417     0.9156      7.052   168.8672 1.2382e-01    21.3224      6.376      9.248    12.2466 0.0000e+00
      6.539      0.107     8.3235     77.654     56.707  42.247592     0.9215      7.050   168.3604 1.2377e-01    21.3528      6.413      9.302    12.2465 0.0000e+00
      6.571      0.102     8.3207     77.654     56.732  42.264802     0.9531      7.049   168.5620 1.2372e-01    21.4046      6.448      9.353    12.2476 0.0000e+00
      6.596      0.097     8.3202     77.663     56.743  42.272084     0.9808      7.050   169.4983 1.2378e-01    21.4361      6.469      9.383    12.2487 0.0000e+00
      6.617      0.090     8.3233     77.655     56.743  42.272159     0.9820      7.050   170.3889 1.2386e-01    21.3919      6.487      9.409    12.2481 0.0000e+00
      6.638      0.085     8.3198     77.640     56.735  42.265716     0.9501      7.050   170.3820 1.2386e-01    21.3146      6.511      9.443    12.2470 0.0000e+00
      6.657      0.082     8.3196     77.633     56.725  42.257654     0.9119      7.050   169.7590 1.2382e-01    21.3211      6.531      9.471    12.2467 0.0000e+00
      6.674      0.079     8.3237     77.645     56.699  42.238145     0.9114      7.050   169.8251 1.2380e-01    21.4020      6.542      9.489    12.2463 0.0000e+00
      6.695      0.074     8.3205     77.684     56.675  42.220258     0.9363      7.050   170.5791 1.2378e-01    21.4385      6.563      9.518    12.2457 0.0000e+00
      6.721      0.070     8.3194     77.728     56.689  42.231789     0.9379      7.049   171.3044 1.2377e-01    21.3535      6.594      9.564    12.2453 0.0000e+00
      6.742      0.069     8.3181     77.757     56.713  42.250620     0.9146      7.048   171.3671 1.2381e-01    21.1933      6.617      9.597    12.2449 0.0000e+00
      6.752      0.068     8.3188     77.778     56.722  42.257531     0.8957      7.048   170.9936 1.2383e-01    21.1068      6.623      9.604    12.2447 0.0000e+00
      6.761      0.067     8.3240     77.783     56.715  42.251879     0.9009      7.048   171.0038 1.2375e-01    21.1279      6.625      9.609    12.2448 0.0000e+00
      6.778      0.067     8.3302     77.773     56.708  42.245750     0.9354      7.048   171.4907 1.2370e-01    21.2098      6.644      9.636    12.2456 0.0000e+00
      6.802      0.073     8.3314     77.763     56.708  42.246895     0.9632      7.047   172.2339 1.2376e-01    21.2770      6.674      9.679    12.2466 0.0000e+00
      6.822      0.080     8.3349     77.763     56.732  42.265729     0.9623      7.046   172.6767 1.2381e-01    21.2915      6.693      9.708    12.2465 0.0000e+00
      6.837      0.082     8.3356     77.778     56.754  42.283045     0.9580      7.046   172.6289 1.2381e-01    21.3170      6.701      9.718    12.2460 0.0000e+00
      6.860      0.080     8.3331     77.780     56.729  42.265853     0.9534      7.045   172.6883 1.2380e-01    21.3461      6.723      9.751    12.2458 0.0000e+00
      6.890      0.080     8.3328     77.759     56.704  42.248269     0.9392      7.045   173.0500 1.2380e-01    21.3012      6.762      9.808    12.2464 0.0000e+00
      6.912      0.084     8.3305     77.735     56.719  42.260859     0.9194      7.045   173.4754 1.2383e-01    21.1839      6.785      9.840    12.2477 0.0000e+00
      6.922      0.089     8.3351     77.730     56.760  42.291137     0.9059      7.046   173.7010 1.2386e-01    21.1235      6.786      9.841    12.2484 0.0000e+00
      6.937      0.092     8.3348     77.741     56.770  42.296998     0.9097      7.046   173.6272 1.2379e-01    21.1516      6.796      9.856    12.2487 0.0000e+00
      6.967      0.093     8.3315     77.728     56.734  42.268246     0.9479      7.046   173.6156 1.2369e-01    21.3526      6.832      9.908    12.2506 0.0000e+00
      7.001      0.094     8.3275     77.697     56.724  42.260859     1.0104      7.046   173.9911 1.2368e-01    21.7097      6.871      9.964    12.2524 0.0000e+00
      7.029      0.094     8.3265     77.677     56.739  42.271151     1.0406      7.046   174.4678 1.2370e-01    21.8830      6.895     10.000    12.2514 0.0000e+00
      7.051      0.089     8.3314     77.654     56.733  42.265741     1.0389      7.046   174.8185 1.2369e-01    21.8770      6.915     10.029    12.2496 0.0000e+00
      7.071      0.080     8.3297     77.624     56.723  42.258916     1.0732      7.046   175.1347 1.2369e-01    21.7730      6.936     10.059    12.2485 0.0000e+00
      7.088      0.072     8.3235     77.613     56.714  42.252110     1.1547      7.045   175.3657 1.2373e-01    21.5479      6.951     10.082    12.2481 0.0000e+00
      7.103      0.066     8.3236     77.626     56.706  42.246918     1.2088      7.045   175.5468 1.2373e-01    21.4443      6.965     10.102    12.2475 0.0000e+00
      7.120      0.062     8.3216     77.651     56.720  42.259612     1.2119      7.045   175.7755 1.2373e-01    21.4419      6.983     10.128    12.2470 0.0000e+00
      7.137      0.061     8.3160     77.693     56.743  42.278652     1.1508      7.046   176.1511 1.2375e-01    21.3830      7.001     10.155    12.2473 0.0000e+00
      7.151      0.062     8.3149     77.746     56.748  42.286715     1.0353      7.046   176.6469 1.2374e-01    21.3465      7.014     10.172    12.2477 0.0000e+00
      7.165      0.064     8.3177     77.775     56.747  42.293634     0.9803      7.046   176.9519 1.2374e-01    21.3773      7.024     10.189    12.2476 0.0000e+00
      7.180      0.067     8.3191     77.794     56.745  42.298836     0.9947      7.046   177.0004 1.2380e-01    21.4473      7.040     10.212    12.2494 0.0000e+00
      7.197      0.071     8.3227     77.819     56.728  42.286152     0.9928      7.046   177.0613 1.2386e-01    21.5779      7.058     10.237    12.2519 0.0000e+00
      7.217      0.076     8.3316     77.829     56.708  42.267215     0.9661      7.046   177.3433 1.2384e-01    21.7263      7.077     10.265    12.2529 0.0000e+00
      7.238      0.080     8.3310     77.828     56.706  42.260288     0.9543      7.046   177.8290 1.2383e-01    21.7724      7.097     10.293    12.2616 0.0000e+00
      7.260      0.085     8.3300     77.817     56.721  42.265854     0.9664      7.046   178.2870 1.2385e-01    21.7941      7.120     10.327    12.2721 0.0000e+00
      7.282      0.091     8.3354     77.797     56.734  42.271039     0.9713      7.046   178.5801 1.2383e-01    21.8188      7.142     10.359    12.2696 0.0000e+00
      7.302      0.097     8.3362     77.783     56.722  42.259499     0.9625      7.045   178.8775 1.2378e-01    21.6953      7.160     10.384    12.2639 0.0000e+00
      7.326      0.104     8.3371     77.779     56.715  42.253265     0.9603      7.043   179.1290 1.2377e-01    21.4958      7.182     10.417    12.2601 0.0000e+00
      7.354      0.109     8.3378     77.778     56.724  42.259136     0.9618      7.041   179.2119 1.2381e-01    21.3876      7.211     10.458    12.2544 0.0000e+00
      7.386      0.110     8.3348     77.783     56.734  42.267011     0.9639      7.041   179.3637 1.2383e-01    21.4120      7.242     10.503    12.2501 0.0000e+00
      7.420      0.107     8.3338     77.785     56.759  42.285003     0.9613      7.040   179.6741 1.2375e-01    21.5855      7.276     10.555    12.2482 0.0000e+00
      7.451      0.100     8.3343     77.777     56.761  42.286261     0.9388      7.040   180.0401 1.2368e-01    21.7778      7.311     10.604    12.2472 0.0000e+00
      7.476      0.090     8.3335     77.771     56.756  42.282211     0.9158      7.040   180.2604 1.2373e-01    21.8241      7.336     10.639    12.2468 0.0000e+00
      7.493      0.081     8.3348     77.771     56.778  42.299518     0.9078      7.041   180.2726 1.2383e-01    21.8040      7.349     10.658    12.2467 0.0000e+00
      7.507      0.073     8.3353     77.757     56.781  42.305103     0.9169      7.042   180.3605 1.2386e-01    21.7400      7.360     10.674    12.2465 0.0000e+00
      7.523      0.067     8.3340     77.735     56.751  42.286272     0.9347      7.042   180.6347 1.2383e-01    21.5619      7.377     10.699    12.2463 0.0000e+00
      7.541      0.062     8.3328     77.722     56.713  42.262246     0.9322      7.041   181.0922 1.2379e-01    21.3929      7.395     10.726    12.2463 0.0000e+00
      7.561      0.057     8.3342     77.707     56.718  42.268498     0.9115      7.040   181.4182 1.2378e-01    21.3364      7.414     10.753    12.2465 0.0000e+00
      7.579      0.052     8.3324     77.716     56.754  42.298393     0.9080      7.040   181.3071 1.2376e-01    21.3574      7.434     10.783    12.2486 0.0000e+00
      7.591      0.047     8.3263     77.740     56.760  42.306350     0.9410      7.039   181.2117 1.2375e-01    21.4072      7.447     10.801    12.2531 0.0000e+00
      7.596      0.042     8.3275     77.744     56.751  42.301241     0.9765      7.039   181.4692 1.2373e-01    21.4266      7.448     10.803    12.2573 0.0000e+00
      7.601      0.041     8.3224     77.751     56.746  42.300095     0.9792      7.039   181.9255 1.2369e-01    21.3867      7.450     10.806    12.2589 0.0000e+00
      7.611      0.044     8.3231     77.769     56.731  42.292500     0.9497      7.040   182.1689 1.2370e-01    21.3346      7.463     10.824    12.2615 0.0000e+00
      7.624      0.051     8.3291     77.792     56.702  42.272879     0.9107      7.040   182.0032 1.2376e-01    21.3436      7.477     10.844    12.2659 0.0000e+00
      7.638      0.057     8.3253     77.811     56.677  42.253274     0.8984      7.040   181.8146 1.2382e-01    21.4262      7.489     10.861    12.2666 0.0000e+00
      7.654      0.060     8.3269     77.829     56.669  42.245877     0.9104      7.040   181.8679 1.2385e-01    21.4801      7.504     10.884    12.2677 0.0000e+00
      7.674      0.060     8.3278     77.859     56.672  42.246917     0.9138      7.040   182.1310 1.2383e-01    21.4141      7.526     10.917    12.2730 0.0000e+00
      7.693      0.059     8.3302     77.866     56.698  42.265843     0.9061      7.040   182.5868 1.2372e-01    21.3801      7.547     10.947    12.2754 0.0000e+00
      7.705      0.056     8.3337     77.850     56.721  42.284293     0.9001      7.040   182.9904 1.2364e-01    21.5131      7.558     10.962    12.2729 0.0000e+00
      7.715      0.053     8.3328     77.831     56.712  42.279577     0.9082      7.040   183.1396 1.2368e-01    21.6892      7.564     10.971    12.2709 0.0000e+00
      7.727      0.051     8.3402     77.792     56.700  42.272294     0.9210      7.039   183.1005 1.2377e-01    21.7680      7.576     10.988    12.2702 0.0000e+00
      7.742      0.051     8.3407     77.733     56.685  42.259714     0.9049      7.039   183.0338 1.2382e-01    21.6465      7.593     11.013    12.2692 0.0000e+00
      7.755      0.054     8.3357     77.678     56.685  42.254408     0.8708      7.039   183.6233 1.2378e-01    21.4157      7.607     11.033    12.2709 0.0000e+00
      7.767      0.054     8.3366     77.642     56.719  42.271609     0.8500      7.040   184.6350 1.2372e-01    21.2994      7.616     11.046    12.2730 0.0000e+00
      7.780      0.052     8.3309     77.637     56.734  42.277259     0.8450      7.040   184.8551 1.2371e-01    21.3337      7.628     11.064    12.2746 0.0000e+00
      7.798      0.049     8.3237     77.669     56.710  42.259248     0.8530      7.039   184.3926 1.2375e-01    21.4893      7.647     11.092    12.2756 0.0000e+00
      7.814      0.051     8.3181     77.718     56.688  42.244255     0.8550      7.038   184.0335 1.2380e-01    21.6774      7.667     11.120    12.2696 0.0000e+00
      7.823      0.057     8.3159     77.762     56.661  42.222927     0.8432      7.038   184.8145 1.2387e-01    21.7636      7.673     11.130    12.2601 0.0000e+00
      7.828      0.065     8.3156     77.793     56.624  42.191783     0.8362      7.037   186.2648 1.2391e-01    21.7802      7.672     11.128    12.2541 0.0000e+00
      7.841      0.075     8.3200     77.810     56.620  42.185054     0.8616      7.036   186.5979 1.2384e-01    21.7752      7.683     11.144    12.2551 0.0000e+00
      7.866      0.087     8.3260     77.815     56.650  42.205031     0.9087      7.035   186.3471 1.2373e-01    21.7025      7.711     11.185    12.2591 0.0000e+00
      7.896      0.102     8.3302     77.799     56.702  42.242905     0.9228      7.033   186.1578 1.2374e-01    21.6194      7.745     11.233    12.2576 0.0000e+00
      7.926      0.117     8.3357     77.750     56.729  42.262146     0.9155      7.032   186.5456 1.2379e-01    21.5904      7.773     11.274    12.2530 0.0000e+00
      7.955      0.128     8.3366     77.677     56.709  42.247252     0.9123      7.033   187.8531 1.2378e-01    21.5564      7.800     11.313    12.2495 0.0000e+00
      7.986      0.133     8.3390     77.586     56.718  42.253246     0.9095      7.033   188.4581 1.2378e-01    21.5157      7.830     11.357    12.2476 0.0000e+00
      8.023      0.133     8.3377     77.488     56.743  42.271144     0.9148      7.031   187.9234 1.2380e-01    21.4740      7.865     11.408    12.2466 0.0000e+00
      8.063      0.126     8.3319     77.406     56.746  42.273235     0.9174      7.030   187.3256 1.2372e-01    21.3936      7.906     11.468    12.2460 0.0000e+00
      8.103      0.115     8.3241     77.350     56.754  42.278533     0.9087      7.031   188.0272 1.2363e-01    21.3977      7.950     11.530    12.2456 0.0000e+00
      8.135      0.102     8.3143     77.332     56.745  42.271727     0.9011      7.031   189.7811 1.2364e-01    21.5237      7.984     11.579    12.2453 0.0000e+00
      8.155      0.092     8.3024     77.364     56.722  42.254413     0.9081      7.031   190.7212 1.2376e-01    21.6198      8.000     11.602    12.2450 0.0000e+00
      8.165      0.087     8.2933     77.402     56.727  42.259606     0.9269      7.031   190.4466 1.2387e-01    21.6714      8.006     11.612    12.2446 0.0000e+00
      8.177      0.085     8.2882     77.432     56.740  42.271041     0.9370      7.031   189.6443 1.2385e-01    21.6691      8.014     11.624    12.2440 0.0000e+00
      8.200      0.088     8.2831     77.477     56.730  42.265724     0.9387      7.031   189.6248 1.2376e-01    21.5241      8.037     11.656    12.2438 0.0000e+00
      8.232      0.093     8.2908     77.503     56.718  42.258795     0.9476      7.030   190.7266 1.2372e-01    21.3529      8.074     11.709    12.2441 0.0000e+00
      8.263      0.097     8.2955     77.510     56.707  42.250740     0.9699      7.030   191.6091 1.2372e-01    21.3751      8.107     11.758    12.2451 0.0000e+00
      8.287      0.096     8.2946     77.520     56.683  42.231805     0.9911      7.030   191.6911 1.2373e-01    21.4856      8.127     11.788    12.2468 0.0000e+00
      8.309      0.090     8.3032     77.520     56.668  42.220265     0.9708      7.030   191.4601 1.2373e-01    21.3906      8.146     11.816    12.2486 0.0000e+00
      8.332      0.085     8.3052     77.534     56.693  42.238151     0.9240      7.030   191.3101 1.2370e-01    21.1484      8.173     11.854    12.2505 0.0000e+00
      8.352      0.083     8.3029     77.574     56.720  42.257651     0.9003      7.030   191.4263 1.2372e-01    21.0499      8.193     11.882    12.2511 0.0000e+00
      8.367      0.083     8.3080     77.617     56.730  42.265619     0.9086      7.030   191.9195 1.2378e-01    21.1225      8.203     11.898    12.2493 0.0000e+00
      8.387      0.084     8.3049     77.663     56.735  42.271024     0.9411      7.030   192.4547 1.2382e-01    21.1722      8.221     11.924    12.2491 0.0000e+00
      8.413      0.087     8.3053     77.686     56.714  42.259521     0.9688      7.031   192.7354 1.2381e-01    21.1052      8.250     11.966    12.2496 0.0000e+00
      8.438      0.094     8.3133     77.676     56.700  42.253487     0.9697      7.031   192.3875 1.2379e-01    21.0631      8.276     12.004    12.2482 0.0000e+00
      8.459      0.103     8.3151     77.652     56.711  42.261551     0.9600      7.031   191.9486 1.2375e-01    21.1071      8.295     12.031    12.2483 0.0000e+00
      8.481      0.112     8.3227     77.606     56.761  42.293556     0.9346      7.031   192.5053 1.2372e-01    21.1592      8.315     12.059    12.2489 0.0000e+00
      8.510      0.121     8.3247     77.537     56.806  42.323080     0.8879      7.030   193.2682 1.2373e-01    21.1802      8.343     12.100    12.2533 0.0000e+00
      8.545      0.131     8.3204     77.487     56.781  42.301152     0.8526      7.028   193.5148 1.2374e-01    21.1563      8.380     12.154    12.2607 0.0000e+00
      8.582      0.138     8.3189     77.446     56.758  42.282311     0.8409      7.028   193.1641 1.2379e-01    21.1777      8.416     12.207    12.2588 0.0000e+00
      8.620      0.139     8.3165     77.372     56.763  42.285693     0.8547      7.028   192.5553 1.2383e-01    21.3021      8.453     12.259    12.2523 0.0000e+00
      8.660      0.134     8.3066     77.321     56.754  42.278565     0.8941      7.028   192.6067 1.2378e-01    21.4650      8.493     12.318    12.2486 0.0000e+00
      8.698      0.125     8.3008     77.296     56.729  42.259600     0.9259      7.028   193.0969 1.2375e-01    21.4739      8.532     12.376    12.2461 0.0000e+00
      8.729      0.116     8.3031     77.247     56.712  42.246800     0.9228      7.028   193.6640 1.2380e-01    21.3406      8.563     12.420    12.2449 0.0000e+00
      8.753      0.108     8.2881     77.184     56.718  42.250744     0.9067      7.028   193.5266 1.2379e-01    21.2881      8.585     12.450    12.2445 0.0000e+00
      8.773      0.100     8.2836     77.116     56.709  42.243815     0.8896      7.028   192.6401 1.2378e-01    21.3515      8.603     12.477    12.2442 0.0000e+00
      8.797      0.093     8.2857     77.054     56.686  42.226500     0.8657      7.029   192.4961 1.2386e-01    21.4588      8.625     12.510    12.2439 0.0000e+00
      8.826      0.088     8.2771     77.019     56.693  42.231796     0.8584      7.029   193.2483 1.2388e-01    21.4927      8.656     12.554    12.2437 0.0000e+00
      8.851      0.087     8.2717     77.019     56.710  42.244386     0.8608      7.029   194.1628 1.2381e-01    21.4193      8.682     12.594    12.2436 0.0000e+00
      8.870      0.087     8.2632     77.037     56.720  42.251773     0.8531      7.030   193.9176 1.2377e-01    21.3223      8.700     12.618    12.2434 0.0000e+00
      8.886      0.085     8.2563     77.073     56.727  42.257643     0.8485      7.030   192.6069 1.2376e-01    21.2764      8.712     12.635    12.2432 0.0000e+00
      8.906      0.081     8.2513     77.136     56.718  42.251888     0.8548      7.029   192.1673 1.2372e-01    21.3429      8.730     12.663    12.2433 0.0000e+00
      8.932      0.078     8.2531     77.215     56.709  42.245655     0.8630      7.028   192.9043 1.2370e-01    21.4783      8.760     12.704    12.2434 0.0000e+00
      8.957      0.082     8.2549     77.301     56.708  42.245760     0.8718      7.027   193.8608 1.2373e-01    21.5460      8.788     12.745    12.2431 0.0000e+00
      8.974      0.093     8.2574     77.360     56.718  42.253157     0.8873      7.026   193.7509 1.2376e-01    21.5130      8.804     12.769    12.2431 0.0000e+00
      8.986      0.104     8.2662     77.391     56.743  42.271617     0.9000      7.026   192.7794 1.2378e-01    21.5226      8.809     12.777    12.2442 0.0000e+00
      9.005      0.109     8.2727     77.433     56.753  42.278542     0.9085      7.026   192.6119 1.2381e-01    21.6280      8.823     12.796    12.2451 0.0000e+00
      9.043      0.107     8.2845     77.455     56.747  42.273406     0.9152      7.025   193.1890 1.2381e-01    21.7282      8.863     12.854    12.2455 0.0000e+00
      9.092      0.099     8.2918     77.442     56.745  42.272990     0.9142      7.025   193.9062 1.2376e-01    21.7783      8.920     12.937    12.2463 0.0000e+00
      9.130      0.087     8.2901     77.434     56.741  42.273520     0.9137      7.025   194.6592 1.2366e-01    21.8232      8.964     13.002    12.2459 0.0000e+00
      9.145      0.069     8.2988     77.412     56.744  42.279813     0.9174      7.024   194.5492 1.2359e-01    21.8957      8.974     13.016    12.2448 0.0000e+00
      9.144      0.051     8.3028     77.366     56.749  42.285615     0.9341      7.023   193.5229 1.2361e-01    21.9715      8.966     13.003    12.2438 0.0000e+00
      9.144      0.046     8.2963     77.325     56.740  42.280195     0.9658      7.023   192.8332 1.2366e-01    22.0562      8.965     13.002    12.2444 0.0000e+00
      9.149      0.057     8.2981     77.297     56.737  42.277752     0.9766      7.023   192.9211 1.2371e-01    22.2374      8.971     13.012    12.2482 0.0000e+00
      9.159      0.081     8.2954     77.272     56.795  42.319549     0.9722      7.022   193.2951 1.2376e-01    24.0598      8.978     13.022    12.2521 0.0000e+00
      9.181      0.103     8.2879     77.264     56.913  42.404722     1.0381      7.021   193.4831 1.2376e-01    43.7148      8.995     13.048    12.2542 0.0000e+00
      9.221      0.116     8.2831     77.269     57.363  42.736316     1.2820      7.021   193.3873 1.2369e-01    79.5915      9.038     13.109    12.2555 0.0000e+00
      9.270      0.116     8.2812     77.245     59.206  44.107240     1.5910      7.021   193.2556 1.2368e-01    99.0990      9.095     13.190    12.2552 0.0000e+00
      9.312      0.105     8.2778     77.187     62.724  46.729091     1.7191      7.021   193.2671 1.2375e-01   100.6171      9.138     13.254    12.2538 0.0000e+00
      9.337      0.085     8.2767     77.079     68.040  50.694486     1.6750      7.021   193.5264 1.2380e-01    98.5611      9.162     13.289    12.2511 0.0000e+00
      9.348      0.061     8.2815     76.889     92.265  68.752311     1.2240      7.021   193.8095 1.2381e-01    74.7872      9.169     13.298    12.2468 0.0000e+00
      9.351      0.041     8.2784     76.624    170.224 126.849583     0.4100      7.021   193.7655 1.2381e-01    31.1404      9.170     13.300    12.2448 0.0000e+00
      9.354      0.031     8.2715     76.196    274.220 204.332525    -0.0349      7.021   193.9404 1.2383e-01     7.2855      9.173     13.304    12.2463 0.0000e+00
      9.357      0.030     8.2630     75.432    332.955 248.063518    -0.0682      7.021   194.6332 1.2387e-01     5.0482      9.175     13.307    12.2500 0.0000e+00
      9.364      0.033     8.2383     74.272    349.326 260.222484    -0.0510      7.021   195.1728 1.2390e-01     3.7485      9.180     13.315    12.2544 0.0000e+00
      9.377      0.036     8.2102     72.747    356.582 265.603067    -0.0439      7.021   195.3878 1.2387e-01     1.5800      9.196     13.337    12.2581 0.0000e+00
      9.392      0.036     8.1718     70.942    360.947 268.848980    -0.0486      7.022   195.6843 1.2382e-01     0.3837      9.212     13.361    12.2567 0.0000e+00
      9.404      0.035     8.0902     68.963    364.042 271.167421    -0.0489      7.022   196.0043 1.2374e-01     0.3513      9.224     13.378    12.2487 0.0000e+00
      9.411      0.034     7.9662     66.895    366.687 273.160430    -0.0478      7.021   196.1603 1.2370e-01     0.5733      9.231     13.390    12.2427 0.0000e+00
      9.415      0.035     7.8006     64.908    369.266 275.101040    -0.0525      7.013   195.8496 1.2372e-01     0.8479      9.233     13.392    12.2393 0.0000e+00
      9.419      0.040     7.6013     63.164    371.593 276.848434    -0.0721      6.968   194.6571 1.2373e-01     0.9379      9.235     13.395    12.2381 0.0000e+00
      9.426      0.046     7.3890     61.705    373.618 278.365715    -0.0855      6.874   193.1850 1.2373e-01     0.9101      9.241     13.403    12.2408 0.0000e+00
      9.441      0.052     7.1593     60.551    375.506 279.769984    -0.0725      6.774   192.2472 1.2375e-01     0.8196      9.255     13.424    12.2444 0.0000e+00
      9.463      0.054     6.9369     59.696    377.151 280.984740    -0.0483      6.711   191.8362 1.2374e-01     0.6636      9.279     13.459    12.2471 0.0000e+00
      9.484      0.052     6.7522     59.101    378.366 281.879509    -0.0345      6.684   191.6572 1.2369e-01     0.5948      9.304     13.493    12.2487 0.0000e+00
      9.499      0.046     6.5928     58.694    379.114 282.432605    -0.0467      6.683   191.2870 1.2369e-01     0.5350      9.318     13.515    12.2504 0.0000e+00
      9.507      0.036     6.4706     58.384    379.594 282.791297    -0.0714      6.695   190.5434 1.2378e-01     0.3165      9.323     13.524    12.2501 0.0000e+00
      9.510      0.027     6.3807     58.138    380.221 283.262120    -0.0745      6.716   189.4635 1.2386e-01     0.0362      9.326     13.527    12.2480 0.0000e+00
      9.513      0.021     6.3188     57.916    381.224 284.014834    -0.0596      6.741   188.0388 1.2384e-01    -0.0531      9.328     13.530    12.2464 0.0000e+00
      9.517      0.019     6.2816     57.697    382.390 284.891498    -0.0579      6.768   186.7393 1.2379e-01    -0.0108      9.331     13.534    12.2458 0.0000e+00
      9.522      0.020     6.2467     57.508    383.718 285.897324    -0.0619      6.794   186.1417 1.2385e-01    -0.0335      9.337     13.542    12.2462 0.0000e+00
      9.528      0.021     6.2230     57.317    385.402 287.183570    -0.0575      6.818   186.1477 1.2391e-01    -0.0889      9.344     13.552    12.2465 0.0000e+00
      9.534      0.021     6.2011     57.106    387.108 288.495390    -0.0632      6.841   186.4673 1.2389e-01    -0.1676      9.349     13.560    12.2474 0.0000e+00
      9.540      0.020     6.1731     56.890    388.393 289.488643    -0.0737      6.862   186.9084 1.2384e-01    -0.2681      9.355     13.569    12.2482 0.0000e+00
      9.546      0.018     6.1565     56.635    389.403 290.263141    -0.0753      6.881   187.0933 1.2382e-01    -0.3139      9.361     13.577    12.2498 0.0000e+00
      9.551      0.015     6.1364     56.344    390.621 291.178161    -0.0662      6.899   186.8099 1.2383e-01    -0.2768      9.367     13.586    12.2543 0.0000e+00
      9.555      0.011     6.1095     56.032    392.260 292.392352    -0.0472      6.915   185.9765 1.2388e-01    -0.1953      9.371     13.591    12.2604 0.0000e+00
      9.557      0.007     6.0900     55.687    394.207 293.828060    -0.0363      6.930   184.9325 1.2388e-01    -0.1147      9.372     13.593    12.2653 0.0000e+00
      9.557      0.003     6.0611     55.339    396.192 295.300240    -0.0424      6.944   184.7705 1.2385e-01    -0.0876      9.372     13.593    12.2677 0.0000e+00
      9.557      0.001     6.0279     54.993    398.147 296.761803    -0.0464      6.957   185.2216 1.2384e-01    -0.1066      9.372     13.593    12.2690 0.0000e+00
      9.556     -0.001     5.9979     54.629    400.241 298.325189    -0.0509      6.968   185.0516 1.2381e-01    -0.1386      9.372     13.593    12.2679 0.0000e+00
      9.555     -0.002     5.9577     54.256    402.317 299.870640    -0.0725      6.979   184.5216 1.2379e-01    -0.2020      9.370     13.591    12.2645 0.0000e+00
      9.555     -0.003     5.9212     53.881    404.159 301.242943    -0.0830      6.990   184.1481 1.2380e-01    -0.2237      9.370     13.590    12.2637 0.0000e+00
      9.554     -0.003     5.8854     53.496    405.859 302.511627    -0.0691      7.000   184.0646 1.2378e-01    -0.1631      9.370     13.590    12.2654 0.0000e+00
      9.553     -0.003     5.8453     53.100    407.626 303.831947    -0.0541      7.010   184.4573 1.2378e-01    -0.1178      9.369     13.588    12.2654 0.0000e+00
      9.552     -0.002     5.8050     52.704    409.692 305.377799    -0.0440      7.020   185.0245 1.2382e-01    -0.1198      9.368     13.587    12.2649 0.0000e+00
      9.552     -0.001     5.7657     52.329    412.109 307.186553    -0.0384      7.028   185.0728 1.2381e-01    -0.1188      9.367     13.586    12.2649 0.0000e+00
      9.552      0.000     5.7245     51.985    414.769 309.176883    -0.0448      7.036   184.7826 1.2376e-01    -0.1058      9.367     13.585    12.2650 0.0000e+00
      9.552     -0.000     5.6816     51.654    417.530 311.244771    -0.0632      7.044   184.9581 1.2379e-01    -0.1341      9.366     13.585    12.2656 0.0000e+00
      9.553     -0.001     5.6385     51.320    420.162 313.217812    -0.0774      7.053   185.5601 1.2383e-01    -0.2219      9.368     13.588    12.2662 0.0000e+00
      9.553     -0.003     5.5967     51.004    422.655 315.088658    -0.0745      7.060   186.2964 1.2383e-01    -0.2786      9.369     13.589    12.2670 0.0000e+00
      9.553     -0.005     5.5614     50.724    425.217 317.012644    -0.0614      7.068   186.8044 1.2382e-01    -0.2392      9.368     13.587    12.2680 0.0000e+00
      9.551     -0.006     5.5265     50.451    427.842 318.983312    -0.0525      7.077   186.8854 1.2378e-01    -0.1552      9.368     13.587    12.2691 0.0000e+00
      9.548     -0.006     5.4900     50.174    430.397 320.902338    -0.0589      7.084   186.8449 1.2375e-01    -0.1507      9.365     13.581    12.2704 0.0000e+00
      9.544     -0.006     5.4539     49.921    432.810 322.714963    -0.0630      7.091   186.9174 1.2380e-01    -0.1852      9.359     13.573    12.2719 0.0000e+00
      9.542     -0.007     5.4259     49.705    434.915 324.298426    -0.0530      7.098   187.1592 1.2383e-01    -0.1627      9.356     13.570    12.2736 0.0000e+00
      9.542     -0.012     5.3974     49.513    436.599 325.568969    -0.0539      7.106   187.3599 1.2378e-01    -0.1515      9.356     13.570    12.2753 0.0000e+00
      9.544     -0.018     5.3653     49.341    437.990 326.621798    -0.0747      7.112   187.2784 1.2373e-01    -0.1875      9.360     13.576    12.2768 0.0000e+00
      9.543     -0.023     5.3377     49.182    439.237 327.567328    -0.0877      7.118   187.1214 1.2376e-01    -0.2564      9.364     13.581    12.2783 0.0000e+00
      9.532     -0.026     5.3153     49.029    440.387 328.441139    -0.0773      7.125   187.2678 1.2384e-01    -0.3007      9.352     13.564    12.2799 0.0000e+00
      9.514     -0.030     5.2943     48.876    441.392 329.205728    -0.0582      7.131   187.4994 1.2386e-01    -0.2789      9.327     13.528    12.2817 0.0000e+00
      9.503     -0.043     5.2761     48.721    442.162 329.795883    -0.0565      7.141   187.0824 1.2379e-01    -0.2660      9.314     13.509    12.2836 0.0000e+00
      9.502     -0.068     5.2593     48.571    442.899 330.362758    -0.0643      7.158   186.4425 1.2369e-01    -0.2820      9.318     13.514    12.2854 0.0000e+00
      9.502     -0.104     5.2427     48.443    444.298 331.425042    -0.0525      7.186   186.9031 1.2362e-01    -0.2320      9.321     13.520    12.2870 0.0000e+00
      9.487     -0.140     5.2266     48.340    446.881 333.369859    -0.0392      7.222   188.0907 1.2364e-01    -0.1063      9.316     13.512    12.2887 0.0000e+00
      9.442     -0.157     5.2090     48.259    450.101 335.786623    -0.0367      7.262   187.3806 1.2375e-01     0.3150      9.272     13.447    12.2905 0.0000e+00
      9.367     -0.142     5.1924     48.205    452.945 337.917871    -0.0229      7.317   183.8227 1.2384e-01     4.6226      9.191     13.330    12.2926 0.0000e+00
      9.281     -0.097     5.1778     48.170    455.485 339.821141    -0.0046      7.380   180.1768 1.2387e-01    12.5236      9.093     13.188    12.2946 0.0000e+00
      9.228     -0.033     5.1677     48.162    458.638 342.183949    -0.0075      7.432   178.1444 1.2385e-01    16.7660      9.018     13.080    12.2969 0.0000e+00
      9.246      0.038     5.1571     48.179    462.621 345.167789    -0.0158      7.463   177.3175 1.2384e-01    16.7358      9.045     13.118    12.2986 0.0000e+00
      9.319      0.103     5.1531     48.219    466.842 348.329178    -0.0219      7.466   176.7182 1.2381e-01    12.6367      9.143     13.261    12.2994 0.0000e+00
      9.390      0.147     5.1478     48.265    470.966 351.417707    -0.0391      7.436   175.2862 1.2372e-01     5.0868      9.224     13.379    12.3002 0.0000e+00
      9.432      0.156     5.1471     48.284    475.058 354.482622    -0.0574      7.391   172.9955 1.2372e-01     0.9429      9.254     13.423    12.3012 0.0000e+00
      9.460      0.135     5.1495     48.315    478.890 357.354293    -0.0683      7.346   169.6707 1.2378e-01     0.5190      9.273     13.450    12.3027 0.0000e+00
      9.489      0.102     5.1517     48.386    481.865 359.584934    -0.0715      7.310   165.5435 1.2373e-01     0.5079      9.308     13.502    12.3040 0.0000e+00
      9.512      0.077     5.1619     48.471    483.949 361.148740    -0.0628      7.286   162.0696 1.2366e-01     0.6374      9.333     13.537    12.3052 0.0000e+00
      9.525      0.068     5.1587     48.514    484.845 361.821943    -0.0545      7.277   160.7078 1.2376e-01     0.7187      9.342     13.549    12.3064 0.0000e+00
      9.534 -9.990e-29     5.1613 -9.990e-29 -9.990e-29 -9.990e-29 -9.990e-29 -9.990e-29 -9.990e-29 1.2392e-01 -9.990e-29      9.349     13.560    12.3078 0.0000e+00
      9.544 -9.990e-29     5.1707 -9.990e-29 -9.990e-29 -9.990e-29 -9.990e-29 -9.990e-29 -9.990e-29 1.2390e-01 -9.990e-29      9.359     13.574    12.3089 0.0000e+00
      9.553 -9.990e-29     5.1802 -9.990e-29 -9.990e-29 -9.990e-29 -9.990e-29 -9.990e-29 -9.990e-29 1.2380e-01 -9.990e-29      9.370     13.589    12.3099 0.0000e+00
      9.557 -9.990e-29     5.1896 -9.990e-29 -9.990e-29 -9.990e-29 -9.990e-29 -9.990e-29 -9.990e-29 1.2377e-01 -9.990e-29      9.376     13.598    12.3107 0.0000e+00
